%OpenBCI Raw EEG Data
%
%Sample Rate = 250.0 Hz
%First Column = SampleIndex
%Last Column = Timestamp 
%Other Columns = EEG data in microvolts followed by Accel Data (in G) interleaved with Aux Data
0, 0.00, 0.00, 0.00, 0.00, 0.00, 0.00, 0.00, 0.00, 0.000, 0.000, 0.000, 13:18:29.368
1, 0.00, 24993.18, 13217.46, 4231.56, -5966.64, 10663.59, 29240.80, 0.00, 0.036, -0.040, 0.984, 13:18:29.852
2, 0.00, 25008.27, 13231.25, 4065.42, -6342.71, 10673.00, 29231.30, 0.00, 0.000, 0.000, 0.000, 13:18:29.852
3, 0.00, 25002.08, 13226.04, 4082.05, -6576.71, 10664.73, 29224.44, 0.00, 0.000, 0.000, 0.000, 13:18:29.853
4, 0.00, 24988.69, 13214.91, 4265.03, -6353.75, 10656.89, 29237.06, 0.00, 0.000, 0.000, 0.000, 13:18:29.853
5, 0.00, 24986.10, 13211.04, 4366.28, -5940.85, 10657.11, 29250.39, 0.00, 0.000, 0.000, 0.000, 13:18:29.853
6, 0.00, 24997.83, 13221.86, 4230.47, -5964.97, 10663.75, 29244.13, 0.00, 0.000, 0.000, 0.000, 13:18:29.853
7, 0.00, 25008.45, 13237.40, 4066.65, -6341.39, 10670.57, 29229.49, 0.00, 0.000, 0.000, 0.000, 13:18:29.854
8, 0.00, 25003.17, 13230.62, 4084.56, -6576.37, 10667.73, 29226.22, 0.00, 0.034, -0.046, 0.986, 13:18:29.854
9, 0.00, 24991.93, 13215.92, 4269.12, -6349.15, 10663.08, 29243.21, 0.00, 0.000, 0.000, 0.000, 13:18:29.854
10, 0.00, 24990.63, 13212.74, 4372.81, -5930.50, 10662.59, 29257.94, 0.00, 0.000, 0.000, 0.000, 13:18:29.854
11, 0.00, 25000.07, 13220.12, 4227.83, -5963.65, 10665.65, 29250.52, 0.00, 0.000, 0.000, 0.000, 13:18:29.854
12, 0.00, 25005.57, 13226.35, 4057.06, -6341.23, 10669.56, 29230.29, 0.00, 0.000, 0.000, 0.000, 13:18:29.855
13, 0.00, 25001.97, 13224.32, 4075.75, -6572.40, 10666.57, 29226.09, 0.00, 0.000, 0.000, 0.000, 13:18:29.855
14, 0.00, 24988.67, 13212.85, 4260.00, -6353.30, 10658.05, 29239.25, 0.00, 0.000, 0.000, 0.000, 13:18:29.855
15, 0.00, 24986.30, 13208.38, 4361.85, -5940.62, 10659.79, 29253.43, 0.00, 0.000, 0.000, 0.000, 13:18:29.855
16, 0.00, 24998.46, 13218.87, 4225.13, -5962.69, 10666.83, 29247.30, 0.00, 0.000, 0.000, 0.000, 13:18:29.856
17, 0.00, 25009.68, 13234.51, 4063.77, -6335.87, 10672.60, 29232.19, 0.00, 0.000, 0.000, 0.000, 13:18:29.856
18, 0.00, 25006.75, 13230.65, 4080.51, -6574.43, 10668.60, 29228.62, 0.00, 0.032, -0.044, 0.996, 13:18:29.856
19, 0.00, 24994.57, 13218.02, 4263.37, -6353.17, 10661.85, 29243.86, 0.00, 0.000, 0.000, 0.000, 13:18:29.857
20, 0.00, 24990.50, 13212.92, 4367.17, -5934.99, 10660.78, 29255.17, 0.00, 0.000, 0.000, 0.000, 13:18:29.857
21, 0.00, 25002.68, 13224.66, 4229.08, -5961.48, 10668.69, 29249.74, 0.00, 0.000, 0.000, 0.000, 13:18:29.857
22, 0.00, 25010.77, 13236.19, 4063.46, -6336.99, 10671.91, 29232.79, 0.00, 0.000, 0.000, 0.000, 13:18:29.857
23, 0.00, 25005.52, 13232.68, 4080.56, -6570.12, 10667.39, 29227.77, 0.00, 0.000, 0.000, 0.000, 13:18:29.857
24, 0.00, 24995.55, 13218.20, 4263.01, -6348.74, 10662.45, 29242.47, 0.00, 0.000, 0.000, 0.000, 13:18:29.857
25, 0.00, 24992.18, 13211.13, 4363.80, -5933.78, 10660.24, 29256.06, 0.00, 0.000, 0.000, 0.000, 13:18:29.858
26, 0.00, 25001.86, 13218.58, 4222.89, -5955.94, 10664.55, 29249.78, 0.00, 0.000, 0.000, 0.000, 13:18:29.858
27, 0.00, 25010.06, 13230.06, 4054.03, -6332.85, 10668.40, 29232.13, 0.00, 0.000, 0.000, 0.000, 13:18:29.858
28, 0.00, 25005.32, 13228.08, 4073.38, -6573.20, 10663.48, 29225.31, 0.00, 0.034, -0.044, 0.992, 13:18:29.858
29, 0.00, 24994.64, 13215.04, 4255.97, -6358.62, 10659.39, 29240.69, 0.00, 0.000, 0.000, 0.000, 13:18:29.859
30, 0.00, 24991.73, 13210.28, 4362.70, -5940.69, 10659.17, 29254.52, 0.00, 0.000, 0.000, 0.000, 13:18:29.859
31, 0.00, 25000.43, 13218.35, 4224.68, -5961.63, 10666.05, 29247.12, 0.00, 0.000, 0.000, 0.000, 13:18:29.859
32, 0.00, 25010.26, 13227.56, 4054.25, -6335.09, 10671.24, 29231.79, 0.00, 0.000, 0.000, 0.000, 13:18:29.860
33, 0.00, 25004.16, 13223.20, 4067.41, -6576.46, 10665.69, 29226.27, 0.00, 0.000, 0.000, 0.000, 13:18:29.860
34, 0.00, 24991.06, 13211.07, 4249.49, -6363.27, 10657.85, 29239.41, 0.00, 0.000, 0.000, 0.000, 13:18:29.860
35, 0.00, 24989.56, 13203.38, 4351.17, -5949.18, 10656.78, 29254.68, 0.00, 0.000, 0.000, 0.000, 13:18:29.860
36, 0.00, 25001.28, 13218.78, 4222.49, -5965.14, 10666.99, 29249.92, 0.00, 0.000, 0.000, 0.000, 13:18:29.861
37, 0.00, 25008.07, 13234.22, 4061.60, -6333.63, 10675.06, 29231.70, 0.00, 0.000, 0.000, 0.000, 13:18:29.861
38, 0.00, 25002.62, 13228.39, 4074.79, -6575.48, 10669.60, 29224.44, 0.00, 0.032, -0.040, 0.992, 13:18:29.861
39, 0.00, 24989.47, 13210.75, 4248.31, -6372.21, 10657.85, 29236.30, 0.00, 0.000, 0.000, 0.000, 13:18:29.861
40, 0.00, 24986.32, 13205.37, 4349.96, -5958.84, 10659.08, 29250.81, 0.00, 0.000, 0.000, 0.000, 13:18:29.862
41, 0.00, 24995.20, 13214.95, 4219.34, -5974.71, 10667.10, 29241.76, 0.00, 0.000, 0.000, 0.000, 13:18:29.862
42, 0.00, 25005.63, 13228.52, 4054.07, -6342.80, 10673.94, 29226.71, 0.00, 0.000, 0.000, 0.000, 13:18:29.862
43, 0.00, 25002.68, 13225.86, 4067.08, -6583.91, 10670.37, 29225.84, 0.00, 0.000, 0.000, 0.000, 13:18:29.863
44, 0.00, 24992.65, 13215.56, 4250.65, -6376.37, 10662.92, 29240.26, 0.00, 0.000, 0.000, 0.000, 13:18:29.863
45, 0.00, 24989.56, 13210.73, 4359.77, -5959.24, 10662.47, 29252.38, 0.00, 0.000, 0.000, 0.000, 13:18:29.863
46, 0.00, 24998.93, 13220.18, 4226.33, -5970.42, 10668.93, 29245.92, 0.00, 0.000, 0.000, 0.000, 13:18:29.863
47, 0.00, 25005.25, 13229.62, 4054.11, -6342.67, 10672.09, 29227.65, 0.00, 0.000, 0.000, 0.000, 13:18:29.864
48, 0.00, 25003.31, 13228.37, 4066.25, -6587.95, 10669.76, 29225.02, 0.00, 0.036, -0.040, 0.988, 13:18:29.864
49, 0.00, 24991.46, 13215.60, 4247.50, -6382.09, 10661.49, 29239.17, 0.00, 0.000, 0.000, 0.000, 13:18:29.864
50, 0.00, 24989.12, 13209.37, 4358.46, -5962.69, 10660.58, 29253.43, 0.00, 0.000, 0.000, 0.000, 13:18:29.865
51, 0.00, 25001.05, 13218.80, 4231.99, -5972.48, 10669.52, 29247.10, 0.00, 0.000, 0.000, 0.000, 13:18:29.865
52, 0.00, 25009.16, 13226.89, 4064.75, -6340.45, 10673.54, 29229.17, 0.00, 0.000, 0.000, 0.000, 13:18:29.865
53, 0.00, 25001.41, 13222.04, 4072.91, -6587.66, 10667.91, 29219.56, 0.00, 0.000, 0.000, 0.000, 13:18:29.866
54, 0.00, 24986.99, 13207.76, 4248.53, -6385.94, 10659.01, 29232.24, 0.00, 0.000, 0.000, 0.000, 13:18:29.866
55, 0.00, 24984.96, 13206.37, 4363.08, -5969.73, 10658.09, 29246.83, 0.00, 0.000, 0.000, 0.000, 13:18:29.866
56, 0.00, 24993.07, 13214.64, 4235.25, -5975.47, 10660.93, 29237.44, 0.00, 0.000, 0.000, 0.000, 13:18:29.866
57, 0.00, 25002.08, 13224.39, 4062.25, -6344.23, 10665.67, 29223.72, 0.00, 0.000, 0.000, 0.000, 13:18:29.867
58, 0.00, 24999.38, 13223.27, 4069.94, -6595.35, 10664.67, 29220.63, 0.00, 0.028, -0.040, 0.988, 13:18:29.867
59, 0.00, 24990.32, 13216.05, 4254.16, -6390.45, 10659.48, 29235.99, 0.00, 0.000, 0.000, 0.000, 13:18:29.867
60, 0.00, 24986.52, 13213.37, 4368.60, -5971.94, 10657.94, 29248.91, 0.00, 0.000, 0.000, 0.000, 13:18:29.867
61, 0.00, 24992.33, 13216.56, 4233.87, -5982.24, 10661.09, 29238.83, 0.00, 0.000, 0.000, 0.000, 13:18:29.868
62, 0.00, 25000.29, 13226.06, 4059.77, -6349.08, 10667.73, 29221.60, 0.00, 0.000, 0.000, 0.000, 13:18:29.868
63, 0.00, 24998.06, 13224.43, 4069.43, -6593.88, 10666.34, 29218.49, 0.00, 0.000, 0.000, 0.000, 13:18:29.868
64, 0.00, 24987.60, 13213.05, 4247.01, -6396.24, 10661.31, 29233.67, 0.00, 0.000, 0.000, 0.000, 13:18:29.868
65, 0.00, 24981.45, 13205.61, 4358.50, -5974.38, 10659.61, 29245.63, 0.00, 0.000, 0.000, 0.000, 13:18:29.868
66, 0.00, 24995.64, 13218.58, 4231.14, -5977.88, 10667.21, 29244.22, 0.00, 0.000, 0.000, 0.000, 13:18:29.869
67, 0.00, 25003.55, 13225.97, 4057.67, -6347.74, 10668.46, 29226.18, 0.00, 0.000, 0.000, 0.000, 13:18:29.869
68, 0.00, 25001.07, 13223.83, 4065.40, -6599.80, 10667.28, 29222.07, 0.00, 0.030, -0.034, 0.992, 13:18:29.869
69, 0.00, 24990.81, 13212.67, 4245.94, -6401.61, 10660.58, 29236.82, 0.00, 0.000, 0.000, 0.000, 13:18:29.869
70, 0.00, 24984.24, 13204.18, 4359.08, -5975.38, 10657.16, 29248.60, 0.00, 0.000, 0.000, 0.000, 13:18:29.870
71, 0.00, 24992.45, 13210.75, 4224.12, -5981.30, 10660.75, 29241.51, 0.00, 0.000, 0.000, 0.000, 13:18:29.870
72, 0.00, 25006.24, 13225.17, 4055.34, -6348.32, 10669.47, 29229.04, 0.00, 0.000, 0.000, 0.000, 13:18:29.870
73, 0.00, 25000.76, 13219.42, 4061.22, -6599.26, 10664.38, 29221.69, 0.00, 0.000, 0.000, 0.000, 13:18:29.870
74, 0.00, 24988.89, 13207.31, 4237.96, -6406.17, 10657.27, 29234.31, 0.00, 0.000, 0.000, 0.000, 13:18:29.870
75, 0.00, 24983.91, 13205.28, 4357.47, -5981.37, 10657.04, 29246.34, 0.00, 0.000, 0.000, 0.000, 13:18:29.873
76, 0.00, 24996.09, 13217.68, 4230.76, -5977.62, 10664.67, 29244.22, 0.00, 0.000, 0.000, 0.000, 13:18:29.873
77, 0.00, 25005.63, 13228.61, 4055.84, -6347.09, 10668.06, 29228.55, 0.00, 0.000, 0.000, 0.000, 13:18:29.873
78, 0.00, 25001.16, 13231.14, 4065.49, -6602.03, 10666.41, 29221.60, 0.00, 0.030, -0.032, 0.986, 13:18:29.873
79, 0.00, 24986.54, 13212.58, 4242.20, -6408.60, 10656.71, 29232.15, 0.00, 0.000, 0.000, 0.000, 13:18:29.874
80, 0.00, 24984.24, 13205.21, 4355.15, -5985.60, 10656.48, 29248.13, 0.00, 0.000, 0.000, 0.000, 13:18:29.874
81, 0.00, 24992.36, 13211.80, 4225.73, -5980.37, 10660.58, 29242.43, 0.00, 0.000, 0.000, 0.000, 13:18:29.874
82, 0.00, 24999.67, 13224.14, 4053.35, -6348.72, 10666.10, 29224.99, 0.00, 0.000, 0.000, 0.000, 13:18:29.875
83, 0.00, 24999.51, 13226.06, 4063.35, -6599.58, 10666.59, 29221.66, 0.00, 0.000, 0.000, 0.000, 13:18:29.875
84, 0.00, 24988.94, 13213.64, 4241.94, -6406.52, 10660.35, 29235.12, 0.00, 0.000, 0.000, 0.000, 13:18:29.875
85, 0.00, 24985.07, 13206.77, 4359.51, -5980.14, 10657.94, 29249.98, 0.00, 0.000, 0.000, 0.000, 13:18:29.875
86, 0.00, 24995.20, 13214.55, 4227.63, -5977.35, 10666.34, 29245.29, 0.00, 0.000, 0.000, 0.000, 13:18:29.876
87, 0.00, 25001.79, 13222.42, 4051.39, -6346.69, 10669.29, 29225.60, 0.00, 0.000, 0.000, 0.000, 13:18:29.876
88, 0.00, 24996.38, 13219.67, 4055.59, -6604.25, 10662.41, 29217.10, 0.00, 0.030, -0.040, 0.988, 13:18:29.876
89, 0.00, 24984.42, 13206.82, 4232.37, -6417.23, 10655.34, 29230.18, 0.00, 0.000, 0.000, 0.000, 13:18:29.876
90, 0.00, 24981.72, 13200.00, 4347.95, -5996.77, 10652.84, 29245.09, 0.00, 0.000, 0.000, 0.000, 13:18:29.877
91, 0.00, 24993.96, 13213.50, 4224.88, -5984.17, 10662.61, 29241.80, 0.00, 0.000, 0.000, 0.000, 13:18:29.877
92, 0.00, 25002.68, 13224.90, 4053.18, -6345.03, 10668.38, 29225.62, 0.00, 0.000, 0.000, 0.000, 13:18:29.877
93, 0.00, 24998.35, 13224.90, 4059.81, -6601.39, 10664.64, 29219.88, 0.00, 0.000, 0.000, 0.000, 13:18:29.877
94, 0.00, 24985.40, 13212.18, 4235.66, -6414.95, 10657.22, 29230.74, 0.00, 0.000, 0.000, 0.000, 13:18:29.877
95, 0.00, 24981.00, 13206.10, 4354.32, -5989.84, 10654.23, 29243.17, 0.00, 0.000, 0.000, 0.000, 13:18:29.878
96, 0.00, 24992.96, 13215.45, 4224.88, -5984.01, 10661.87, 29239.72, 0.00, 0.000, 0.000, 0.000, 13:18:29.878
97, 0.00, 25001.39, 13225.37, 4046.98, -6345.48, 10665.09, 29222.76, 0.00, 0.000, 0.000, 0.000, 13:18:29.878
98, 0.00, 24997.30, 13222.96, 4049.87, -6609.12, 10663.55, 29216.93, 0.00, 0.032, -0.038, 0.984, 13:18:29.878
99, 0.00, 24984.47, 13209.41, 4228.12, -6425.43, 10653.60, 29229.40, 0.00, 0.000, 0.000, 0.000, 13:18:29.879
100, 0.00, 24983.17, 13208.11, 4353.31, -5994.31, 10658.23, 29247.35, 0.00, 0.000, 0.000, 0.000, 13:18:29.879
101, 0.00, 24991.87, 13216.30, 4228.82, -5978.67, 10662.65, 29241.51, 0.00, 0.000, 0.000, 0.000, 13:18:29.879
102, 0.00, 25000.83, 13226.26, 4051.50, -6343.00, 10667.44, 29224.70, 0.00, 0.000, 0.000, 0.000, 13:18:29.879
103, 0.00, 24997.77, 13223.34, 4051.57, -6606.13, 10661.69, 29218.80, 0.00, 0.000, 0.000, 0.000, 13:18:29.879
104, 0.00, 24986.57, 13209.90, 4229.20, -6418.95, 10654.52, 29232.68, 0.00, 0.000, 0.000, 0.000, 13:18:29.880
105, 0.00, 24983.24, 13201.25, 4344.75, -5997.78, 10653.44, 29247.84, 0.00, 0.000, 0.000, 0.000, 13:18:29.880
106, 0.00, 24992.15, 13213.34, 4224.77, -5982.09, 10659.86, 29240.69, 0.00, 0.000, 0.000, 0.000, 13:18:29.880
107, 0.00, 25003.91, 13228.30, 4058.16, -6339.67, 10667.57, 29226.49, 0.00, 0.026, -0.038, 0.986, 13:18:29.880
108, 0.00, 25002.53, 13224.39, 4054.11, -6607.51, 10664.26, 29222.94, 0.00, 0.000, 0.000, 0.000, 13:18:29.881
109, 0.00, 24989.83, 13209.23, 4226.11, -6429.19, 10656.04, 29234.40, 0.00, 0.000, 0.000, 0.000, 13:18:29.881
110, 0.00, 24983.77, 13199.73, 4344.75, -6002.09, 10652.44, 29248.31, 0.00, 0.000, 0.000, 0.000, 13:18:29.881
111, 0.00, 24991.64, 13212.58, 4225.33, -5979.92, 10658.21, 29242.05, 0.00, 0.000, 0.000, 0.000, 13:18:29.881
112, 0.00, 25001.83, 13224.28, 4052.86, -6340.05, 10664.67, 29225.87, 0.00, 0.000, 0.000, 0.000, 13:18:29.882
113, 0.00, 24998.77, 13222.67, 4052.62, -6604.74, 10661.58, 29220.97, 0.00, 0.000, 0.000, 0.000, 13:18:29.882
114, 0.00, 24989.27, 13213.52, 4231.27, -6426.26, 10657.27, 29236.55, 0.00, 0.000, 0.000, 0.000, 13:18:29.882
115, 0.00, 24985.09, 13207.15, 4355.19, -6000.86, 10655.41, 29250.79, 0.00, 0.000, 0.000, 0.000, 13:18:29.882
116, 0.00, 24996.22, 13215.83, 4233.73, -5979.09, 10663.68, 29247.39, 0.00, 0.000, 0.000, 0.000, 13:18:29.882
117, 0.00, 25004.65, 13224.83, 4056.35, -6337.99, 10668.15, 29228.86, 0.00, 0.032, -0.038, 0.982, 13:18:29.883
118, 0.00, 24998.62, 13220.94, 4047.88, -6612.94, 10661.38, 29219.38, 0.00, 0.000, 0.000, 0.000, 13:18:29.883
119, 0.00, 24986.93, 13207.71, 4228.99, -6432.59, 10655.52, 29232.08, 0.00, 0.000, 0.000, 0.000, 13:18:29.883
120, 0.00, 24984.06, 13202.66, 4353.87, -5999.72, 10657.18, 29248.29, 0.00, 0.000, 0.000, 0.000, 13:18:29.883
121, 0.00, 24993.23, 13211.51, 4228.08, -5981.77, 10662.45, 29243.41, 0.00, 0.000, 0.000, 0.000, 13:18:30.332
122, 0.00, 25002.91, 13221.01, 4053.18, -6339.04, 10665.16, 29226.71, 0.00, 0.000, 0.000, 0.000, 13:18:30.332
123, 0.00, 25001.54, 13224.72, 4054.32, -6610.84, 10665.00, 29222.16, 0.00, 0.000, 0.000, 0.000, 13:18:30.332
124, 0.00, 24989.36, 13214.19, 4235.05, -6431.54, 10660.58, 29236.06, 0.00, 0.000, 0.000, 0.000, 13:18:30.332
125, 0.00, 24981.87, 13203.06, 4355.77, -6001.71, 10656.62, 29249.07, 0.00, 0.000, 0.000, 0.000, 13:18:30.332
126, 0.00, 24992.29, 13210.53, 4232.64, -5975.43, 10660.64, 29244.93, 0.00, 0.000, 0.000, 0.000, 13:18:30.333
127, 0.00, 25000.60, 13220.45, 4054.41, -6337.64, 10665.98, 29227.01, 0.00, 0.032, -0.036, 0.988, 13:18:30.333
128, 0.00, 25001.79, 13220.99, 4051.10, -6605.92, 10667.01, 29225.08, 0.00, 0.000, 0.000, 0.000, 13:18:30.333
129, 0.00, 24991.57, 13209.34, 4223.47, -6435.40, 10658.94, 29237.27, 0.00, 0.000, 0.000, 0.000, 13:18:30.333
130, 0.00, 24985.12, 13202.79, 4349.98, -6006.92, 10655.14, 29250.03, 0.00, 0.000, 0.000, 0.000, 13:18:30.334
131, 0.00, 24993.25, 13211.31, 4228.97, -5976.32, 10660.37, 29245.65, 0.00, 0.000, 0.000, 0.000, 13:18:30.334
132, 0.00, 25001.16, 13225.71, 4055.81, -6334.86, 10666.77, 29227.07, 0.00, 0.000, 0.000, 0.000, 13:18:30.335
133, 0.00, 25002.21, 13229.24, 4055.28, -6608.90, 10667.53, 29223.18, 0.00, 0.000, 0.000, 0.000, 13:18:30.335
134, 0.00, 24989.94, 13214.44, 4229.53, -6433.70, 10659.97, 29235.41, 0.00, 0.000, 0.000, 0.000, 13:18:30.335
135, 0.00, 24983.24, 13205.77, 4353.31, -6002.65, 10658.52, 29249.20, 0.00, 0.000, 0.000, 0.000, 13:18:30.335
136, 0.00, 24990.99, 13211.83, 4231.25, -5973.97, 10664.67, 29243.81, 0.00, 0.000, 0.000, 0.000, 13:18:30.335
137, 0.00, 25003.87, 13224.05, 4053.44, -6329.99, 10671.68, 29230.36, 0.00, 0.030, -0.030, 0.992, 13:18:30.335
138, 0.00, 25001.45, 13225.42, 4047.92, -6605.66, 10669.25, 29224.12, 0.00, 0.000, 0.000, 0.000, 13:18:30.335
139, 0.00, 24989.88, 13216.36, 4228.82, -6435.76, 10662.25, 29236.91, 0.00, 0.000, 0.000, 0.000, 13:18:30.336
140, 0.00, 24984.06, 13202.15, 4349.45, -6007.23, 10657.71, 29249.25, 0.00, 0.000, 0.000, 0.000, 13:18:30.336
141, 0.00, 24993.47, 13210.24, 4226.31, -5977.73, 10661.60, 29245.83, 0.00, 0.000, 0.000, 0.000, 13:18:30.336
142, 0.00, 25003.80, 13223.98, 4051.54, -6334.17, 10668.02, 29230.85, 0.00, 0.000, 0.000, 0.000, 13:18:30.337
143, 0.00, 25000.49, 13222.22, 4045.73, -6609.41, 10663.88, 29222.42, 0.00, 0.000, 0.000, 0.000, 13:18:30.337
144, 0.00, 24989.38, 13210.28, 4218.91, -6445.17, 10656.35, 29235.14, 0.00, 0.000, 0.000, 0.000, 13:18:30.337
145, 0.00, 24988.11, 13208.67, 4353.29, -6010.83, 10661.42, 29255.04, 0.00, 0.000, 0.000, 0.000, 13:18:30.337
146, 0.00, 24994.97, 13211.76, 4231.92, -5975.09, 10663.97, 29247.61, 0.00, 0.000, 0.000, 0.000, 13:18:30.339
147, 0.00, 25004.25, 13222.35, 4054.63, -6324.40, 10668.02, 29229.91, 0.00, 0.032, -0.030, 0.990, 13:18:30.339
148, 0.00, 25000.92, 13224.14, 4050.00, -6602.21, 10665.56, 29223.16, 0.00, 0.000, 0.000, 0.000, 13:18:30.339
149, 0.00, 24990.28, 13211.87, 4222.04, -6443.25, 10659.12, 29236.37, 0.00, 0.000, 0.000, 0.000, 13:18:30.340
150, 0.00, 24985.63, 13206.33, 4354.83, -6008.84, 10659.26, 29250.63, 0.00, 0.000, 0.000, 0.000, 13:18:30.340
151, 0.00, 24995.80, 13215.16, 4237.11, -5971.45, 10666.48, 29247.61, 0.00, 0.000, 0.000, 0.000, 13:18:30.340
152, 0.00, 25003.91, 13222.75, 4054.99, -6328.11, 10669.98, 29229.53, 0.00, 0.000, 0.000, 0.000, 13:18:30.340
153, 0.00, 25002.39, 13223.20, 4044.44, -6608.67, 10667.59, 29224.12, 0.00, 0.000, 0.000, 0.000, 13:18:30.340
154, 0.00, 24992.31, 13212.43, 4220.25, -6445.35, 10659.86, 29238.03, 0.00, 0.000, 0.000, 0.000, 13:18:30.341
155, 0.00, 24985.43, 13201.59, 4347.66, -6014.03, 10657.29, 29250.97, 0.00, 0.000, 0.000, 0.000, 13:18:30.341
156, 0.00, 24995.78, 13210.57, 4230.38, -5973.66, 10664.67, 29248.13, 0.00, 0.000, 0.000, 0.000, 13:18:30.341
157, 0.00, 25004.81, 13221.19, 4051.16, -6329.90, 10669.47, 29230.81, 0.00, 0.034, -0.028, 0.998, 13:18:30.341
158, 0.00, 25001.86, 13219.51, 4039.83, -6610.75, 10666.07, 29223.47, 0.00, 0.000, 0.000, 0.000, 13:18:30.342
159, 0.00, 24990.50, 13210.98, 4216.39, -6446.73, 10659.12, 29237.89, 0.00, 0.000, 0.000, 0.000, 13:18:30.343
160, 0.00, 24986.39, 13201.23, 4348.33, -6013.65, 10657.78, 29253.38, 0.00, 0.000, 0.000, 0.000, 13:18:30.343
161, 0.00, 24994.90, 13207.94, 4229.46, -5975.87, 10662.41, 29248.84, 0.00, 0.000, 0.000, 0.000, 13:18:30.343
162, 0.00, 25004.65, 13218.64, 4048.97, -6331.15, 10666.36, 29230.96, 0.00, 0.000, 0.000, 0.000, 13:18:30.344
163, 0.00, 25002.57, 13220.01, 4037.57, -6615.76, 10665.98, 29225.22, 0.00, 0.000, 0.000, 0.000, 13:18:30.344
164, 0.00, 24991.51, 13210.55, 4214.60, -6447.63, 10661.56, 29239.19, 0.00, 0.000, 0.000, 0.000, 13:18:30.344
165, 0.00, 24986.14, 13205.10, 4347.10, -6015.68, 10660.71, 29254.14, 0.00, 0.000, 0.000, 0.000, 13:18:30.345
166, 0.00, 24997.05, 13213.77, 4234.94, -5968.18, 10667.73, 29252.08, 0.00, 0.000, 0.000, 0.000, 13:18:30.345
167, 0.00, 25006.33, 13220.97, 4049.76, -6322.37, 10669.78, 29233.87, 0.00, 0.032, -0.034, 0.996, 13:18:30.345
168, 0.00, 25004.47, 13222.42, 4037.53, -6609.54, 10667.84, 29226.85, 0.00, 0.000, 0.000, 0.000, 13:18:30.345
169, 0.00, 24993.68, 13212.79, 4212.52, -6454.92, 10662.52, 29239.21, 0.00, 0.000, 0.000, 0.000, 13:18:30.346
170, 0.00, 24986.08, 13204.38, 4347.62, -6021.49, 10658.72, 29252.33, 0.00, 0.000, 0.000, 0.000, 13:18:30.346
171, 0.00, 24994.28, 13211.58, 4235.68, -5972.59, 10662.18, 29248.49, 0.00, 0.000, 0.000, 0.000, 13:18:30.346
172, 0.00, 25004.67, 13220.74, 4051.97, -6326.37, 10665.25, 29231.30, 0.00, 0.000, 0.000, 0.000, 13:18:30.346
173, 0.00, 25001.52, 13219.89, 4037.10, -6611.56, 10661.58, 29222.20, 0.00, 0.000, 0.000, 0.000, 13:18:30.346
174, 0.00, 24992.18, 13211.47, 4210.87, -6454.22, 10659.57, 29236.60, 0.00, 0.000, 0.000, 0.000, 13:18:30.347
175, 0.00, 24987.06, 13206.01, 4342.70, -6026.57, 10658.63, 29253.13, 0.00, 0.000, 0.000, 0.000, 13:18:30.347
176, 0.00, 24995.37, 13217.01, 4234.98, -5972.63, 10665.04, 29248.58, 0.00, 0.000, 0.000, 0.000, 13:18:30.347
177, 0.00, 25002.41, 13226.11, 4051.23, -6325.25, 10667.79, 29229.02, 0.00, 0.030, -0.036, 0.990, 13:18:30.347
178, 0.00, 24998.17, 13221.15, 4034.78, -6612.79, 10664.49, 29220.28, 0.00, 0.000, 0.000, 0.000, 13:18:30.348
179, 0.00, 24987.82, 13212.23, 4209.79, -6455.25, 10660.91, 29233.62, 0.00, 0.000, 0.000, 0.000, 13:18:30.348
180, 0.00, 24981.72, 13202.30, 4342.47, -6022.39, 10658.65, 29248.33, 0.00, 0.000, 0.000, 0.000, 13:18:30.348
181, 0.00, 24991.26, 13211.76, 4232.59, -5969.21, 10663.48, 29247.61, 0.00, 0.000, 0.000, 0.000, 13:18:30.348
182, 0.00, 25002.12, 13224.61, 4054.72, -6318.35, 10669.81, 29231.14, 0.00, 0.000, 0.000, 0.000, 13:18:30.349
183, 0.00, 24999.31, 13223.00, 4035.79, -6613.57, 10665.16, 29222.42, 0.00, 0.000, 0.000, 0.000, 13:18:30.349
184, 0.00, 24986.68, 13209.92, 4207.54, -6460.79, 10656.89, 29232.71, 0.00, 0.000, 0.000, 0.000, 13:18:30.349
185, 0.00, 24981.83, 13200.36, 4340.71, -6026.61, 10655.08, 29248.58, 0.00, 0.000, 0.000, 0.000, 13:18:30.350
186, 0.00, 24992.27, 13207.67, 4229.22, -5969.73, 10660.64, 29247.03, 0.00, 0.000, 0.000, 0.000, 13:18:30.350
187, 0.00, 25002.26, 13222.64, 4054.94, -6316.31, 10666.88, 29230.43, 0.00, 0.034, -0.040, 0.988, 13:18:30.350
188, 0.00, 25001.03, 13223.22, 4036.55, -6612.58, 10665.13, 29223.97, 0.00, 0.000, 0.000, 0.000, 13:18:30.350
189, 0.00, 24989.83, 13210.69, 4206.22, -6464.30, 10656.53, 29236.60, 0.00, 0.000, 0.000, 0.000, 13:18:30.351
190, 0.00, 24983.71, 13201.72, 4340.57, -6030.88, 10652.19, 29250.36, 0.00, 0.000, 0.000, 0.000, 13:18:30.351
191, 0.00, 24993.96, 13209.75, 4230.76, -5970.31, 10659.14, 29247.48, 0.00, 0.000, 0.000, 0.000, 13:18:30.351
192, 0.00, 25003.46, 13222.42, 4048.39, -6322.66, 10664.42, 29229.73, 0.00, 0.000, 0.000, 0.000, 13:18:30.351
193, 0.00, 25000.27, 13222.42, 4032.90, -6613.59, 10661.02, 29220.95, 0.00, 0.000, 0.000, 0.000, 13:18:30.351
194, 0.00, 24989.16, 13210.44, 4203.29, -6466.18, 10653.53, 29233.13, 0.00, 0.000, 0.000, 0.000, 13:18:30.352
195, 0.00, 24983.97, 13202.73, 4339.68, -6033.79, 10650.58, 29249.09, 0.00, 0.000, 0.000, 0.000, 13:18:30.352
196, 0.00, 24992.24, 13209.05, 4229.87, -5973.08, 10656.17, 29245.49, 0.00, 0.000, 0.000, 0.000, 13:18:30.352
197, 0.00, 25003.00, 13222.46, 4051.16, -6313.92, 10662.97, 29230.63, 0.00, 0.034, -0.042, 0.988, 13:18:30.352
198, 0.00, 25000.31, 13220.90, 4028.75, -6606.42, 10662.43, 29221.82, 0.00, 0.000, 0.000, 0.000, 13:18:30.353
199, 0.00, 24988.67, 13207.53, 4195.44, -6469.76, 10654.20, 29232.66, 0.00, 0.000, 0.000, 0.000, 13:18:30.353
200, 0.00, 24984.42, 13205.05, 4337.85, -6038.39, 10655.19, 29250.79, 0.00, 0.000, 0.000, 0.000, 13:18:30.353
201, 0.00, 24994.70, 13212.29, 4233.08, -5968.63, 10661.29, 29249.58, 0.00, 0.000, 0.000, 0.000, 13:18:30.353
202, 0.00, 25004.22, 13222.69, 4049.33, -6313.81, 10665.78, 29231.48, 0.00, 0.000, 0.000, 0.000, 13:18:30.353
203, 0.00, 25001.52, 13223.76, 4029.33, -6610.68, 10663.17, 29222.76, 0.00, 0.000, 0.000, 0.000, 13:18:30.354
204, 0.00, 24991.08, 13214.19, 4198.98, -6473.51, 10658.45, 29236.64, 0.00, 0.000, 0.000, 0.000, 13:18:30.355
205, 0.00, 24983.42, 13205.70, 4341.18, -6037.38, 10655.32, 29251.46, 0.00, 0.000, 0.000, 0.000, 13:18:30.355
206, 0.00, 24993.72, 13212.81, 4236.04, -5968.03, 10660.71, 29247.84, 0.00, 0.000, 0.000, 0.000, 13:18:30.355
207, 0.00, 25003.40, 13221.03, 4053.09, -6309.34, 10664.78, 29230.69, 0.00, 0.036, -0.038, 0.992, 13:18:30.355
208, 0.00, 25003.11, 13221.39, 4031.54, -6603.85, 10666.77, 29224.53, 0.00, 0.000, 0.000, 0.000, 13:18:30.355
209, 0.00, 24990.81, 13210.31, 4198.06, -6468.86, 10659.73, 29235.79, 0.00, 0.000, 0.000, 0.000, 13:18:30.355
210, 0.00, 24985.18, 13203.13, 4338.70, -6037.14, 10656.86, 29251.44, 0.00, 0.000, 0.000, 0.000, 13:18:30.355
211, 0.00, 24995.13, 13211.24, 4235.48, -5965.43, 10663.19, 29249.09, 0.00, 0.000, 0.000, 0.000, 13:18:30.356
212, 0.00, 25004.31, 13221.79, 4052.26, -6308.53, 10667.88, 29231.32, 0.00, 0.000, 0.000, 0.000, 13:18:30.356
213, 0.00, 25002.64, 13224.77, 4031.83, -6605.86, 10666.41, 29224.32, 0.00, 0.000, 0.000, 0.000, 13:18:30.356
214, 0.00, 24992.80, 13216.34, 4200.52, -6469.73, 10660.35, 29238.18, 0.00, 0.000, 0.000, 0.000, 13:18:30.356
215, 0.00, 24985.14, 13203.69, 4338.36, -6041.59, 10655.81, 29252.58, 0.00, 0.000, 0.000, 0.000, 13:18:30.357
216, 0.00, 24995.91, 13210.93, 4234.83, -5968.88, 10662.41, 29251.68, 0.00, 0.000, 0.000, 0.000, 13:18:30.357
217, 0.00, 25007.18, 13222.75, 4051.01, -6309.96, 10669.11, 29236.48, 0.00, 0.032, -0.036, 0.994, 13:18:30.357
218, 0.00, 25003.49, 13220.97, 4024.61, -6614.62, 10663.35, 29226.38, 0.00, 0.000, 0.000, 0.000, 13:18:30.358
219, 0.00, 24990.77, 13208.00, 4193.61, -6476.95, 10656.01, 29236.64, 0.00, 0.000, 0.000, 0.000, 13:18:30.359
220, 0.00, 24984.11, 13203.71, 4339.73, -6041.88, 10654.05, 29250.83, 0.00, 0.000, 0.000, 0.000, 13:18:30.359
221, 0.00, 24993.52, 13209.43, 4236.06, -5967.83, 10660.08, 29248.38, 0.00, 0.000, 0.000, 0.000, 13:18:30.359
222, 0.00, 25004.31, 13219.33, 4052.10, -6307.17, 10665.54, 29232.68, 0.00, 0.000, 0.000, 0.000, 13:18:30.360
223, 0.00, 25006.57, 13226.64, 4034.96, -6603.31, 10670.16, 29228.91, 0.00, 0.000, 0.000, 0.000, 13:18:30.360
224, 0.00, 24995.91, 13213.61, 4198.66, -6475.46, 10662.54, 29241.29, 0.00, 0.000, 0.000, 0.000, 13:18:30.360
225, 0.00, 24989.43, 13203.67, 4339.79, -6045.34, 10658.63, 29257.58, 0.00, 0.000, 0.000, 0.000, 13:18:30.360
226, 0.00, 24997.83, 13212.09, 4237.91, -5966.87, 10665.74, 29256.06, 0.00, 0.000, 0.000, 0.000, 13:18:30.360
227, 0.00, 25004.58, 13221.68, 4053.24, -6304.69, 10669.18, 29235.01, 0.00, 0.032, -0.038, 0.994, 13:18:30.360
228, 0.00, 25005.34, 13224.72, 4029.89, -6607.22, 10667.44, 29227.43, 0.00, 0.000, 0.000, 0.000, 13:18:30.360
229, 0.00, 24996.25, 13212.79, 4197.01, -6476.40, 10659.97, 29240.37, 0.00, 0.000, 0.000, 0.000, 13:18:30.361
230, 0.00, 24989.00, 13201.43, 4335.32, -6043.35, 10655.32, 29253.20, 0.00, 0.000, 0.000, 0.000, 13:18:30.361
231, 0.00, 24997.34, 13208.27, 4231.63, -5967.78, 10659.95, 29250.79, 0.00, 0.000, 0.000, 0.000, 13:18:30.361
232, 0.00, 25009.16, 13223.07, 4049.42, -6306.30, 10667.50, 29235.99, 0.00, 0.000, 0.000, 0.000, 13:18:30.361
233, 0.00, 25007.71, 13227.43, 4027.83, -6606.53, 10667.01, 29227.25, 0.00, 0.000, 0.000, 0.000, 13:18:30.361
234, 0.00, 24995.37, 13213.57, 4195.89, -6476.55, 10659.48, 29237.29, 0.00, 0.000, 0.000, 0.000, 13:18:30.362
235, 0.00, 24990.63, 13206.28, 4340.71, -6042.30, 10658.61, 29257.22, 0.00, 0.000, 0.000, 0.000, 13:18:30.363
236, 0.00, 25000.34, 13214.73, 4240.64, -5960.11, 10664.53, 29255.86, 0.00, 0.000, 0.000, 0.000, 13:18:30.363
237, 0.00, 25009.16, 13227.45, 4057.96, -6300.20, 10669.74, 29235.66, 0.00, 0.030, -0.038, 0.990, 13:18:30.363
238, 0.00, 25005.12, 13225.73, 4027.47, -6607.20, 10665.87, 29224.05, 0.00, 0.000, 0.000, 0.000, 13:18:30.363
239, 0.00, 24993.92, 13213.37, 4192.11, -6480.64, 10660.37, 29235.28, 0.00, 0.000, 0.000, 0.000, 13:18:30.363
240, 0.00, 24988.31, 13204.54, 4334.76, -6047.31, 10658.83, 29253.13, 0.00, 0.000, 0.000, 0.000, 13:18:30.363
241, 0.00, 24997.90, 13213.48, 4235.86, -5963.69, 10664.67, 29252.46, 0.00, 0.000, 0.000, 0.000, 13:18:30.814
242, 0.00, 25007.91, 13226.11, 4055.57, -6297.74, 10668.51, 29235.75, 0.00, 0.000, 0.000, 0.000, 13:18:30.814
243, 0.00, 25006.53, 13226.33, 4023.92, -6608.67, 10667.82, 29227.47, 0.00, 0.000, 0.000, 0.000, 13:18:30.814
244, 0.00, 24992.80, 13214.37, 4188.63, -6483.59, 10660.17, 29236.77, 0.00, 0.000, 0.000, 0.000, 13:18:30.815
245, 0.00, 24986.23, 13206.93, 4336.66, -6045.88, 10657.51, 29251.19, 0.00, 0.000, 0.000, 0.000, 13:18:30.815
246, 0.00, 24995.46, 13216.54, 4238.40, -5963.15, 10663.32, 29250.23, 0.00, 0.000, 0.000, 0.000, 13:18:30.815
247, 0.00, 25006.37, 13228.75, 4055.70, -6298.94, 10671.37, 29235.46, 0.00, 0.038, -0.036, 0.988, 13:18:30.815
248, 0.00, 25004.05, 13228.43, 4025.17, -6605.81, 10668.58, 29226.20, 0.00, 0.000, 0.000, 0.000, 13:18:30.816
249, 0.00, 24993.29, 13218.20, 4191.33, -6481.49, 10662.07, 29237.94, 0.00, 0.000, 0.000, 0.000, 13:18:30.816
250, 0.00, 24988.94, 13211.67, 4338.43, -6048.78, 10661.27, 29254.61, 0.00, 0.000, 0.000, 0.000, 13:18:30.816
251, 0.00, 24996.42, 13220.34, 4242.43, -5960.25, 10665.00, 29251.75, 0.00, 0.000, 0.000, 0.000, 13:18:30.816
252, 0.00, 25005.52, 13229.68, 4058.72, -6293.33, 10669.20, 29233.38, 0.00, 0.000, 0.000, 0.000, 13:18:30.817
253, 0.00, 25003.40, 13225.93, 4023.52, -6607.00, 10665.11, 29224.77, 0.00, 0.000, 0.000, 0.000, 13:18:30.817
254, 0.00, 24993.03, 13218.51, 4191.78, -6486.95, 10660.13, 29236.88, 0.00, 0.000, 0.000, 0.000, 13:18:30.817
255, 0.00, 24987.26, 13212.63, 4342.23, -6049.48, 10661.36, 29253.56, 0.00, 0.000, 0.000, 0.000, 13:18:30.817
0, 0.00, 24996.49, 13221.48, 4248.42, -5956.45, 10666.95, 29253.36, 0.00, 0.000, 0.000, 0.000, 13:18:30.817
1, 0.00, 25007.64, 13232.54, 4065.22, -6287.99, 10672.06, 29238.34, 0.00, 0.040, -0.038, 0.988, 13:18:30.818
2, 0.00, 25005.90, 13230.31, 4027.31, -6602.97, 10667.55, 29229.08, 0.00, 0.000, 0.000, 0.000, 13:18:30.818
3, 0.00, 24990.61, 13213.41, 4184.05, -6489.72, 10655.81, 29236.10, 0.00, 0.000, 0.000, 0.000, 13:18:30.818
4, 0.00, 24988.04, 13212.47, 4337.38, -6055.51, 10658.74, 29255.04, 0.00, 0.000, 0.000, 0.000, 13:18:30.818
5, 0.00, 24994.95, 13222.08, 4246.90, -5960.29, 10664.04, 29250.54, 0.00, 0.000, 0.000, 0.000, 13:18:30.818
6, 0.00, 25006.51, 13234.09, 4059.66, -6298.03, 10667.01, 29233.64, 0.00, 0.000, 0.000, 0.000, 13:18:30.819
7, 0.00, 25005.59, 13234.98, 4026.09, -6610.80, 10666.83, 29224.75, 0.00, 0.000, 0.000, 0.000, 13:18:30.819
8, 0.00, 24992.63, 13224.81, 4191.24, -6489.76, 10661.96, 29235.23, 0.00, 0.000, 0.000, 0.000, 13:18:30.819
9, 0.00, 24985.63, 13214.49, 4337.67, -6055.13, 10659.28, 29252.00, 0.00, 0.000, 0.000, 0.000, 13:18:30.819
10, 0.00, 24992.58, 13219.89, 4241.94, -5962.57, 10662.92, 29248.78, 0.00, 0.000, 0.000, 0.000, 13:18:30.820
11, 0.00, 25002.08, 13231.09, 4061.69, -6290.90, 10668.15, 29230.78, 0.00, 0.036, -0.032, 0.986, 13:18:30.820
12, 0.00, 25002.64, 13235.23, 4028.45, -6602.57, 10669.63, 29223.29, 0.00, 0.000, 0.000, 0.000, 13:18:30.820
13, 0.00, 24988.71, 13219.89, 4187.29, -6490.70, 10661.04, 29231.03, 0.00, 0.000, 0.000, 0.000, 13:18:30.821
14, 0.00, 24980.96, 13208.14, 4336.24, -6057.39, 10655.50, 29245.60, 0.00, 0.000, 0.000, 0.000, 13:18:30.821
15, 0.00, 24993.00, 13221.39, 4246.00, -5960.03, 10664.75, 29248.35, 0.00, 0.000, 0.000, 0.000, 13:18:30.821
16, 0.00, 25003.40, 13232.92, 4062.72, -6287.88, 10668.55, 29231.41, 0.00, 0.000, 0.000, 0.000, 13:18:30.821
17, 0.00, 25000.83, 13231.58, 4026.35, -6604.36, 10663.30, 29221.13, 0.00, 0.000, 0.000, 0.000, 13:18:30.821
18, 0.00, 24991.39, 13222.35, 4187.55, -6499.51, 10658.56, 29234.11, 0.00, 0.000, 0.000, 0.000, 13:18:30.821
19, 0.00, 24984.80, 13215.56, 4344.31, -6062.73, 10656.17, 29250.21, 0.00, 0.000, 0.000, 0.000, 13:18:30.821
20, 0.00, 24992.58, 13219.51, 4249.51, -5960.88, 10661.27, 29249.22, 0.00, 0.000, 0.000, 0.000, 13:18:30.822
21, 0.00, 25002.26, 13229.30, 4064.62, -6286.92, 10669.11, 29232.19, 0.00, 0.034, -0.036, 0.992, 13:18:30.822
22, 0.00, 24999.13, 13226.47, 4024.57, -6604.76, 10663.32, 29219.85, 0.00, 0.000, 0.000, 0.000, 13:18:30.823
23, 0.00, 24989.32, 13216.23, 4181.90, -6502.08, 10656.93, 29231.10, 0.00, 0.000, 0.000, 0.000, 13:18:30.824
24, 0.00, 24984.02, 13209.19, 4336.77, -6066.62, 10655.23, 29248.78, 0.00, 0.000, 0.000, 0.000, 13:18:30.824
25, 0.00, 24991.75, 13214.49, 4248.80, -5958.64, 10659.52, 29246.36, 0.00, 0.000, 0.000, 0.000, 13:18:30.824
26, 0.00, 25003.71, 13226.24, 4064.22, -6286.56, 10665.78, 29230.69, 0.00, 0.000, 0.000, 0.000, 13:18:30.824
27, 0.00, 25000.56, 13225.73, 4025.66, -6607.44, 10661.07, 29220.23, 0.00, 0.000, 0.000, 0.000, 13:18:30.824
28, 0.00, 24990.54, 13214.55, 4185.72, -6504.51, 10654.94, 29232.19, 0.00, 0.000, 0.000, 0.000, 13:18:30.824
29, 0.00, 24984.91, 13207.60, 4343.41, -6066.35, 10652.75, 29248.33, 0.00, 0.000, 0.000, 0.000, 13:18:30.824
30, 0.00, 24990.95, 13213.21, 4253.94, -5959.82, 10656.82, 29246.68, 0.00, 0.000, 0.000, 0.000, 13:18:30.825
31, 0.00, 25000.78, 13226.26, 4070.59, -6281.78, 10663.82, 29231.12, 0.00, 0.032, -0.036, 0.988, 13:18:30.825
32, 0.00, 25003.02, 13227.85, 4026.96, -6604.69, 10664.93, 29224.21, 0.00, 0.000, 0.000, 0.000, 13:18:30.825
33, 0.00, 24991.89, 13211.91, 4179.96, -6508.78, 10656.66, 29233.60, 0.00, 0.000, 0.000, 0.000, 13:18:30.825
34, 0.00, 24985.32, 13206.33, 4336.35, -6075.18, 10654.58, 29249.47, 0.00, 0.000, 0.000, 0.000, 13:18:30.826
35, 0.00, 24993.38, 13212.96, 4249.65, -5961.01, 10660.51, 29248.24, 0.00, 0.000, 0.000, 0.000, 13:18:30.826
36, 0.00, 25002.24, 13224.39, 4065.56, -6283.05, 10666.27, 29230.83, 0.00, 0.000, 0.000, 0.000, 13:18:30.826
37, 0.00, 25001.28, 13226.51, 4025.39, -6608.83, 10666.57, 29222.09, 0.00, 0.000, 0.000, 0.000, 13:18:30.826
38, 0.00, 24989.41, 13215.74, 4186.93, -6505.45, 10658.67, 29231.92, 0.00, 0.000, 0.000, 0.000, 13:18:30.826
39, 0.00, 24984.38, 13206.33, 4341.29, -6074.49, 10654.43, 29249.34, 0.00, 0.000, 0.000, 0.000, 13:18:30.827
40, 0.00, 24992.63, 13211.78, 4251.77, -5965.70, 10659.23, 29249.25, 0.00, 0.000, 0.000, 0.000, 13:18:30.827
41, 0.00, 25004.09, 13229.13, 4077.43, -6281.11, 10668.38, 29232.93, 0.00, 0.030, -0.032, 0.984, 13:18:30.827
42, 0.00, 25002.46, 13227.52, 4035.09, -6601.23, 10665.00, 29221.87, 0.00, 0.000, 0.000, 0.000, 13:18:30.828
43, 0.00, 24994.08, 13219.96, 4191.80, -6503.60, 10661.51, 29236.28, 0.00, 0.000, 0.000, 0.000, 13:18:30.828
44, 0.00, 24985.65, 13211.58, 4347.32, -6073.80, 10660.37, 29251.62, 0.00, 0.000, 0.000, 0.000, 13:18:30.828
45, 0.00, 24992.36, 13215.11, 4260.31, -5955.94, 10663.91, 29249.11, 0.00, 0.000, 0.000, 0.000, 13:18:30.828
46, 0.00, 25004.13, 13226.33, 4076.13, -6272.32, 10666.88, 29234.58, 0.00, 0.000, 0.000, 0.000, 13:18:30.828
47, 0.00, 25002.86, 13224.19, 4027.83, -6601.52, 10662.77, 29225.04, 0.00, 0.000, 0.000, 0.000, 13:18:30.829
48, 0.00, 24992.80, 13216.23, 4186.57, -6508.40, 10660.44, 29235.50, 0.00, 0.000, 0.000, 0.000, 13:18:30.829
49, 0.00, 24984.98, 13208.81, 4347.62, -6070.98, 10656.71, 29250.86, 0.00, 0.000, 0.000, 0.000, 13:18:30.829
50, 0.00, 24989.96, 13214.08, 4262.16, -5956.74, 10659.68, 29247.88, 0.00, 0.000, 0.000, 0.000, 13:18:30.829
51, 0.00, 25001.16, 13226.26, 4078.08, -6274.67, 10666.10, 29233.09, 0.00, 0.034, -0.034, 0.986, 13:18:30.830
52, 0.00, 25000.47, 13223.92, 4032.43, -6601.59, 10664.02, 29224.19, 0.00, 0.000, 0.000, 0.000, 13:18:30.830
53, 0.00, 24991.46, 13215.09, 4189.86, -6510.15, 10659.99, 29235.83, 0.00, 0.000, 0.000, 0.000, 13:18:30.830
54, 0.00, 24981.72, 13205.50, 4346.90, -6078.24, 10655.66, 29249.07, 0.00, 0.000, 0.000, 0.000, 13:18:30.830
55, 0.00, 24986.48, 13208.54, 4261.05, -5959.40, 10657.42, 29244.62, 0.00, 0.000, 0.000, 0.000, 13:18:30.830
56, 0.00, 24999.71, 13222.17, 4075.04, -6279.23, 10664.58, 29231.07, 0.00, 0.000, 0.000, 0.000, 13:18:30.831
57, 0.00, 25002.06, 13226.13, 4032.72, -6605.25, 10662.94, 29225.42, 0.00, 0.000, 0.000, 0.000, 13:18:30.831
58, 0.00, 24991.33, 13215.65, 4189.52, -6515.82, 10655.72, 29234.92, 0.00, 0.000, 0.000, 0.000, 13:18:30.831
59, 0.00, 24980.96, 13206.82, 4348.49, -6084.75, 10652.77, 29248.24, 0.00, 0.000, 0.000, 0.000, 13:18:30.831
60, 0.00, 24990.19, 13215.00, 4268.09, -5960.27, 10659.14, 29249.07, 0.00, 0.000, 0.000, 0.000, 13:18:30.832
61, 0.00, 24999.40, 13222.89, 4079.60, -6274.58, 10663.75, 29232.66, 0.00, 0.038, -0.040, 0.992, 13:18:30.832
62, 0.00, 24999.51, 13225.82, 4030.00, -6606.97, 10663.37, 29222.96, 0.00, 0.000, 0.000, 0.000, 13:18:30.833
63, 0.00, 24988.13, 13215.49, 4187.06, -6518.91, 10654.88, 29230.67, 0.00, 0.000, 0.000, 0.000, 13:18:30.833
64, 0.00, 24982.50, 13205.63, 4344.71, -6086.07, 10652.82, 29247.35, 0.00, 0.000, 0.000, 0.000, 13:18:30.833
65, 0.00, 24990.88, 13211.58, 4259.48, -5963.71, 10659.30, 29247.84, 0.00, 0.000, 0.000, 0.000, 13:18:30.833
66, 0.00, 25000.40, 13224.05, 4074.70, -6278.36, 10664.69, 29230.74, 0.00, 0.000, 0.000, 0.000, 13:18:30.833
67, 0.00, 24999.93, 13224.39, 4031.32, -6601.39, 10662.54, 29220.59, 0.00, 0.000, 0.000, 0.000, 13:18:30.833
68, 0.00, 24988.85, 13214.22, 4186.19, -6518.39, 10655.17, 29230.16, 0.00, 0.000, 0.000, 0.000, 13:18:30.833
69, 0.00, 24981.56, 13207.35, 4350.79, -6084.52, 10654.61, 29246.99, 0.00, 0.000, 0.000, 0.000, 13:18:30.834
70, 0.00, 24989.63, 13215.67, 4270.61, -5957.16, 10660.24, 29247.19, 0.00, 0.000, 0.000, 0.000, 13:18:30.834
71, 0.00, 24999.82, 13227.99, 4085.79, -6269.02, 10665.80, 29231.59, 0.00, 0.032, -0.036, 0.988, 13:18:30.834
72, 0.00, 25000.11, 13226.22, 4036.39, -6601.45, 10664.38, 29221.96, 0.00, 0.000, 0.000, 0.000, 13:18:30.834
73, 0.00, 24988.98, 13216.99, 4192.25, -6517.77, 10659.23, 29231.23, 0.00, 0.000, 0.000, 0.000, 13:18:30.834
74, 0.00, 24978.68, 13206.39, 4349.67, -6084.46, 10654.47, 29245.54, 0.00, 0.000, 0.000, 0.000, 13:18:30.835
75, 0.00, 24985.38, 13211.74, 4264.85, -5956.34, 10659.52, 29245.38, 0.00, 0.000, 0.000, 0.000, 13:18:30.835
76, 0.00, 24996.29, 13223.09, 4079.60, -6265.82, 10665.18, 29229.40, 0.00, 0.000, 0.000, 0.000, 13:18:30.836
77, 0.00, 24999.67, 13228.99, 4031.43, -6600.85, 10666.61, 29221.08, 0.00, 0.000, 0.000, 0.000, 13:18:30.836
78, 0.00, 24988.71, 13219.00, 4185.77, -6520.25, 10658.92, 29230.52, 0.00, 0.000, 0.000, 0.000, 13:18:30.837
79, 0.00, 24981.05, 13211.98, 4348.15, -6089.78, 10655.01, 29246.59, 0.00, 0.000, 0.000, 0.000, 13:18:30.837
80, 0.00, 24987.15, 13216.47, 4268.42, -5956.29, 10656.73, 29244.20, 0.00, 0.000, 0.000, 0.000, 13:18:30.837
81, 0.00, 24996.36, 13227.78, 4081.36, -6268.75, 10665.67, 29226.27, 0.00, 0.036, -0.038, 0.992, 13:18:30.838
82, 0.00, 24995.51, 13231.36, 4032.37, -6600.63, 10666.43, 29217.33, 0.00, 0.000, 0.000, 0.000, 13:18:30.838
83, 0.00, 24984.38, 13219.51, 4186.21, -6521.26, 10657.67, 29228.01, 0.00, 0.000, 0.000, 0.000, 13:18:30.838
84, 0.00, 24978.61, 13209.34, 4350.19, -6089.38, 10654.47, 29245.54, 0.00, 0.000, 0.000, 0.000, 13:18:30.838
85, 0.00, 24986.37, 13215.31, 4277.50, -5948.16, 10659.75, 29246.68, 0.00, 0.000, 0.000, 0.000, 13:18:30.838
86, 0.00, 24996.63, 13227.83, 4091.29, -6262.80, 10666.23, 29230.56, 0.00, 0.000, 0.000, 0.000, 13:18:30.838
87, 0.00, 24997.30, 13228.08, 4038.49, -6599.89, 10663.75, 29221.57, 0.00, 0.000, 0.000, 0.000, 13:18:30.839
88, 0.00, 24984.44, 13214.13, 4188.18, -6525.44, 10653.71, 29228.46, 0.00, 0.000, 0.000, 0.000, 13:18:30.839
89, 0.00, 24975.37, 13203.31, 4349.18, -6095.61, 10649.64, 29242.83, 0.00, 0.000, 0.000, 0.000, 13:18:30.839
90, 0.00, 24983.62, 13212.12, 4281.05, -5949.41, 10656.64, 29243.81, 0.00, 0.000, 0.000, 0.000, 13:18:30.840
91, 0.00, 24995.87, 13227.29, 4097.32, -6260.54, 10663.82, 29227.95, 0.00, 0.032, -0.040, 0.988, 13:18:30.840
92, 0.00, 24996.80, 13230.58, 4046.72, -6599.96, 10664.04, 29219.41, 0.00, 0.000, 0.000, 0.000, 13:18:30.840
93, 0.00, 24985.88, 13217.19, 4198.73, -6527.54, 10657.38, 29229.62, 0.00, 0.000, 0.000, 0.000, 13:18:30.840
94, 0.00, 24977.54, 13207.69, 4361.41, -6097.53, 10654.99, 29245.38, 0.00, 0.000, 0.000, 0.000, 13:18:30.841
95, 0.00, 24984.64, 13211.29, 4289.12, -5951.40, 10659.68, 29245.22, 0.00, 0.000, 0.000, 0.000, 13:18:30.841
96, 0.00, 24997.59, 13224.70, 4105.30, -6258.00, 10667.41, 29230.45, 0.00, 0.000, 0.000, 0.000, 13:18:30.841
97, 0.00, 24994.41, 13225.62, 4050.00, -6596.31, 10664.04, 29216.97, 0.00, 0.000, 0.000, 0.000, 13:18:30.841
98, 0.00, 24983.57, 13215.18, 4198.86, -6530.17, 10656.48, 29225.44, 0.00, 0.000, 0.000, 0.000, 13:18:30.841
99, 0.00, 24978.43, 13206.84, 4368.18, -6094.99, 10654.76, 29242.99, 0.00, 0.000, 0.000, 0.000, 13:18:30.842
100, 0.00, 24985.96, 13212.96, 4294.35, -5949.23, 10659.64, 29244.06, 0.00, 0.000, 0.000, 0.000, 13:18:30.842
101, 0.00, 24997.05, 13224.01, 4104.27, -6258.13, 10665.98, 29227.83, 0.00, 0.030, -0.032, 0.994, 13:18:30.842
102, 0.00, 24996.56, 13223.25, 4041.78, -6601.05, 10660.80, 29214.69, 0.00, 0.000, 0.000, 0.000, 13:18:30.843
103, 0.00, 24984.98, 13216.99, 4196.63, -6529.19, 10654.81, 29223.59, 0.00, 0.000, 0.000, 0.000, 13:18:30.843
104, 0.00, 24978.41, 13211.56, 4367.51, -6096.84, 10653.98, 29241.76, 0.00, 0.000, 0.000, 0.000, 13:18:30.843
105, 0.00, 24986.77, 13217.41, 4295.96, -5951.24, 10660.17, 29242.41, 0.00, 0.000, 0.000, 0.000, 13:18:31.293
106, 0.00, 24997.50, 13226.96, 4108.03, -6256.70, 10663.66, 29226.16, 0.00, 0.000, 0.000, 0.000, 13:18:31.293
107, 0.00, 24996.40, 13227.07, 4051.88, -6594.46, 10663.32, 29214.94, 0.00, 0.000, 0.000, 0.000, 13:18:31.293
108, 0.00, 24985.61, 13215.49, 4199.20, -6532.30, 10655.28, 29223.25, 0.00, 0.000, 0.000, 0.000, 13:18:31.293
109, 0.00, 24979.44, 13207.73, 4364.25, -6103.21, 10652.80, 29240.73, 0.00, 0.000, 0.000, 0.000, 13:18:31.293
110, 0.00, 24986.19, 13218.58, 4297.41, -5951.13, 10659.77, 29242.72, 0.00, 0.000, 0.000, 0.000, 13:18:31.293
111, 0.00, 24997.47, 13227.49, 4108.85, -6257.08, 10665.51, 29226.85, 0.00, 0.032, -0.030, 1.002, 13:18:31.293
112, 0.00, 24996.69, 13225.95, 4047.97, -6599.22, 10662.09, 29214.38, 0.00, 0.000, 0.000, 0.000, 13:18:31.293
113, 0.00, 24985.12, 13216.16, 4194.82, -6537.01, 10654.94, 29223.74, 0.00, 0.000, 0.000, 0.000, 13:18:31.294
114, 0.00, 24978.97, 13207.38, 4361.90, -6106.59, 10652.30, 29242.16, 0.00, 0.000, 0.000, 0.000, 13:18:31.294
115, 0.00, 24984.29, 13211.07, 4292.29, -5950.46, 10655.08, 29241.49, 0.00, 0.000, 0.000, 0.000, 13:18:31.294
116, 0.00, 24998.64, 13226.33, 4105.30, -6252.92, 10663.99, 29228.39, 0.00, 0.000, 0.000, 0.000, 13:18:31.294
117, 0.00, 24999.11, 13229.19, 4048.06, -6594.57, 10663.41, 29217.55, 0.00, 0.000, 0.000, 0.000, 13:18:31.294
118, 0.00, 24989.27, 13219.85, 4194.86, -6534.85, 10658.03, 29227.45, 0.00, 0.000, 0.000, 0.000, 13:18:31.294
119, 0.00, 24980.04, 13209.28, 4360.00, -6105.00, 10653.51, 29243.28, 0.00, 0.000, 0.000, 0.000, 13:18:31.295
120, 0.00, 24986.63, 13213.41, 4289.68, -5947.98, 10656.66, 29244.48, 0.00, 0.000, 0.000, 0.000, 13:18:31.295
121, 0.00, 24996.98, 13228.41, 4106.60, -6250.02, 10663.46, 29228.28, 0.00, 0.028, -0.032, 0.998, 13:18:31.295
122, 0.00, 24996.92, 13231.07, 4049.49, -6592.24, 10661.83, 29217.66, 0.00, 0.000, 0.000, 0.000, 13:18:31.295
123, 0.00, 24984.13, 13218.73, 4194.37, -6532.57, 10654.36, 29224.66, 0.00, 0.000, 0.000, 0.000, 13:18:31.295
124, 0.00, 24976.80, 13208.50, 4359.53, -6106.45, 10652.77, 29242.18, 0.00, 0.000, 0.000, 0.000, 13:18:31.295
125, 0.00, 24983.93, 13215.45, 4293.39, -5948.40, 10658.70, 29243.46, 0.00, 0.000, 0.000, 0.000, 13:18:31.296
126, 0.00, 24994.57, 13227.76, 4110.28, -6245.10, 10664.60, 29227.12, 0.00, 0.000, 0.000, 0.000, 13:18:31.296
127, 0.00, 24995.44, 13230.98, 4052.19, -6589.09, 10664.11, 29217.44, 0.00, 0.000, 0.000, 0.000, 13:18:31.296
128, 0.00, 24986.59, 13220.65, 4195.31, -6534.69, 10658.07, 29227.50, 0.00, 0.000, 0.000, 0.000, 13:18:31.296
129, 0.00, 24979.17, 13213.93, 4361.97, -6110.18, 10656.37, 29244.91, 0.00, 0.000, 0.000, 0.000, 13:18:31.296
130, 0.00, 24986.03, 13217.88, 4294.69, -5948.20, 10660.28, 29245.87, 0.00, 0.000, 0.000, 0.000, 13:18:31.296
131, 0.00, 24994.28, 13226.76, 4104.43, -6249.95, 10663.03, 29226.69, 0.00, 0.030, -0.034, 0.998, 13:18:31.297
132, 0.00, 24996.85, 13231.92, 4046.47, -6593.79, 10664.55, 29216.88, 0.00, 0.000, 0.000, 0.000, 13:18:31.297
133, 0.00, 24984.98, 13219.63, 4190.30, -6538.47, 10655.46, 29224.03, 0.00, 0.000, 0.000, 0.000, 13:18:31.297
134, 0.00, 24975.68, 13210.10, 4359.28, -6111.84, 10652.28, 29238.85, 0.00, 0.000, 0.000, 0.000, 13:18:31.297
135, 0.00, 24983.95, 13216.56, 4297.06, -5942.35, 10658.18, 29241.29, 0.00, 0.000, 0.000, 0.000, 13:18:31.297
136, 0.00, 24992.76, 13226.04, 4104.85, -6243.00, 10662.99, 29223.54, 0.00, 0.000, 0.000, 0.000, 13:18:31.297
137, 0.00, 24994.01, 13229.75, 4040.35, -6596.80, 10664.08, 29212.83, 0.00, 0.000, 0.000, 0.000, 13:18:31.297
138, 0.00, 24984.53, 13219.80, 4185.45, -6545.89, 10656.24, 29221.87, 0.00, 0.000, 0.000, 0.000, 13:18:31.298
139, 0.00, 24976.46, 13208.34, 4353.11, -6119.28, 10651.10, 29239.57, 0.00, 0.000, 0.000, 0.000, 13:18:31.298
140, 0.00, 24982.34, 13213.12, 4287.82, -5954.37, 10655.14, 29239.72, 0.00, 0.000, 0.000, 0.000, 13:18:31.298
141, 0.00, 24995.02, 13227.38, 4104.03, -6241.75, 10663.66, 29227.23, 0.00, 0.034, -0.032, 0.998, 13:18:31.298
142, 0.00, 24995.57, 13230.65, 4040.66, -6590.08, 10663.79, 29216.41, 0.00, 0.000, 0.000, 0.000, 13:18:31.298
143, 0.00, 24985.36, 13218.13, 4184.11, -6538.67, 10657.33, 29224.53, 0.00, 0.000, 0.000, 0.000, 13:18:31.298
144, 0.00, 24977.13, 13210.39, 4354.70, -6116.98, 10655.43, 29242.18, 0.00, 0.000, 0.000, 0.000, 13:18:31.299
145, 0.00, 24983.79, 13217.59, 4295.22, -5949.83, 10659.86, 29243.41, 0.00, 0.000, 0.000, 0.000, 13:18:31.299
146, 0.00, 24993.68, 13228.23, 4110.87, -6238.91, 10663.21, 29225.71, 0.00, 0.000, 0.000, 0.000, 13:18:31.299
147, 0.00, 24994.68, 13228.46, 4044.01, -6585.70, 10664.42, 29213.68, 0.00, 0.000, 0.000, 0.000, 13:18:31.299
148, 0.00, 24983.95, 13216.27, 4182.68, -6540.43, 10655.99, 29223.07, 0.00, 0.000, 0.000, 0.000, 13:18:31.299
149, 0.00, 24974.12, 13207.96, 4351.57, -6117.74, 10650.92, 29238.65, 0.00, 0.000, 0.000, 0.000, 13:18:31.303
150, 0.00, 24981.67, 13217.55, 4294.55, -5946.52, 10657.69, 29241.31, 0.00, 0.000, 0.000, 0.000, 13:18:31.303
151, 0.00, 24992.24, 13226.11, 4107.38, -6237.12, 10663.30, 29224.44, 0.00, 0.028, -0.030, 0.992, 13:18:31.303
152, 0.00, 24995.35, 13230.31, 4039.34, -6587.01, 10662.27, 29213.77, 0.00, 0.000, 0.000, 0.000, 13:18:31.304
153, 0.00, 24986.19, 13221.75, 4178.61, -6550.83, 10656.48, 29223.59, 0.00, 0.000, 0.000, 0.000, 13:18:31.304
154, 0.00, 24976.89, 13211.85, 4352.80, -6125.96, 10653.80, 29240.08, 0.00, 0.000, 0.000, 0.000, 13:18:31.304
155, 0.00, 24985.36, 13217.44, 4294.84, -5947.44, 10659.43, 29243.10, 0.00, 0.000, 0.000, 0.000, 13:18:31.304
156, 0.00, 24995.62, 13228.03, 4107.13, -6237.28, 10662.68, 29226.34, 0.00, 0.000, 0.000, 0.000, 13:18:31.304
157, 0.00, 24993.45, 13231.63, 4042.85, -6584.11, 10661.25, 29211.54, 0.00, 0.000, 0.000, 0.000, 13:18:31.304
158, 0.00, 24981.70, 13220.97, 4180.58, -6549.33, 10653.96, 29218.78, 0.00, 0.000, 0.000, 0.000, 13:18:31.304
159, 0.00, 24974.79, 13211.89, 4354.01, -6127.28, 10651.70, 29237.56, 0.00, 0.000, 0.000, 0.000, 13:18:31.304
160, 0.00, 24982.43, 13217.26, 4297.08, -5952.76, 10658.29, 29240.80, 0.00, 0.000, 0.000, 0.000, 13:18:31.305
161, 0.00, 24991.89, 13228.99, 4115.07, -6233.90, 10662.47, 29224.28, 0.00, 0.032, -0.032, 0.994, 13:18:31.305
162, 0.00, 24991.57, 13230.15, 4044.73, -6585.87, 10661.69, 29212.39, 0.00, 0.000, 0.000, 0.000, 13:18:31.305
163, 0.00, 24981.94, 13219.78, 4184.65, -6547.52, 10654.41, 29219.85, 0.00, 0.000, 0.000, 0.000, 13:18:31.305
164, 0.00, 24973.63, 13209.23, 4357.49, -6125.43, 10650.18, 29236.39, 0.00, 0.000, 0.000, 0.000, 13:18:31.305
165, 0.00, 24981.78, 13217.68, 4302.96, -5948.40, 10655.34, 29239.39, 0.00, 0.000, 0.000, 0.000, 13:18:31.305
166, 0.00, 24992.92, 13229.46, 4116.68, -6236.14, 10659.79, 29225.06, 0.00, 0.000, 0.000, 0.000, 13:18:31.305
167, 0.00, 24992.85, 13232.57, 4046.47, -6589.20, 10658.63, 29212.52, 0.00, 0.000, 0.000, 0.000, 13:18:31.306
168, 0.00, 24980.93, 13223.47, 4186.79, -6553.91, 10649.96, 29217.04, 0.00, 0.000, 0.000, 0.000, 13:18:31.306
169, 0.00, 24975.57, 13217.03, 4362.30, -6134.21, 10651.01, 29236.35, 0.00, 0.000, 0.000, 0.000, 13:18:31.306
170, 0.00, 24979.91, 13217.10, 4308.41, -5945.99, 10654.58, 29236.06, 0.00, 0.000, 0.000, 0.000, 13:18:31.306
171, 0.00, 24991.33, 13227.94, 4120.34, -6225.90, 10661.58, 29222.20, 0.00, 0.034, -0.030, 1.000, 13:18:31.306
172, 0.00, 24990.93, 13229.44, 4046.83, -6582.43, 10659.19, 29210.13, 0.00, 0.000, 0.000, 0.000, 13:18:31.306
173, 0.00, 24981.78, 13221.57, 4186.01, -6552.17, 10654.54, 29219.83, 0.00, 0.000, 0.000, 0.000, 13:18:31.306
174, 0.00, 24974.32, 13212.50, 4360.78, -6136.34, 10652.37, 29238.83, 0.00, 0.000, 0.000, 0.000, 13:18:31.306
175, 0.00, 24982.39, 13216.43, 4307.56, -5950.55, 10657.00, 29242.47, 0.00, 0.000, 0.000, 0.000, 13:18:31.307
176, 0.00, 24992.31, 13226.29, 4121.01, -6225.07, 10664.35, 29226.98, 0.00, 0.000, 0.000, 0.000, 13:18:31.307
177, 0.00, 24990.61, 13227.78, 4046.87, -6575.35, 10663.30, 29211.74, 0.00, 0.000, 0.000, 0.000, 13:18:31.307
178, 0.00, 24979.95, 13219.00, 4180.11, -6554.72, 10655.37, 29218.31, 0.00, 0.000, 0.000, 0.000, 13:18:31.307
179, 0.00, 24971.37, 13209.90, 4356.06, -6142.24, 10652.24, 29233.96, 0.00, 0.000, 0.000, 0.000, 13:18:31.307
180, 0.00, 24978.50, 13214.55, 4307.34, -5948.02, 10657.27, 29237.06, 0.00, 0.000, 0.000, 0.000, 13:18:31.308
181, 0.00, 24991.28, 13225.17, 4121.64, -6223.17, 10663.46, 29224.79, 0.00, 0.032, -0.030, 1.002, 13:18:31.308
182, 0.00, 24993.76, 13229.01, 4048.41, -6576.93, 10662.61, 29216.14, 0.00, 0.000, 0.000, 0.000, 13:18:31.308
183, 0.00, 24985.54, 13218.13, 4179.24, -6558.76, 10653.13, 29224.41, 0.00, 0.000, 0.000, 0.000, 13:18:31.308
184, 0.00, 24976.13, 13207.69, 4354.48, -6144.65, 10647.57, 29238.34, 0.00, 0.000, 0.000, 0.000, 13:18:31.308
185, 0.00, 24976.78, 13213.93, 4304.39, -5952.94, 10655.28, 29237.76, 0.00, 0.000, 0.000, 0.000, 13:18:31.308
186, 0.00, 24986.30, 13225.26, 4120.61, -6221.38, 10661.31, 29222.31, 0.00, 0.000, 0.000, 0.000, 13:18:31.308
187, 0.00, 24992.33, 13226.44, 4042.74, -6577.89, 10660.31, 29213.82, 0.00, 0.000, 0.000, 0.000, 13:18:31.309
188, 0.00, 24979.77, 13217.35, 4175.60, -6561.04, 10653.58, 29218.96, 0.00, 0.000, 0.000, 0.000, 13:18:31.309
189, 0.00, 24970.68, 13212.58, 4359.17, -6140.69, 10653.04, 29235.70, 0.00, 0.000, 0.000, 0.000, 13:18:31.309
190, 0.00, 24978.16, 13215.42, 4309.66, -5947.93, 10655.12, 29241.04, 0.00, 0.000, 0.000, 0.000, 13:18:31.309
191, 0.00, 24988.04, 13226.44, 4124.03, -6220.20, 10660.19, 29224.64, 0.00, 0.030, -0.028, 0.994, 13:18:31.309
192, 0.00, 24989.21, 13228.79, 4048.97, -6575.93, 10660.31, 29211.11, 0.00, 0.000, 0.000, 0.000, 13:18:31.309
193, 0.00, 24978.48, 13215.58, 4178.90, -6560.71, 10650.81, 29216.72, 0.00, 0.000, 0.000, 0.000, 13:18:31.309
194, 0.00, 24971.23, 13207.80, 4354.77, -6146.35, 10647.83, 29234.47, 0.00, 0.000, 0.000, 0.000, 13:18:31.310
195, 0.00, 24979.10, 13212.29, 4305.77, -5952.52, 10653.62, 29238.96, 0.00, 0.000, 0.000, 0.000, 13:18:31.310
196, 0.00, 24988.76, 13222.80, 4120.07, -6221.09, 10659.61, 29223.29, 0.00, 0.000, 0.000, 0.000, 13:18:31.310
197, 0.00, 24989.94, 13228.97, 4048.41, -6574.83, 10659.35, 29211.52, 0.00, 0.000, 0.000, 0.000, 13:18:31.310
198, 0.00, 24979.57, 13220.50, 4184.05, -6554.89, 10655.17, 29219.27, 0.00, 0.000, 0.000, 0.000, 13:18:31.310
199, 0.00, 24969.89, 13208.63, 4356.24, -6148.63, 10650.85, 29234.58, 0.00, 0.000, 0.000, 0.000, 13:18:31.310
200, 0.00, 24978.01, 13213.79, 4311.34, -5950.97, 10653.91, 29238.70, 0.00, 0.000, 0.000, 0.000, 13:18:31.310
201, 0.00, 24990.10, 13225.10, 4125.75, -6218.30, 10660.04, 29225.11, 0.00, 0.026, -0.036, 0.996, 13:18:31.311
202, 0.00, 24992.02, 13226.87, 4047.61, -6570.74, 10660.31, 29213.24, 0.00, 0.000, 0.000, 0.000, 13:18:31.311
203, 0.00, 24983.01, 13215.83, 4172.60, -6565.47, 10652.04, 29221.02, 0.00, 0.000, 0.000, 0.000, 13:18:31.311
204, 0.00, 24974.34, 13204.74, 4347.48, -6156.03, 10649.11, 29237.42, 0.00, 0.000, 0.000, 0.000, 13:18:31.311
205, 0.00, 24978.59, 13210.57, 4306.35, -5950.55, 10651.66, 29238.63, 0.00, 0.000, 0.000, 0.000, 13:18:31.311
206, 0.00, 24993.92, 13226.29, 4125.77, -6219.73, 10659.81, 29229.00, 0.00, 0.000, 0.000, 0.000, 13:18:31.311
207, 0.00, 24997.50, 13230.33, 4050.11, -6576.91, 10661.07, 29217.10, 0.00, 0.000, 0.000, 0.000, 13:18:31.311
208, 0.00, 24985.99, 13221.88, 4181.09, -6565.02, 10655.57, 29222.80, 0.00, 0.000, 0.000, 0.000, 13:18:31.311
209, 0.00, 24974.72, 13211.51, 4359.42, -6153.46, 10651.59, 29237.98, 0.00, 0.000, 0.000, 0.000, 13:18:31.312
210, 0.00, 24981.36, 13215.89, 4316.77, -5945.38, 10656.31, 29241.51, 0.00, 0.000, 0.000, 0.000, 13:18:31.312
211, 0.00, 24991.93, 13228.12, 4130.80, -6213.47, 10663.32, 29225.98, 0.00, 0.030, -0.038, 0.994, 13:18:31.312
212, 0.00, 24994.39, 13234.15, 4051.95, -6570.38, 10665.20, 29214.58, 0.00, 0.000, 0.000, 0.000, 13:18:31.312
213, 0.00, 24983.91, 13220.52, 4178.90, -6560.84, 10655.88, 29220.30, 0.00, 0.000, 0.000, 0.000, 13:18:31.312
214, 0.00, 24974.45, 13207.60, 4354.97, -6152.70, 10650.25, 29236.42, 0.00, 0.000, 0.000, 0.000, 13:18:31.312
215, 0.00, 24979.39, 13214.15, 4310.96, -5950.95, 10655.21, 29239.95, 0.00, 0.000, 0.000, 0.000, 13:18:31.312
216, 0.00, 24990.57, 13226.93, 4128.72, -6211.80, 10663.08, 29225.13, 0.00, 0.000, 0.000, 0.000, 13:18:31.313
217, 0.00, 24992.45, 13230.29, 4047.74, -6571.95, 10662.88, 29213.04, 0.00, 0.000, 0.000, 0.000, 13:18:31.313
218, 0.00, 24981.22, 13219.45, 4174.95, -6565.98, 10654.94, 29219.03, 0.00, 0.000, 0.000, 0.000, 13:18:31.313
219, 0.00, 24970.45, 13207.40, 4353.74, -6154.55, 10649.64, 29234.20, 0.00, 0.000, 0.000, 0.000, 13:18:31.313
220, 0.00, 24977.63, 13211.96, 4313.42, -5943.40, 10656.17, 29237.40, 0.00, 0.000, 0.000, 0.000, 13:18:31.313
221, 0.00, 24989.99, 13223.85, 4127.83, -6206.10, 10665.76, 29224.77, 0.00, 0.028, -0.038, 0.990, 13:18:31.313
222, 0.00, 24991.91, 13226.33, 4044.95, -6570.79, 10663.32, 29213.73, 0.00, 0.000, 0.000, 0.000, 13:18:31.313
223, 0.00, 24981.96, 13217.21, 4172.58, -6567.61, 10656.10, 29222.11, 0.00, 0.000, 0.000, 0.000, 13:18:31.313
224, 0.00, 24971.55, 13204.27, 4349.85, -6159.00, 10649.47, 29234.92, 0.00, 0.000, 0.000, 0.000, 13:18:31.314
225, 0.00, 24979.10, 13210.57, 4310.09, -5946.66, 10654.36, 29239.61, 0.00, 0.000, 0.000, 0.000, 13:18:31.774
226, 0.00, 24989.27, 13221.97, 4124.63, -6212.04, 10658.54, 29224.37, 0.00, 0.000, 0.000, 0.000, 13:18:31.775
227, 0.00, 24990.86, 13223.02, 4040.39, -6577.56, 10657.16, 29211.25, 0.00, 0.000, 0.000, 0.000, 13:18:31.775
228, 0.00, 24981.13, 13211.62, 4166.83, -6571.81, 10649.29, 29217.48, 0.00, 0.000, 0.000, 0.000, 13:18:31.775
229, 0.00, 24970.96, 13204.87, 4349.00, -6164.01, 10646.49, 29234.87, 0.00, 0.000, 0.000, 0.000, 13:18:31.775
230, 0.00, 24975.46, 13211.47, 4315.90, -5945.07, 10650.25, 29237.64, 0.00, 0.000, 0.000, 0.000, 13:18:31.775
231, 0.00, 24988.87, 13227.54, 4129.75, -6207.28, 10659.41, 29224.48, 0.00, 0.034, -0.042, 0.996, 13:18:31.775
232, 0.00, 24990.17, 13229.86, 4044.46, -6575.08, 10659.14, 29211.65, 0.00, 0.000, 0.000, 0.000, 13:18:31.775
233, 0.00, 24979.88, 13217.82, 4172.11, -6570.99, 10651.30, 29217.15, 0.00, 0.000, 0.000, 0.000, 13:18:31.776
234, 0.00, 24971.97, 13209.12, 4350.45, -6167.14, 10647.37, 29235.10, 0.00, 0.000, 0.000, 0.000, 13:18:31.776
235, 0.00, 24976.60, 13212.36, 4315.12, -5944.83, 10652.21, 29238.72, 0.00, 0.000, 0.000, 0.000, 13:18:31.776
236, 0.00, 24986.03, 13224.23, 4128.81, -6204.75, 10657.56, 29222.27, 0.00, 0.000, 0.000, 0.000, 13:18:31.776
237, 0.00, 24989.83, 13229.13, 4045.46, -6572.73, 10657.89, 29210.26, 0.00, 0.000, 0.000, 0.000, 13:18:31.776
238, 0.00, 24982.01, 13220.52, 4176.07, -6569.47, 10652.48, 29218.40, 0.00, 0.000, 0.000, 0.000, 13:18:31.776
239, 0.00, 24972.37, 13209.68, 4355.64, -6163.65, 10650.16, 29236.57, 0.00, 0.000, 0.000, 0.000, 13:18:31.776
240, 0.00, 24977.38, 13212.36, 4316.93, -5943.24, 10652.89, 29239.75, 0.00, 0.000, 0.000, 0.000, 13:18:31.777
241, 0.00, 24991.17, 13227.49, 4131.25, -6205.60, 10662.32, 29226.89, 0.00, 0.034, -0.036, 0.998, 13:18:31.777
242, 0.00, 24992.33, 13231.92, 4047.52, -6573.85, 10662.63, 29213.64, 0.00, 0.000, 0.000, 0.000, 13:18:31.777
243, 0.00, 24981.25, 13221.48, 4174.70, -6572.96, 10653.49, 29218.94, 0.00, 0.000, 0.000, 0.000, 13:18:31.777
244, 0.00, 24974.36, 13213.12, 4357.27, -6161.53, 10651.28, 29238.54, 0.00, 0.000, 0.000, 0.000, 13:18:31.777
245, 0.00, 24980.00, 13217.01, 4321.51, -5939.19, 10654.52, 29242.29, 0.00, 0.000, 0.000, 0.000, 13:18:31.777
246, 0.00, 24990.17, 13226.00, 4129.84, -6202.88, 10658.85, 29225.22, 0.00, 0.000, 0.000, 0.000, 13:18:31.777
247, 0.00, 24992.92, 13229.53, 4040.21, -6576.60, 10659.17, 29211.58, 0.00, 0.000, 0.000, 0.000, 13:18:31.777
248, 0.00, 24983.91, 13224.25, 4172.62, -6575.15, 10655.25, 29220.30, 0.00, 0.000, 0.000, 0.000, 13:18:31.778
249, 0.00, 24973.09, 13212.96, 4354.48, -6163.74, 10650.63, 29236.48, 0.00, 0.000, 0.000, 0.000, 13:18:31.778
250, 0.00, 24979.50, 13219.60, 4319.81, -5942.03, 10655.99, 29240.30, 0.00, 0.000, 0.000, 0.000, 13:18:31.778
251, 0.00, 24991.44, 13233.48, 4139.05, -6194.09, 10663.28, 29226.11, 0.00, 0.038, -0.034, 0.992, 13:18:31.778
252, 0.00, 24992.56, 13234.47, 4050.23, -6566.32, 10662.47, 29212.34, 0.00, 0.000, 0.000, 0.000, 13:18:31.778
253, 0.00, 24981.94, 13221.12, 4171.46, -6577.83, 10654.99, 29217.82, 0.00, 0.000, 0.000, 0.000, 13:18:31.778
254, 0.00, 24973.29, 13211.36, 4355.93, -6168.88, 10651.92, 29236.64, 0.00, 0.000, 0.000, 0.000, 13:18:31.778
255, 0.00, 24981.49, 13218.67, 4327.01, -5941.14, 10657.54, 29242.59, 0.00, 0.000, 0.000, 0.000, 13:18:31.779
0, 0.00, 24991.19, 13226.93, 4136.73, -6197.18, 10661.11, 29227.01, 0.00, 0.000, 0.000, 0.000, 13:18:31.779
1, 0.00, 24992.11, 13229.59, 4044.91, -6565.71, 10661.54, 29214.64, 0.00, 0.000, 0.000, 0.000, 13:18:31.779
2, 0.00, 24984.58, 13222.91, 4171.46, -6572.55, 10656.22, 29221.75, 0.00, 0.000, 0.000, 0.000, 13:18:31.779
3, 0.00, 24975.44, 13213.32, 4355.75, -6167.87, 10650.67, 29238.67, 0.00, 0.000, 0.000, 0.000, 13:18:31.779
4, 0.00, 24981.58, 13218.02, 4324.64, -5938.37, 10656.19, 29243.99, 0.00, 0.000, 0.000, 0.000, 13:18:31.779
5, 0.00, 24990.66, 13228.90, 4135.39, -6196.89, 10661.71, 29226.65, 0.00, 0.038, -0.030, 0.992, 13:18:31.779
6, 0.00, 24993.43, 13234.09, 4049.15, -6568.22, 10662.09, 29214.27, 0.00, 0.000, 0.000, 0.000, 13:18:31.779
7, 0.00, 24985.25, 13224.92, 4171.15, -6580.78, 10656.35, 29221.57, 0.00, 0.000, 0.000, 0.000, 13:18:31.780
8, 0.00, 24973.98, 13211.71, 4352.35, -6176.66, 10649.76, 29238.05, 0.00, 0.000, 0.000, 0.000, 13:18:31.780
9, 0.00, 24978.92, 13218.26, 4326.25, -5944.65, 10654.56, 29242.43, 0.00, 0.000, 0.000, 0.000, 13:18:31.780
10, 0.00, 24991.28, 13229.84, 4142.85, -6195.81, 10661.13, 29227.41, 0.00, 0.000, 0.000, 0.000, 13:18:31.780
11, 0.00, 24996.51, 13234.56, 4053.00, -6566.54, 10663.37, 29216.70, 0.00, 0.000, 0.000, 0.000, 13:18:31.780
12, 0.00, 24985.65, 13223.81, 4174.21, -6578.83, 10656.04, 29222.92, 0.00, 0.000, 0.000, 0.000, 13:18:31.780
13, 0.00, 24977.13, 13216.23, 4357.65, -6176.39, 10652.93, 29241.29, 0.00, 0.000, 0.000, 0.000, 13:18:31.780
14, 0.00, 24982.01, 13219.87, 4329.29, -5939.28, 10656.78, 29246.43, 0.00, 0.038, -0.028, 0.988, 13:18:31.781
15, 0.00, 24990.66, 13225.66, 4139.01, -6188.73, 10662.32, 29229.84, 0.00, 0.000, 0.000, 0.000, 13:18:31.781
16, 0.00, 24992.47, 13227.74, 4042.00, -6562.61, 10661.29, 29215.52, 0.00, 0.000, 0.000, 0.000, 13:18:31.781
17, 0.00, 24983.19, 13221.75, 4165.67, -6577.54, 10655.10, 29219.81, 0.00, 0.000, 0.000, 0.000, 13:18:31.781
18, 0.00, 24973.98, 13213.32, 4354.79, -6177.96, 10650.63, 29237.06, 0.00, 0.000, 0.000, 0.000, 13:18:31.781
19, 0.00, 24978.54, 13215.04, 4327.21, -5941.25, 10654.45, 29241.76, 0.00, 0.000, 0.000, 0.000, 13:18:31.781
20, 0.00, 24990.88, 13226.96, 4140.46, -6189.91, 10663.37, 29229.11, 0.00, 0.000, 0.000, 0.000, 13:18:31.781
21, 0.00, 24993.05, 13230.69, 4047.59, -6564.91, 10663.77, 29215.90, 0.00, 0.000, 0.000, 0.000, 13:18:31.781
22, 0.00, 24982.61, 13219.78, 4167.21, -6581.94, 10656.69, 29221.31, 0.00, 0.000, 0.000, 0.000, 13:18:31.782
23, 0.00, 24971.77, 13209.88, 4350.52, -6185.00, 10652.08, 29236.44, 0.00, 0.000, 0.000, 0.000, 13:18:31.782
24, 0.00, 24976.62, 13215.04, 4327.48, -5941.52, 10655.14, 29239.05, 0.00, 0.038, -0.032, 0.992, 13:18:31.782
25, 0.00, 24986.48, 13227.00, 4143.57, -6187.34, 10661.20, 29222.74, 0.00, 0.000, 0.000, 0.000, 13:18:31.782
26, 0.00, 24990.17, 13231.14, 4049.33, -6564.46, 10661.58, 29211.79, 0.00, 0.000, 0.000, 0.000, 13:18:31.782
27, 0.00, 24981.78, 13222.17, 4167.44, -6591.22, 10653.60, 29218.69, 0.00, 0.000, 0.000, 0.000, 13:18:31.782
28, 0.00, 24972.69, 13212.74, 4356.98, -6188.93, 10648.48, 29235.61, 0.00, 0.000, 0.000, 0.000, 13:18:31.782
29, 0.00, 24975.53, 13214.93, 4334.32, -5939.86, 10650.25, 29237.94, 0.00, 0.000, 0.000, 0.000, 13:18:31.782
30, 0.00, 24991.62, 13230.91, 4148.91, -6183.03, 10660.51, 29227.45, 0.00, 0.000, 0.000, 0.000, 13:18:31.783
31, 0.00, 24992.02, 13230.13, 4048.41, -6566.25, 10658.16, 29212.03, 0.00, 0.000, 0.000, 0.000, 13:18:31.783
32, 0.00, 24981.27, 13219.33, 4165.94, -6592.56, 10651.57, 29217.93, 0.00, 0.000, 0.000, 0.000, 13:18:31.783
33, 0.00, 24973.04, 13208.94, 4354.08, -6189.06, 10647.23, 29236.01, 0.00, 0.000, 0.000, 0.000, 13:18:31.783
34, 0.00, 24979.88, 13215.36, 4334.36, -5942.14, 10653.36, 29243.30, 0.00, 0.038, -0.036, 0.990, 13:18:31.783
35, 0.00, 24990.79, 13228.12, 4152.51, -6183.12, 10659.30, 29229.44, 0.00, 0.000, 0.000, 0.000, 13:18:31.783
36, 0.00, 24992.36, 13231.76, 4058.38, -6554.56, 10660.93, 29214.42, 0.00, 0.000, 0.000, 0.000, 13:18:31.783
37, 0.00, 24984.09, 13224.07, 4174.99, -6585.02, 10656.22, 29219.90, 0.00, 0.000, 0.000, 0.000, 13:18:31.784
38, 0.00, 24973.71, 13210.13, 4357.56, -6193.69, 10649.13, 29236.30, 0.00, 0.000, 0.000, 0.000, 13:18:31.784
39, 0.00, 24978.36, 13213.52, 4336.93, -5946.39, 10653.76, 29241.02, 0.00, 0.000, 0.000, 0.000, 13:18:31.784
40, 0.00, 24991.11, 13227.05, 4154.09, -6178.98, 10662.79, 29228.23, 0.00, 0.000, 0.000, 0.000, 13:18:31.784
41, 0.00, 24994.57, 13231.47, 4055.70, -6552.59, 10662.30, 29216.08, 0.00, 0.000, 0.000, 0.000, 13:18:31.784
42, 0.00, 24984.69, 13221.86, 4170.08, -6585.85, 10655.25, 29219.36, 0.00, 0.000, 0.000, 0.000, 13:18:31.784
43, 0.00, 24975.37, 13210.39, 4354.90, -6194.23, 10650.05, 29237.78, 0.00, 0.000, 0.000, 0.000, 13:18:31.784
44, 0.00, 24979.48, 13213.21, 4334.81, -5941.47, 10653.49, 29242.59, 0.00, 0.036, -0.034, 0.994, 13:18:31.784
45, 0.00, 24989.88, 13226.09, 4148.80, -6180.53, 10659.97, 29226.40, 0.00, 0.000, 0.000, 0.000, 13:18:31.785
46, 0.00, 24993.92, 13234.47, 4051.72, -6559.70, 10661.80, 29214.31, 0.00, 0.000, 0.000, 0.000, 13:18:31.785
47, 0.00, 24983.97, 13228.14, 4169.67, -6587.04, 10655.05, 29219.14, 0.00, 0.000, 0.000, 0.000, 13:18:31.785
48, 0.00, 24973.51, 13213.84, 4356.09, -6197.96, 10649.89, 29235.81, 0.00, 0.000, 0.000, 0.000, 13:18:31.785
49, 0.00, 24979.66, 13215.87, 4339.61, -5938.12, 10653.42, 29242.90, 0.00, 0.000, 0.000, 0.000, 13:18:31.785
50, 0.00, 24988.76, 13224.50, 4149.65, -6172.61, 10659.17, 29227.52, 0.00, 0.000, 0.000, 0.000, 13:18:31.785
51, 0.00, 24994.46, 13232.59, 4054.76, -6548.64, 10662.07, 29216.61, 0.00, 0.000, 0.000, 0.000, 13:18:31.785
52, 0.00, 24984.98, 13225.35, 4171.86, -6585.99, 10657.80, 29221.53, 0.00, 0.000, 0.000, 0.000, 13:18:31.786
53, 0.00, 24974.90, 13213.95, 4357.07, -6200.35, 10652.46, 29238.52, 0.00, 0.000, 0.000, 0.000, 13:18:31.786
54, 0.00, 24979.71, 13216.90, 4341.22, -5945.72, 10652.93, 29242.63, 0.00, 0.038, -0.032, 0.992, 13:18:31.786
55, 0.00, 24990.93, 13226.38, 4155.73, -6176.10, 10658.12, 29228.28, 0.00, 0.000, 0.000, 0.000, 13:18:31.786
56, 0.00, 24992.24, 13230.20, 4055.50, -6554.22, 10656.78, 29213.46, 0.00, 0.000, 0.000, 0.000, 13:18:31.786
57, 0.00, 24983.97, 13223.85, 4171.53, -6591.53, 10651.92, 29219.45, 0.00, 0.000, 0.000, 0.000, 13:18:31.786
58, 0.00, 24974.01, 13213.30, 4357.20, -6205.29, 10648.44, 29237.02, 0.00, 0.000, 0.000, 0.000, 13:18:31.786
59, 0.00, 24977.94, 13215.11, 4339.01, -5946.30, 10651.90, 29242.21, 0.00, 0.000, 0.000, 0.000, 13:18:31.786
60, 0.00, 24990.17, 13230.15, 4160.60, -6170.22, 10662.21, 29229.62, 0.00, 0.000, 0.000, 0.000, 13:18:31.787
61, 0.00, 24993.99, 13234.49, 4057.56, -6549.93, 10663.15, 29216.75, 0.00, 0.000, 0.000, 0.000, 13:18:31.787
62, 0.00, 24985.63, 13225.68, 4168.09, -6589.27, 10658.61, 29221.91, 0.00, 0.000, 0.000, 0.000, 13:18:31.788
63, 0.00, 24975.75, 13212.34, 4356.94, -6201.20, 10654.56, 29237.71, 0.00, 0.000, 0.000, 0.000, 13:18:31.788
64, 0.00, 24979.50, 13214.82, 4344.02, -5940.11, 10656.98, 29242.36, 0.00, 0.034, -0.032, 0.994, 13:18:31.788
65, 0.00, 24991.37, 13225.50, 4159.35, -6167.09, 10662.18, 29228.95, 0.00, 0.000, 0.000, 0.000, 13:18:31.788
66, 0.00, 24994.32, 13228.95, 4054.36, -6548.70, 10661.25, 29215.90, 0.00, 0.000, 0.000, 0.000, 13:18:31.788
67, 0.00, 24984.58, 13220.25, 4167.21, -6585.90, 10656.10, 29220.84, 0.00, 0.000, 0.000, 0.000, 13:18:31.788
68, 0.00, 24975.64, 13212.03, 4353.56, -6204.91, 10652.48, 29239.50, 0.00, 0.000, 0.000, 0.000, 13:18:31.789
69, 0.00, 24979.39, 13214.95, 4341.60, -5943.37, 10655.52, 29245.07, 0.00, 0.000, 0.000, 0.000, 13:18:31.789
70, 0.00, 24992.07, 13226.69, 4159.06, -6166.56, 10662.03, 29230.69, 0.00, 0.000, 0.000, 0.000, 13:18:31.789
71, 0.00, 24997.14, 13232.32, 4052.39, -6550.31, 10662.81, 29217.64, 0.00, 0.000, 0.000, 0.000, 13:18:31.789
72, 0.00, 24985.88, 13222.80, 4160.06, -6596.65, 10654.99, 29221.24, 0.00, 0.000, 0.000, 0.000, 13:18:31.789
73, 0.00, 24973.96, 13212.74, 4347.97, -6212.49, 10648.75, 29237.15, 0.00, 0.000, 0.000, 0.000, 13:18:31.790
74, 0.00, 24979.50, 13216.99, 4337.45, -5947.49, 10651.03, 29244.22, 0.00, 0.034, -0.036, 0.996, 13:18:31.790
75, 0.00, 24990.01, 13228.90, 4154.07, -6169.89, 10658.97, 29230.29, 0.00, 0.000, 0.000, 0.000, 13:18:31.790
76, 0.00, 24992.69, 13232.99, 4049.24, -6550.22, 10660.51, 29215.54, 0.00, 0.000, 0.000, 0.000, 13:18:31.790
77, 0.00, 24985.20, 13226.06, 4158.52, -6599.02, 10655.37, 29222.22, 0.00, 0.000, 0.000, 0.000, 13:18:31.790
78, 0.00, 24974.45, 13216.90, 4347.84, -6213.96, 10649.89, 29238.61, 0.00, 0.000, 0.000, 0.000, 13:18:31.790
79, 0.00, 24977.65, 13216.94, 4337.80, -5943.35, 10653.42, 29244.33, 0.00, 0.000, 0.000, 0.000, 13:18:31.791
80, 0.00, 24987.95, 13226.73, 4154.27, -6164.30, 10658.58, 29229.02, 0.00, 0.000, 0.000, 0.000, 13:18:31.791
81, 0.00, 24988.15, 13231.96, 4046.54, -6548.06, 10656.60, 29212.63, 0.00, 0.000, 0.000, 0.000, 13:18:31.791
82, 0.00, 24978.68, 13224.41, 4152.44, -6605.88, 10651.03, 29217.19, 0.00, 0.000, 0.000, 0.000, 13:18:31.791
83, 0.00, 24967.43, 13211.45, 4340.84, -6222.93, 10645.67, 29232.10, 0.00, 0.000, 0.000, 0.000, 13:18:31.791
84, 0.00, 24973.09, 13218.08, 4337.33, -5948.18, 10650.81, 29239.30, 0.00, 0.030, -0.036, 0.998, 13:18:31.791
85, 0.00, 24985.40, 13230.58, 4155.66, -6166.65, 10659.88, 29226.71, 0.00, 0.000, 0.000, 0.000, 13:18:31.792
86, 0.00, 24988.71, 13237.64, 4049.09, -6547.76, 10661.92, 29213.21, 0.00, 0.000, 0.000, 0.000, 13:18:31.792
87, 0.00, 24980.11, 13229.42, 4153.71, -6601.50, 10656.64, 29218.20, 0.00, 0.000, 0.000, 0.000, 13:18:31.792
88, 0.00, 24968.46, 13216.65, 4340.57, -6222.14, 10650.63, 29232.82, 0.00, 0.000, 0.000, 0.000, 13:18:31.792
89, 0.00, 24970.99, 13217.23, 4333.13, -5947.15, 10652.46, 29234.96, 0.00, 0.000, 0.000, 0.000, 13:18:31.792
90, 0.00, 24984.62, 13230.53, 4153.98, -6158.60, 10661.47, 29224.70, 0.00, 0.000, 0.000, 0.000, 13:18:32.256
91, 0.00, 24986.21, 13234.91, 4044.01, -6544.72, 10662.03, 29209.57, 0.00, 0.000, 0.000, 0.000, 13:18:32.256
92, 0.00, 24975.01, 13227.72, 4149.18, -6604.72, 10654.67, 29212.30, 0.00, 0.000, 0.000, 0.000, 13:18:32.257
93, 0.00, 24965.71, 13219.38, 4342.61, -6224.78, 10651.01, 29227.34, 0.00, 0.000, 0.000, 0.000, 13:18:32.257
94, 0.00, 24966.45, 13221.12, 4339.26, -5944.49, 10652.04, 29230.69, 0.00, 0.028, -0.042, 0.994, 13:18:32.258
95, 0.00, 24976.42, 13232.37, 4157.76, -6154.66, 10658.25, 29218.04, 0.00, 0.000, 0.000, 0.000, 13:18:32.258
96, 0.00, 24979.19, 13236.72, 4045.11, -6538.38, 10660.84, 29201.37, 0.00, 0.000, 0.000, 0.000, 13:18:32.258
97, 0.00, 24967.54, 13226.40, 4140.91, -6606.66, 10653.04, 29201.01, 0.00, 0.000, 0.000, 0.000, 13:18:32.258
98, 0.00, 24955.19, 13214.75, 4332.30, -6228.92, 10645.58, 29214.58, 0.00, 0.000, 0.000, 0.000, 13:18:32.259
99, 0.00, 24954.80, 13216.99, 4332.75, -5948.80, 10649.78, 29217.08, 0.00, 0.000, 0.000, 0.000, 13:18:32.259
100, 0.00, 24963.08, 13232.12, 4153.83, -6157.28, 10660.08, 29200.16, 0.00, 0.000, 0.000, 0.000, 13:18:32.259
101, 0.00, 24965.02, 13237.95, 4044.95, -6539.18, 10659.90, 29181.95, 0.00, 0.000, 0.000, 0.000, 13:18:32.259
102, 0.00, 24956.13, 13228.52, 4145.89, -6601.52, 10653.18, 29183.71, 0.00, 0.000, 0.000, 0.000, 13:18:32.259
103, 0.00, 24940.57, 13216.45, 4330.81, -6233.03, 10647.10, 29194.06, 0.00, 0.000, 0.000, 0.000, 13:18:32.260
104, 0.00, 24936.86, 13217.59, 4326.20, -5953.05, 10649.33, 29193.70, 0.00, 0.030, -0.038, 0.994, 13:18:32.260
105, 0.00, 24945.08, 13232.68, 4149.58, -6159.58, 10657.29, 29176.98, 0.00, 0.000, 0.000, 0.000, 13:18:32.260
106, 0.00, 24945.73, 13238.13, 4040.95, -6541.84, 10656.35, 29158.86, 0.00, 0.000, 0.000, 0.000, 13:18:32.260
107, 0.00, 24936.54, 13231.70, 4145.38, -6604.92, 10649.22, 29160.22, 0.00, 0.000, 0.000, 0.000, 13:18:32.260
108, 0.00, 24922.78, 13217.99, 4332.39, -6236.20, 10641.31, 29172.51, 0.00, 0.000, 0.000, 0.000, 13:18:32.260
109, 0.00, 24924.16, 13218.40, 4329.82, -5951.69, 10644.24, 29175.98, 0.00, 0.000, 0.000, 0.000, 13:18:32.261
110, 0.00, 24932.01, 13228.86, 4147.46, -6158.29, 10650.34, 29159.04, 0.00, 0.000, 0.000, 0.000, 13:18:32.261
111, 0.00, 24934.67, 13240.44, 4039.09, -6542.38, 10653.89, 29144.66, 0.00, 0.000, 0.000, 0.000, 13:18:32.261
112, 0.00, 24925.95, 13232.50, 4142.83, -6610.39, 10651.23, 29146.99, 0.00, 0.000, 0.000, 0.000, 13:18:32.261
113, 0.00, 24914.46, 13217.95, 4334.16, -6232.02, 10645.35, 29164.58, 0.00, 0.000, 0.000, 0.000, 13:18:32.262
114, 0.00, 24919.89, 13220.59, 4331.08, -5948.56, 10648.57, 29174.77, 0.00, 0.032, -0.034, 0.994, 13:18:32.262
115, 0.00, 24932.23, 13229.93, 4145.44, -6160.57, 10653.60, 29161.72, 0.00, 0.000, 0.000, 0.000, 13:18:32.262
116, 0.00, 24934.22, 13234.36, 4032.59, -6544.97, 10652.24, 29145.58, 0.00, 0.000, 0.000, 0.000, 13:18:32.263
117, 0.00, 24927.74, 13229.10, 4138.45, -6610.39, 10648.66, 29151.59, 0.00, 0.000, 0.000, 0.000, 13:18:32.263
118, 0.00, 24920.43, 13217.06, 4330.11, -6238.39, 10644.84, 29170.90, 0.00, 0.000, 0.000, 0.000, 13:18:32.263
119, 0.00, 24926.29, 13220.25, 4335.97, -5945.23, 10648.62, 29181.01, 0.00, 0.000, 0.000, 0.000, 13:18:32.263
120, 0.00, 24937.59, 13230.49, 4156.31, -6145.50, 10653.78, 29168.60, 0.00, 0.000, 0.000, 0.000, 13:18:32.264
121, 0.00, 24942.29, 13235.16, 4040.06, -6532.68, 10653.29, 29156.20, 0.00, 0.000, 0.000, 0.000, 13:18:32.264
122, 0.00, 24936.61, 13228.57, 4138.11, -6606.77, 10650.67, 29163.97, 0.00, 0.000, 0.000, 0.000, 13:18:32.264
123, 0.00, 24927.42, 13218.26, 4326.65, -6245.43, 10645.24, 29182.64, 0.00, 0.000, 0.000, 0.000, 13:18:32.264
124, 0.00, 24932.23, 13221.01, 4331.75, -5954.55, 10647.95, 29191.38, 0.00, 0.034, -0.030, 0.996, 13:18:32.264
125, 0.00, 24946.09, 13235.14, 4152.86, -6153.88, 10655.32, 29180.89, 0.00, 0.000, 0.000, 0.000, 13:18:32.265
126, 0.00, 24952.64, 13241.71, 4041.15, -6535.07, 10657.83, 29170.28, 0.00, 0.000, 0.000, 0.000, 13:18:32.265
127, 0.00, 24945.04, 13231.88, 4138.72, -6611.24, 10651.43, 29176.24, 0.00, 0.000, 0.000, 0.000, 13:18:32.265
128, 0.00, 24937.71, 13220.23, 4330.54, -6242.60, 10646.00, 29195.78, 0.00, 0.000, 0.000, 0.000, 13:18:32.265
129, 0.00, 24942.51, 13217.95, 4327.43, -5954.91, 10647.61, 29203.58, 0.00, 0.000, 0.000, 0.000, 13:18:32.265
130, 0.00, 24955.86, 13232.63, 4151.23, -6148.65, 10657.62, 29193.90, 0.00, 0.000, 0.000, 0.000, 13:18:32.265
131, 0.00, 24963.84, 13243.77, 4046.81, -6524.85, 10662.36, 29182.19, 0.00, 0.000, 0.000, 0.000, 13:18:32.265
132, 0.00, 24956.28, 13234.71, 4140.84, -6605.03, 10655.50, 29187.44, 0.00, 0.000, 0.000, 0.000, 13:18:32.266
133, 0.00, 24950.76, 13225.50, 4333.94, -6241.84, 10652.68, 29208.88, 0.00, 0.000, 0.000, 0.000, 13:18:32.266
134, 0.00, 24955.54, 13227.52, 4342.56, -5944.76, 10656.19, 29219.41, 0.00, 0.028, -0.036, 0.994, 13:18:32.266
135, 0.00, 24967.79, 13237.80, 4162.41, -6139.69, 10659.84, 29207.04, 0.00, 0.000, 0.000, 0.000, 13:18:32.266
136, 0.00, 24976.96, 13243.68, 4042.27, -6531.11, 10662.61, 29195.38, 0.00, 0.000, 0.000, 0.000, 13:18:32.267
137, 0.00, 24970.72, 13237.28, 4141.73, -6606.24, 10656.15, 29199.85, 0.00, 0.000, 0.000, 0.000, 13:18:32.267
138, 0.00, 24962.45, 13227.92, 4336.26, -6243.11, 10651.14, 29219.70, 0.00, 0.000, 0.000, 0.000, 13:18:32.267
139, 0.00, 24967.59, 13228.61, 4345.13, -5946.03, 10653.94, 29230.61, 0.00, 0.000, 0.000, 0.000, 13:18:32.267
140, 0.00, 24978.28, 13236.77, 4163.33, -6141.97, 10657.49, 29217.33, 0.00, 0.000, 0.000, 0.000, 13:18:32.267
141, 0.00, 24985.25, 13244.28, 4044.55, -6529.59, 10660.35, 29208.07, 0.00, 0.000, 0.000, 0.000, 13:18:32.268
142, 0.00, 24977.07, 13233.77, 4135.61, -6615.69, 10655.21, 29210.49, 0.00, 0.000, 0.000, 0.000, 13:18:32.268
143, 0.00, 24966.81, 13222.49, 4332.42, -6250.82, 10651.54, 29227.83, 0.00, 0.000, 0.000, 0.000, 13:18:32.268
144, 0.00, 24970.56, 13225.06, 4344.82, -5945.03, 10655.03, 29236.77, 0.00, 0.034, -0.042, 0.996, 13:18:32.268
145, 0.00, 24982.12, 13236.10, 4163.41, -6141.32, 10658.00, 29224.30, 0.00, 0.000, 0.000, 0.000, 13:18:32.269
146, 0.00, 24984.60, 13240.19, 4042.94, -6529.57, 10657.38, 29206.44, 0.00, 0.000, 0.000, 0.000, 13:18:32.269
147, 0.00, 24976.06, 13232.52, 4136.35, -6612.70, 10654.61, 29210.76, 0.00, 0.000, 0.000, 0.000, 13:18:32.269
148, 0.00, 24965.89, 13219.29, 4328.10, -6251.02, 10646.54, 29227.74, 0.00, 0.000, 0.000, 0.000, 13:18:32.269
149, 0.00, 24971.17, 13222.31, 4338.05, -5949.54, 10648.97, 29236.97, 0.00, 0.000, 0.000, 0.000, 13:18:32.270
150, 0.00, 24983.08, 13235.52, 4162.25, -6141.83, 10655.72, 29224.93, 0.00, 0.000, 0.000, 0.000, 13:18:32.270
151, 0.00, 24988.56, 13243.25, 4046.63, -6527.98, 10655.88, 29210.44, 0.00, 0.000, 0.000, 0.000, 13:18:32.270
152, 0.00, 24982.92, 13238.11, 4140.48, -6616.36, 10650.72, 29214.76, 0.00, 0.000, 0.000, 0.000, 13:18:32.270
153, 0.00, 24972.22, 13226.44, 4329.47, -6261.15, 10645.53, 29232.71, 0.00, 0.000, 0.000, 0.000, 13:18:32.270
154, 0.00, 24973.69, 13226.87, 4338.81, -5956.92, 10646.43, 29239.50, 0.00, 0.034, -0.038, 0.992, 13:18:32.271
155, 0.00, 24987.86, 13240.95, 4163.64, -6141.81, 10656.28, 29229.13, 0.00, 0.000, 0.000, 0.000, 13:18:32.271
156, 0.00, 24993.79, 13245.62, 4046.76, -6524.14, 10658.12, 29215.63, 0.00, 0.000, 0.000, 0.000, 13:18:32.272
157, 0.00, 24984.42, 13238.09, 4138.18, -6616.38, 10649.51, 29217.26, 0.00, 0.000, 0.000, 0.000, 13:18:32.272
158, 0.00, 24975.12, 13227.23, 4330.45, -6263.41, 10647.57, 29236.37, 0.00, 0.000, 0.000, 0.000, 13:18:32.272
159, 0.00, 24978.25, 13226.22, 4345.58, -5951.04, 10649.24, 29245.54, 0.00, 0.000, 0.000, 0.000, 13:18:32.272
160, 0.00, 24990.99, 13236.66, 4168.51, -6133.77, 10655.50, 29234.65, 0.00, 0.000, 0.000, 0.000, 13:18:32.273
161, 0.00, 24996.76, 13241.53, 4044.82, -6522.06, 10658.16, 29219.27, 0.00, 0.000, 0.000, 0.000, 13:18:32.273
162, 0.00, 24990.01, 13235.58, 4135.81, -6617.39, 10653.42, 29222.98, 0.00, 0.000, 0.000, 0.000, 13:18:32.274
163, 0.00, 24978.68, 13222.71, 4328.33, -6261.64, 10645.87, 29239.50, 0.00, 0.000, 0.000, 0.000, 13:18:32.274
164, 0.00, 24982.74, 13223.40, 4342.85, -5948.38, 10648.82, 29248.51, 0.00, 0.034, -0.036, 0.994, 13:18:32.274
165, 0.00, 24991.80, 13233.42, 4163.12, -6133.18, 10655.17, 29235.03, 0.00, 0.000, 0.000, 0.000, 13:18:32.274
166, 0.00, 24997.47, 13242.04, 4040.46, -6525.17, 10659.39, 29221.06, 0.00, 0.000, 0.000, 0.000, 13:18:32.274
167, 0.00, 24990.34, 13236.99, 4132.84, -6617.70, 10655.03, 29225.33, 0.00, 0.000, 0.000, 0.000, 13:18:32.275
168, 0.00, 24978.72, 13224.43, 4323.92, -6264.23, 10646.63, 29241.36, 0.00, 0.000, 0.000, 0.000, 13:18:32.275
169, 0.00, 24982.61, 13227.00, 4339.66, -5951.91, 10650.27, 29250.72, 0.00, 0.000, 0.000, 0.000, 13:18:32.275
170, 0.00, 24993.29, 13238.89, 4163.44, -6133.63, 10654.27, 29237.47, 0.00, 0.000, 0.000, 0.000, 13:18:32.275
171, 0.00, 24998.14, 13241.84, 4043.23, -6517.59, 10657.00, 29222.47, 0.00, 0.000, 0.000, 0.000, 13:18:32.275
172, 0.00, 24992.58, 13238.33, 4132.41, -6619.54, 10655.05, 29226.92, 0.00, 0.000, 0.000, 0.000, 13:18:32.275
173, 0.00, 24982.88, 13227.61, 4327.03, -6268.64, 10650.65, 29244.93, 0.00, 0.000, 0.000, 0.000, 13:18:32.276
174, 0.00, 24983.62, 13224.90, 4344.35, -5950.01, 10650.00, 29251.59, 0.00, 0.040, -0.034, 0.994, 13:18:32.276
175, 0.00, 24995.49, 13236.23, 4165.34, -6127.55, 10656.22, 29240.51, 0.00, 0.000, 0.000, 0.000, 13:18:32.277
176, 0.00, 25001.34, 13241.42, 4038.38, -6517.50, 10658.88, 29225.40, 0.00, 0.000, 0.000, 0.000, 13:18:32.277
177, 0.00, 24991.44, 13232.23, 4122.24, -6619.11, 10650.14, 29224.75, 0.00, 0.000, 0.000, 0.000, 13:18:32.277
178, 0.00, 24980.42, 13225.82, 4321.35, -6271.01, 10646.36, 29242.54, 0.00, 0.000, 0.000, 0.000, 13:18:32.277
179, 0.00, 24984.73, 13227.34, 4341.11, -5953.66, 10650.90, 29253.65, 0.00, 0.000, 0.000, 0.000, 13:18:32.277
180, 0.00, 24995.29, 13237.84, 4163.19, -6130.73, 10657.76, 29240.28, 0.00, 0.000, 0.000, 0.000, 13:18:32.277
181, 0.00, 24998.66, 13244.21, 4039.25, -6519.24, 10658.45, 29223.85, 0.00, 0.000, 0.000, 0.000, 13:18:32.277
182, 0.00, 24990.72, 13235.96, 4122.80, -6621.01, 10651.10, 29224.99, 0.00, 0.000, 0.000, 0.000, 13:18:32.278
183, 0.00, 24980.96, 13226.89, 4316.26, -6273.93, 10647.19, 29242.70, 0.00, 0.000, 0.000, 0.000, 13:18:32.278
184, 0.00, 24982.32, 13226.49, 4337.27, -5952.18, 10649.44, 29249.65, 0.00, 0.038, -0.030, 0.994, 13:18:32.278
185, 0.00, 24996.94, 13241.17, 4161.89, -6125.47, 10658.72, 29241.62, 0.00, 0.000, 0.000, 0.000, 13:18:32.278
186, 0.00, 25001.05, 13250.83, 4040.48, -6513.79, 10658.03, 29225.49, 0.00, 0.000, 0.000, 0.000, 13:18:32.279
187, 0.00, 24993.70, 13242.04, 4127.94, -6620.85, 10651.72, 29226.31, 0.00, 0.000, 0.000, 0.000, 13:18:32.279
188, 0.00, 24982.25, 13227.56, 4321.06, -6275.56, 10645.24, 29241.74, 0.00, 0.000, 0.000, 0.000, 13:18:32.279
189, 0.00, 24985.29, 13228.97, 4340.62, -5958.21, 10647.54, 29250.50, 0.00, 0.000, 0.000, 0.000, 13:18:32.279
190, 0.00, 24995.42, 13238.16, 4162.70, -6131.93, 10652.75, 29238.38, 0.00, 0.000, 0.000, 0.000, 13:18:32.279
191, 0.00, 25000.04, 13244.55, 4038.56, -6514.93, 10654.20, 29223.25, 0.00, 0.000, 0.000, 0.000, 13:18:32.280
192, 0.00, 24992.47, 13237.73, 4124.52, -6621.75, 10647.23, 29225.60, 0.00, 0.000, 0.000, 0.000, 13:18:32.280
193, 0.00, 24982.83, 13227.40, 4316.68, -6282.81, 10643.70, 29243.99, 0.00, 0.000, 0.000, 0.000, 13:18:32.280
194, 0.00, 24985.32, 13229.15, 4346.41, -5956.40, 10646.34, 29252.40, 0.00, 0.032, -0.030, 0.992, 13:18:32.280
195, 0.00, 24997.16, 13239.76, 4170.23, -6127.42, 10653.13, 29240.80, 0.00, 0.000, 0.000, 0.000, 13:18:32.281
196, 0.00, 25004.70, 13245.35, 4042.27, -6516.40, 10656.04, 29228.17, 0.00, 0.000, 0.000, 0.000, 13:18:32.281
197, 0.00, 24996.33, 13236.34, 4123.02, -6628.72, 10649.04, 29228.28, 0.00, 0.000, 0.000, 0.000, 13:18:32.281
198, 0.00, 24983.26, 13225.06, 4315.83, -6288.80, 10644.08, 29242.29, 0.00, 0.000, 0.000, 0.000, 13:18:32.281
199, 0.00, 24984.64, 13224.36, 4342.81, -5958.10, 10644.62, 29251.19, 0.00, 0.000, 0.000, 0.000, 13:18:32.281
200, 0.00, 24995.31, 13235.34, 4169.85, -6121.61, 10652.08, 29240.17, 0.00, 0.000, 0.000, 0.000, 13:18:32.282
201, 0.00, 25001.07, 13242.51, 4041.78, -6511.93, 10656.51, 29224.48, 0.00, 0.000, 0.000, 0.000, 13:18:32.282
202, 0.00, 24993.38, 13235.27, 4123.58, -6622.98, 10651.03, 29227.12, 0.00, 0.000, 0.000, 0.000, 13:18:32.283
203, 0.00, 24982.68, 13226.51, 4312.39, -6291.81, 10645.78, 29244.82, 0.00, 0.000, 0.000, 0.000, 13:18:32.283
204, 0.00, 24985.09, 13229.39, 4345.02, -5960.41, 10648.84, 29254.39, 0.00, 0.030, -0.030, 0.996, 13:18:32.283
205, 0.00, 24994.12, 13234.02, 4169.45, -6121.67, 10652.62, 29239.32, 0.00, 0.000, 0.000, 0.000, 13:18:32.283
206, 0.00, 24998.99, 13241.75, 4038.94, -6512.27, 10653.42, 29222.47, 0.00, 0.000, 0.000, 0.000, 13:18:32.283
207, 0.00, 24991.02, 13237.73, 4124.21, -6627.45, 10648.46, 29224.44, 0.00, 0.000, 0.000, 0.000, 13:18:32.283
208, 0.00, 24981.29, 13226.91, 4317.89, -6295.12, 10643.97, 29242.47, 0.00, 0.000, 0.000, 0.000, 13:18:32.283
209, 0.00, 24982.01, 13227.18, 4348.33, -5961.84, 10647.43, 29249.00, 0.00, 0.000, 0.000, 0.000, 13:18:32.283
210, 0.00, 24990.26, 13237.62, 4174.41, -6120.00, 10651.59, 29234.36, 0.00, 0.000, 0.000, 0.000, 13:18:32.735
211, 0.00, 24996.56, 13245.96, 4047.54, -6506.23, 10653.85, 29220.68, 0.00, 0.000, 0.000, 0.000, 13:18:32.735
212, 0.00, 24988.76, 13239.45, 4126.42, -6625.21, 10647.81, 29220.72, 0.00, 0.000, 0.000, 0.000, 13:18:32.735
213, 0.00, 24978.36, 13230.33, 4320.64, -6296.22, 10644.03, 29238.00, 0.00, 0.000, 0.000, 0.000, 13:18:32.735
214, 0.00, 24979.82, 13228.66, 4352.35, -5958.66, 10645.04, 29246.74, 0.00, 0.028, -0.032, 0.996, 13:18:32.735
215, 0.00, 24991.28, 13239.59, 4178.73, -6111.97, 10653.82, 29236.10, 0.00, 0.000, 0.000, 0.000, 13:18:32.735
216, 0.00, 24996.49, 13246.63, 4048.86, -6499.80, 10657.45, 29220.08, 0.00, 0.000, 0.000, 0.000, 13:18:32.736
217, 0.00, 24989.05, 13240.06, 4127.41, -6622.53, 10651.90, 29221.96, 0.00, 0.000, 0.000, 0.000, 13:18:32.736
218, 0.00, 24976.93, 13225.53, 4316.41, -6291.93, 10647.63, 29237.73, 0.00, 0.000, 0.000, 0.000, 13:18:32.736
219, 0.00, 24978.54, 13224.97, 4349.94, -5953.77, 10648.39, 29245.54, 0.00, 0.000, 0.000, 0.000, 13:18:32.736
220, 0.00, 24990.01, 13237.06, 4177.41, -6110.34, 10656.39, 29234.27, 0.00, 0.000, 0.000, 0.000, 13:18:32.736
221, 0.00, 24995.37, 13247.05, 4046.92, -6503.93, 10658.74, 29219.07, 0.00, 0.000, 0.000, 0.000, 13:18:32.736
222, 0.00, 24989.96, 13245.46, 4126.80, -6630.04, 10653.91, 29222.54, 0.00, 0.000, 0.000, 0.000, 13:18:32.736
223, 0.00, 24978.25, 13233.19, 4321.44, -6296.64, 10648.82, 29238.05, 0.00, 0.000, 0.000, 0.000, 13:18:32.737
224, 0.00, 24979.46, 13230.29, 4355.48, -5951.64, 10651.30, 29246.38, 0.00, 0.032, -0.030, 0.996, 13:18:32.737
225, 0.00, 24990.19, 13241.06, 4178.97, -6109.56, 10656.04, 29234.43, 0.00, 0.000, 0.000, 0.000, 13:18:32.737
226, 0.00, 24995.40, 13248.97, 4048.24, -6496.67, 10657.96, 29218.15, 0.00, 0.000, 0.000, 0.000, 13:18:32.737
227, 0.00, 24989.36, 13244.44, 4128.10, -6621.75, 10655.14, 29220.55, 0.00, 0.000, 0.000, 0.000, 13:18:32.737
228, 0.00, 24977.27, 13230.62, 4317.49, -6299.77, 10648.24, 29236.37, 0.00, 0.000, 0.000, 0.000, 13:18:32.737
229, 0.00, 24978.77, 13229.73, 4354.54, -5956.16, 10650.47, 29246.12, 0.00, 0.000, 0.000, 0.000, 13:18:32.738
230, 0.00, 24989.09, 13240.57, 4183.15, -6105.58, 10656.37, 29234.16, 0.00, 0.000, 0.000, 0.000, 13:18:32.738
231, 0.00, 24994.05, 13247.88, 4048.39, -6498.97, 10658.27, 29218.42, 0.00, 0.000, 0.000, 0.000, 13:18:32.738
232, 0.00, 24987.53, 13242.36, 4123.65, -6626.58, 10652.93, 29219.70, 0.00, 0.000, 0.000, 0.000, 13:18:32.738
233, 0.00, 24976.29, 13230.09, 4313.93, -6302.99, 10645.87, 29234.79, 0.00, 0.000, 0.000, 0.000, 13:18:32.738
234, 0.00, 24977.20, 13230.80, 4351.68, -5959.11, 10648.59, 29244.33, 0.00, 0.028, -0.030, 0.994, 13:18:32.738
235, 0.00, 24989.14, 13243.72, 4181.74, -6104.13, 10655.93, 29233.60, 0.00, 0.000, 0.000, 0.000, 13:18:32.739
236, 0.00, 24995.78, 13254.72, 4049.04, -6493.41, 10661.09, 29219.90, 0.00, 0.000, 0.000, 0.000, 13:18:32.739
237, 0.00, 24985.49, 13245.20, 4123.43, -6622.58, 10652.68, 29217.98, 0.00, 0.000, 0.000, 0.000, 13:18:32.739
238, 0.00, 24975.99, 13235.34, 4315.54, -6301.45, 10649.69, 29236.01, 0.00, 0.000, 0.000, 0.000, 13:18:32.739
239, 0.00, 24978.68, 13234.65, 4353.54, -5957.97, 10653.65, 29245.09, 0.00, 0.000, 0.000, 0.000, 13:18:32.739
240, 0.00, 24987.75, 13243.27, 4182.66, -6100.15, 10659.59, 29230.85, 0.00, 0.000, 0.000, 0.000, 13:18:32.739
241, 0.00, 24994.95, 13251.48, 4048.88, -6489.31, 10659.26, 29215.72, 0.00, 0.000, 0.000, 0.000, 13:18:32.740
242, 0.00, 24987.10, 13241.87, 4122.44, -6625.21, 10652.42, 29216.19, 0.00, 0.000, 0.000, 0.000, 13:18:32.740
243, 0.00, 24975.53, 13231.79, 4316.75, -6304.51, 10650.23, 29233.35, 0.00, 0.000, 0.000, 0.000, 13:18:32.740
244, 0.00, 24976.02, 13232.12, 4357.25, -5958.68, 10653.09, 29243.88, 0.00, 0.028, -0.032, 0.990, 13:18:32.740
245, 0.00, 24990.17, 13240.79, 4185.79, -6100.64, 10658.50, 29235.39, 0.00, 0.000, 0.000, 0.000, 13:18:32.740
246, 0.00, 24997.10, 13248.75, 4049.20, -6488.09, 10659.93, 29221.31, 0.00, 0.000, 0.000, 0.000, 13:18:32.740
247, 0.00, 24988.00, 13244.64, 4124.01, -6622.35, 10652.91, 29220.28, 0.00, 0.000, 0.000, 0.000, 13:18:32.740
248, 0.00, 24978.10, 13235.27, 4316.28, -6308.73, 10647.21, 29236.68, 0.00, 0.000, 0.000, 0.000, 13:18:32.740
249, 0.00, 24976.82, 13233.39, 4356.96, -5961.75, 10648.10, 29242.16, 0.00, 0.000, 0.000, 0.000, 13:18:32.741
250, 0.00, 24984.55, 13243.77, 4184.81, -6104.35, 10653.20, 29228.66, 0.00, 0.000, 0.000, 0.000, 13:18:32.741
251, 0.00, 24991.24, 13253.27, 4048.59, -6494.32, 10658.14, 29213.84, 0.00, 0.000, 0.000, 0.000, 13:18:32.741
252, 0.00, 24982.72, 13246.34, 4118.62, -6632.77, 10652.24, 29212.77, 0.00, 0.000, 0.000, 0.000, 13:18:32.741
253, 0.00, 24973.69, 13232.54, 4309.39, -6313.12, 10646.76, 29230.72, 0.00, 0.000, 0.000, 0.000, 13:18:32.742
254, 0.00, 24975.75, 13233.15, 4356.62, -5957.10, 10647.61, 29241.54, 0.00, 0.034, -0.038, 0.990, 13:18:32.742
255, 0.00, 24986.25, 13246.16, 4191.15, -6095.59, 10656.84, 29230.85, 0.00, 0.000, 0.000, 0.000, 13:18:32.742
0, 0.00, 24990.30, 13252.06, 4050.78, -6488.35, 10658.43, 29214.36, 0.00, 0.000, 0.000, 0.000, 13:18:32.742
1, 0.00, 24983.91, 13249.17, 4119.87, -6629.80, 10652.48, 29215.63, 0.00, 0.000, 0.000, 0.000, 13:18:32.742
2, 0.00, 24972.91, 13233.75, 4313.40, -6316.27, 10645.11, 29230.69, 0.00, 0.000, 0.000, 0.000, 13:18:32.742
3, 0.00, 24975.03, 13234.56, 4361.07, -5963.15, 10648.62, 29240.95, 0.00, 0.000, 0.000, 0.000, 13:18:32.742
4, 0.00, 24984.42, 13245.40, 4192.16, -6098.47, 10655.63, 29229.15, 0.00, 0.000, 0.000, 0.000, 13:18:32.742
5, 0.00, 24988.96, 13252.89, 4053.11, -6488.98, 10658.00, 29211.52, 0.00, 0.000, 0.000, 0.000, 13:18:32.742
6, 0.00, 24981.16, 13245.33, 4120.86, -6629.50, 10652.08, 29211.09, 0.00, 0.000, 0.000, 0.000, 13:18:32.742
7, 0.00, 24970.61, 13232.19, 4312.37, -6316.87, 10644.93, 29228.50, 0.00, 0.000, 0.000, 0.000, 13:18:32.743
8, 0.00, 24972.89, 13231.29, 4359.82, -5963.62, 10648.06, 29240.78, 0.00, 0.032, -0.038, 0.990, 13:18:32.743
9, 0.00, 24985.49, 13242.69, 4194.98, -6096.71, 10656.37, 29231.74, 0.00, 0.000, 0.000, 0.000, 13:18:32.743
10, 0.00, 24993.68, 13250.47, 4059.26, -6484.02, 10659.93, 29217.86, 0.00, 0.000, 0.000, 0.000, 13:18:32.743
11, 0.00, 24986.81, 13241.91, 4126.89, -6630.18, 10652.73, 29217.62, 0.00, 0.000, 0.000, 0.000, 13:18:32.743
12, 0.00, 24974.88, 13229.84, 4323.97, -6324.58, 10643.34, 29233.26, 0.00, 0.000, 0.000, 0.000, 13:18:32.743
13, 0.00, 24976.22, 13228.01, 4369.27, -5966.13, 10647.16, 29243.48, 0.00, 0.000, 0.000, 0.000, 13:18:32.744
14, 0.00, 24986.08, 13238.33, 4195.11, -6096.59, 10653.71, 29231.03, 0.00, 0.000, 0.000, 0.000, 13:18:32.744
15, 0.00, 24993.16, 13247.99, 4053.89, -6487.01, 10656.75, 29216.10, 0.00, 0.000, 0.000, 0.000, 13:18:32.744
16, 0.00, 24987.97, 13242.49, 4117.79, -6635.05, 10651.52, 29216.01, 0.00, 0.000, 0.000, 0.000, 13:18:32.744
17, 0.00, 24976.98, 13236.08, 4313.51, -6323.33, 10648.30, 29233.20, 0.00, 0.000, 0.000, 0.000, 13:18:32.744
18, 0.00, 24976.26, 13232.77, 4363.91, -5965.73, 10649.15, 29241.91, 0.00, 0.032, -0.032, 0.992, 13:18:32.744
19, 0.00, 24985.65, 13239.29, 4194.17, -6094.78, 10653.47, 29229.98, 0.00, 0.000, 0.000, 0.000, 13:18:32.744
20, 0.00, 24991.80, 13249.13, 4052.71, -6484.06, 10656.66, 29214.04, 0.00, 0.000, 0.000, 0.000, 13:18:32.745
21, 0.00, 24983.79, 13242.40, 4116.41, -6632.97, 10650.25, 29212.46, 0.00, 0.000, 0.000, 0.000, 13:18:32.745
22, 0.00, 24973.20, 13232.25, 4311.50, -6326.26, 10645.71, 29229.67, 0.00, 0.000, 0.000, 0.000, 13:18:32.745
23, 0.00, 24973.74, 13233.10, 4366.08, -5964.70, 10649.38, 29240.57, 0.00, 0.000, 0.000, 0.000, 13:18:32.745
24, 0.00, 24982.83, 13244.93, 4201.44, -6085.62, 10656.10, 29228.93, 0.00, 0.000, 0.000, 0.000, 13:18:32.745
25, 0.00, 24987.51, 13251.32, 4055.68, -6477.40, 10657.94, 29211.09, 0.00, 0.000, 0.000, 0.000, 13:18:32.745
26, 0.00, 24980.11, 13245.20, 4116.92, -6633.15, 10652.51, 29209.79, 0.00, 0.000, 0.000, 0.000, 13:18:32.745
27, 0.00, 24967.88, 13233.15, 4308.25, -6331.11, 10646.38, 29223.74, 0.00, 0.000, 0.000, 0.000, 13:18:32.746
28, 0.00, 24969.18, 13232.37, 4361.67, -5967.69, 10648.26, 29234.36, 0.00, 0.032, -0.034, 0.988, 13:18:32.746
29, 0.00, 24982.01, 13243.32, 4199.18, -6084.90, 10656.37, 29227.54, 0.00, 0.000, 0.000, 0.000, 13:18:32.746
30, 0.00, 24987.24, 13250.34, 4056.46, -6468.13, 10656.64, 29210.91, 0.00, 0.000, 0.000, 0.000, 13:18:32.746
31, 0.00, 24981.76, 13246.96, 4117.41, -6630.09, 10653.47, 29212.05, 0.00, 0.000, 0.000, 0.000, 13:18:32.746
32, 0.00, 24970.03, 13233.57, 4313.04, -6324.52, 10648.86, 29228.88, 0.00, 0.000, 0.000, 0.000, 13:18:32.746
33, 0.00, 24970.52, 13230.76, 4362.17, -5961.21, 10649.87, 29239.52, 0.00, 0.000, 0.000, 0.000, 13:18:32.746
34, 0.00, 24982.77, 13245.35, 4201.55, -6077.39, 10656.78, 29230.45, 0.00, 0.000, 0.000, 0.000, 13:18:32.746
35, 0.00, 24987.48, 13246.74, 4053.47, -6464.82, 10656.86, 29212.86, 0.00, 0.000, 0.000, 0.000, 13:18:32.747
36, 0.00, 24982.23, 13244.37, 4115.16, -6616.47, 10654.43, 29214.36, 0.00, 0.000, 0.000, 0.000, 13:18:32.747
37, 0.00, 24972.73, 13235.12, 4311.18, -6310.59, 10648.42, 29231.07, 0.00, 0.000, 0.000, 0.000, 13:18:32.747
38, 0.00, 24972.87, 13233.37, 4364.69, -5944.31, 10648.57, 29239.32, 0.00, 0.034, -0.036, 0.988, 13:18:32.747
39, 0.00, 24984.98, 13245.13, 4200.99, -6057.81, 10655.03, 29230.27, 0.00, 0.000, 0.000, 0.000, 13:18:32.747
40, 0.00, 24989.50, 13252.84, 4056.19, -6444.14, 10656.15, 29213.82, 0.00, 0.000, 0.000, 0.000, 13:18:32.748
41, 0.00, 24982.21, 13248.77, 4114.64, -6608.52, 10653.62, 29212.57, 0.00, 0.000, 0.000, 0.000, 13:18:32.748
42, 0.00, 24971.93, 13237.35, 4310.51, -6305.63, 10648.30, 29228.79, 0.00, 0.000, 0.000, 0.000, 13:18:32.748
43, 0.00, 24972.44, 13237.22, 4369.77, -5933.00, 10649.80, 29240.19, 0.00, 0.000, 0.000, 0.000, 13:18:32.748
44, 0.00, 24981.63, 13247.86, 4207.98, -6042.59, 10654.32, 29229.49, 0.00, 0.000, 0.000, 0.000, 13:18:32.749
45, 0.00, 24989.23, 13254.76, 4060.28, -6430.80, 10655.52, 29212.25, 0.00, 0.000, 0.000, 0.000, 13:18:32.749
46, 0.00, 24982.97, 13248.19, 4116.23, -6597.92, 10652.73, 29211.65, 0.00, 0.000, 0.000, 0.000, 13:18:32.749
47, 0.00, 24971.77, 13236.79, 4308.61, -6303.39, 10647.99, 29229.06, 0.00, 0.000, 0.000, 0.000, 13:18:32.750
48, 0.00, 24971.57, 13236.66, 4370.19, -5930.50, 10648.15, 29239.23, 0.00, 0.036, -0.042, 0.988, 13:18:32.750
49, 0.00, 24981.22, 13245.96, 4207.87, -6039.40, 10653.98, 29228.50, 0.00, 0.000, 0.000, 0.000, 13:18:32.750
50, 0.00, 24989.92, 13254.16, 4061.11, -6429.90, 10657.40, 29213.57, 0.00, 0.000, 0.000, 0.000, 13:18:32.750
51, 0.00, 24982.90, 13248.33, 4117.03, -6594.66, 10651.46, 29211.11, 0.00, 0.000, 0.000, 0.000, 13:18:32.750
52, 0.00, 24972.55, 13239.70, 4307.54, -6304.15, 10647.75, 29228.21, 0.00, 0.000, 0.000, 0.000, 13:18:32.750
53, 0.00, 24971.99, 13233.93, 4366.64, -5934.59, 10648.37, 29239.43, 0.00, 0.000, 0.000, 0.000, 13:18:32.750
54, 0.00, 24981.16, 13244.46, 4206.91, -6035.44, 10655.57, 29229.06, 0.00, 0.000, 0.000, 0.000, 13:18:32.750
55, 0.00, 24989.21, 13251.23, 4054.29, -6424.54, 10659.90, 29213.17, 0.00, 0.000, 0.000, 0.000, 13:18:32.751
56, 0.00, 24984.02, 13248.71, 4109.73, -6595.64, 10654.16, 29212.88, 0.00, 0.000, 0.000, 0.000, 13:18:32.751
57, 0.00, 24970.85, 13234.15, 4299.72, -6309.38, 10644.26, 29226.96, 0.00, 0.000, 0.000, 0.000, 13:18:32.751
58, 0.00, 24973.69, 13235.99, 4365.68, -5932.29, 10648.44, 29240.46, 0.00, 0.030, -0.038, 0.986, 13:18:32.751
59, 0.00, 24986.66, 13249.26, 4208.88, -6030.75, 10657.89, 29233.02, 0.00, 0.000, 0.000, 0.000, 13:18:32.751
60, 0.00, 24990.90, 13253.53, 4054.36, -6420.63, 10658.03, 29214.00, 0.00, 0.000, 0.000, 0.000, 13:18:32.751
61, 0.00, 24982.61, 13246.54, 4103.96, -6591.71, 10652.13, 29211.20, 0.00, 0.000, 0.000, 0.000, 13:18:32.751
62, 0.00, 24970.79, 13236.37, 4299.42, -6299.17, 10645.64, 29227.47, 0.00, 0.000, 0.000, 0.000, 13:18:32.752
63, 0.00, 24971.48, 13235.88, 4362.17, -5923.66, 10648.33, 29240.86, 0.00, 0.000, 0.000, 0.000, 13:18:32.752
64, 0.00, 24982.68, 13247.88, 4201.32, -6026.28, 10657.38, 29232.26, 0.00, 0.000, 0.000, 0.000, 13:18:32.752
65, 0.00, 24989.81, 13256.35, 4049.76, -6417.30, 10659.05, 29214.69, 0.00, 0.000, 0.000, 0.000, 13:18:32.752
66, 0.00, 24984.49, 13251.75, 4102.17, -6587.91, 10653.36, 29214.38, 0.00, 0.000, 0.000, 0.000, 13:18:32.752
67, 0.00, 24973.20, 13237.15, 4290.60, -6302.74, 10647.99, 29230.29, 0.00, 0.000, 0.000, 0.000, 13:18:32.752
68, 0.00, 24973.20, 13238.54, 4357.45, -5928.26, 10650.14, 29240.26, 0.00, 0.032, -0.036, 0.992, 13:18:32.752
69, 0.00, 24983.75, 13250.09, 4199.85, -6023.62, 10655.99, 29230.92, 0.00, 0.000, 0.000, 0.000, 13:18:32.752
70, 0.00, 24991.55, 13258.56, 4049.40, -6408.87, 10660.58, 29215.49, 0.00, 0.000, 0.000, 0.000, 13:18:32.753
71, 0.00, 24983.42, 13252.21, 4098.86, -6588.44, 10654.41, 29213.33, 0.00, 0.000, 0.000, 0.000, 13:18:32.753
72, 0.00, 24971.37, 13239.25, 4288.47, -6308.20, 10647.50, 29228.75, 0.00, 0.000, 0.000, 0.000, 13:18:32.753
73, 0.00, 24971.46, 13235.47, 4352.31, -5929.83, 10648.01, 29239.05, 0.00, 0.000, 0.000, 0.000, 13:18:32.753
74, 0.00, 24982.32, 13245.51, 4194.71, -6024.24, 10654.65, 29229.89, 0.00, 0.000, 0.000, 0.000, 13:18:33.216
75, 0.00, 24987.89, 13253.27, 4044.24, -6409.97, 10657.40, 29212.68, 0.00, 0.000, 0.000, 0.000, 13:18:33.216
76, 0.00, 24983.01, 13249.87, 4093.41, -6589.05, 10654.16, 29212.70, 0.00, 0.000, 0.000, 0.000, 13:18:33.217
77, 0.00, 24970.90, 13237.53, 4284.63, -6309.16, 10643.88, 29226.00, 0.00, 0.000, 0.000, 0.000, 13:18:33.217
78, 0.00, 24970.23, 13234.67, 4350.66, -5929.22, 10645.93, 29237.87, 0.00, 0.034, -0.036, 0.994, 13:18:33.217
79, 0.00, 24981.56, 13247.68, 4193.25, -6019.44, 10656.04, 29230.11, 0.00, 0.000, 0.000, 0.000, 13:18:33.217
80, 0.00, 24987.60, 13257.51, 4043.05, -6405.14, 10658.27, 29212.68, 0.00, 0.000, 0.000, 0.000, 13:18:33.218
81, 0.00, 24982.21, 13253.42, 4091.62, -6588.11, 10653.65, 29211.56, 0.00, 0.000, 0.000, 0.000, 13:18:33.218
82, 0.00, 24970.79, 13238.29, 4280.54, -6312.13, 10648.35, 29227.27, 0.00, 0.000, 0.000, 0.000, 13:18:33.218
83, 0.00, 24966.36, 13234.58, 4351.62, -5925.04, 10646.83, 29235.32, 0.00, 0.000, 0.000, 0.000, 13:18:33.218
84, 0.00, 24977.54, 13246.45, 4193.88, -6015.97, 10652.59, 29226.18, 0.00, 0.000, 0.000, 0.000, 13:18:33.219
85, 0.00, 24986.08, 13257.31, 4042.63, -6402.79, 10658.05, 29211.58, 0.00, 0.000, 0.000, 0.000, 13:18:33.219
86, 0.00, 24981.13, 13252.28, 4086.48, -6591.08, 10654.14, 29210.22, 0.00, 0.000, 0.000, 0.000, 13:18:33.219
87, 0.00, 24967.61, 13237.42, 4277.48, -6312.71, 10645.55, 29224.21, 0.00, 0.000, 0.000, 0.000, 13:18:33.219
88, 0.00, 24966.81, 13234.00, 4347.55, -5922.70, 10645.49, 29236.44, 0.00, 0.034, -0.030, 0.994, 13:18:33.220
89, 0.00, 24979.01, 13246.07, 4189.54, -6012.19, 10652.53, 29228.66, 0.00, 0.000, 0.000, 0.000, 13:18:33.220
90, 0.00, 24986.03, 13256.28, 4034.85, -6405.79, 10657.89, 29212.23, 0.00, 0.000, 0.000, 0.000, 13:18:33.221
91, 0.00, 24978.34, 13250.85, 4081.74, -6590.17, 10653.15, 29207.31, 0.00, 0.000, 0.000, 0.000, 13:18:33.221
92, 0.00, 24966.21, 13238.69, 4273.94, -6313.27, 10645.13, 29223.03, 0.00, 0.000, 0.000, 0.000, 13:18:33.221
93, 0.00, 24967.86, 13239.23, 4348.02, -5924.75, 10647.03, 29235.88, 0.00, 0.000, 0.000, 0.000, 13:18:33.221
94, 0.00, 24980.15, 13251.59, 4194.01, -6010.25, 10654.50, 29227.43, 0.00, 0.000, 0.000, 0.000, 13:18:33.222
95, 0.00, 24987.10, 13258.83, 4039.36, -6395.37, 10656.46, 29211.20, 0.00, 0.000, 0.000, 0.000, 13:18:33.222
96, 0.00, 24978.92, 13252.42, 4082.08, -6585.63, 10649.33, 29207.72, 0.00, 0.000, 0.000, 0.000, 13:18:33.222
97, 0.00, 24967.66, 13242.18, 4273.70, -6313.27, 10644.59, 29223.50, 0.00, 0.000, 0.000, 0.000, 13:18:33.222
98, 0.00, 24966.58, 13235.09, 4345.38, -5927.46, 10646.38, 29235.05, 0.00, 0.030, -0.034, 0.998, 13:18:33.223
99, 0.00, 24977.36, 13242.85, 4187.69, -6011.30, 10650.90, 29226.36, 0.00, 0.000, 0.000, 0.000, 13:18:33.223
100, 0.00, 24984.73, 13252.24, 4032.46, -6396.60, 10654.25, 29210.26, 0.00, 0.000, 0.000, 0.000, 13:18:33.223
101, 0.00, 24978.12, 13245.80, 4073.07, -6586.34, 10648.77, 29205.73, 0.00, 0.000, 0.000, 0.000, 13:18:33.223
102, 0.00, 24967.03, 13235.92, 4262.83, -6322.03, 10641.58, 29221.04, 0.00, 0.000, 0.000, 0.000, 13:18:33.224
103, 0.00, 24968.22, 13238.29, 4345.56, -5930.34, 10644.84, 29236.21, 0.00, 0.000, 0.000, 0.000, 13:18:33.224
104, 0.00, 24980.02, 13249.96, 4192.07, -6005.60, 10653.02, 29229.84, 0.00, 0.000, 0.000, 0.000, 13:18:33.224
105, 0.00, 24987.55, 13259.26, 4036.48, -6389.60, 10656.06, 29214.42, 0.00, 0.000, 0.000, 0.000, 13:18:33.224
106, 0.00, 24982.59, 13255.79, 4079.89, -6585.00, 10651.68, 29211.18, 0.00, 0.000, 0.000, 0.000, 13:18:33.224
107, 0.00, 24971.48, 13242.38, 4268.33, -6321.83, 10645.15, 29224.93, 0.00, 0.000, 0.000, 0.000, 13:18:33.225
108, 0.00, 24969.60, 13238.16, 4343.57, -5932.24, 10644.44, 29237.06, 0.00, 0.028, -0.034, 0.998, 13:18:33.225
109, 0.00, 24981.47, 13247.23, 4188.92, -6009.65, 10650.14, 29229.73, 0.00, 0.000, 0.000, 0.000, 13:18:33.225
110, 0.00, 24990.86, 13256.30, 4034.00, -6393.98, 10654.88, 29214.62, 0.00, 0.000, 0.000, 0.000, 13:18:33.225
111, 0.00, 24986.54, 13253.09, 4078.99, -6587.08, 10653.20, 29213.53, 0.00, 0.000, 0.000, 0.000, 13:18:33.226
112, 0.00, 24973.78, 13241.13, 4270.86, -6321.01, 10646.54, 29228.97, 0.00, 0.000, 0.000, 0.000, 13:18:33.226
113, 0.00, 24970.85, 13238.98, 4347.17, -5928.35, 10646.18, 29240.62, 0.00, 0.000, 0.000, 0.000, 13:18:33.226
114, 0.00, 24982.07, 13245.75, 4190.75, -6004.86, 10652.51, 29231.43, 0.00, 0.000, 0.000, 0.000, 13:18:33.226
115, 0.00, 24987.33, 13252.46, 4031.76, -6393.43, 10653.71, 29211.87, 0.00, 0.000, 0.000, 0.000, 13:18:33.226
116, 0.00, 24981.90, 13250.92, 4074.30, -6590.01, 10648.50, 29211.16, 0.00, 0.000, 0.000, 0.000, 13:18:33.227
117, 0.00, 24969.89, 13240.03, 4262.16, -6335.13, 10641.91, 29225.11, 0.00, 0.000, 0.000, 0.000, 13:18:33.227
118, 0.00, 24968.15, 13236.68, 4344.80, -5936.22, 10643.52, 29237.87, 0.00, 0.022, -0.034, 1.002, 13:18:33.227
119, 0.00, 24980.09, 13247.61, 4193.16, -6005.29, 10650.43, 29230.63, 0.00, 0.000, 0.000, 0.000, 13:18:33.227
120, 0.00, 24987.39, 13257.96, 4034.22, -6395.06, 10653.04, 29212.92, 0.00, 0.000, 0.000, 0.000, 13:18:33.227
121, 0.00, 24981.52, 13251.12, 4072.67, -6594.35, 10647.79, 29209.79, 0.00, 0.000, 0.000, 0.000, 13:18:33.228
122, 0.00, 24970.09, 13239.03, 4261.34, -6335.94, 10642.11, 29225.31, 0.00, 0.000, 0.000, 0.000, 13:18:33.228
123, 0.00, 24969.15, 13238.96, 4344.08, -5945.72, 10643.74, 29238.03, 0.00, 0.000, 0.000, 0.000, 13:18:33.228
124, 0.00, 24979.93, 13248.17, 4192.90, -6016.53, 10649.00, 29229.49, 0.00, 0.000, 0.000, 0.000, 13:18:33.228
125, 0.00, 24984.40, 13253.51, 4032.75, -6400.13, 10647.83, 29209.84, 0.00, 0.000, 0.000, 0.000, 13:18:33.229
126, 0.00, 24980.31, 13251.52, 4070.95, -6602.33, 10647.39, 29209.68, 0.00, 0.000, 0.000, 0.000, 13:18:33.229
127, 0.00, 24969.76, 13239.25, 4257.11, -6350.78, 10643.36, 29225.89, 0.00, 0.000, 0.000, 0.000, 13:18:33.229
128, 0.00, 24968.26, 13235.00, 4336.93, -5955.78, 10644.86, 29237.91, 0.00, 0.026, -0.034, 1.002, 13:18:33.229
129, 0.00, 24978.41, 13246.34, 4187.08, -6022.43, 10652.08, 29229.58, 0.00, 0.000, 0.000, 0.000, 13:18:33.230
130, 0.00, 24984.73, 13256.89, 4032.68, -6398.32, 10654.16, 29212.41, 0.00, 0.000, 0.000, 0.000, 13:18:33.230
131, 0.00, 24978.97, 13252.93, 4066.61, -6607.78, 10648.10, 29208.83, 0.00, 0.000, 0.000, 0.000, 13:18:33.230
132, 0.00, 24965.80, 13235.65, 4251.35, -6361.64, 10640.10, 29220.23, 0.00, 0.000, 0.000, 0.000, 13:18:33.230
133, 0.00, 24964.80, 13232.90, 4340.10, -5954.33, 10640.26, 29233.13, 0.00, 0.000, 0.000, 0.000, 13:18:33.230
134, 0.00, 24975.88, 13244.26, 4188.38, -6017.67, 10648.04, 29227.16, 0.00, 0.000, 0.000, 0.000, 13:18:33.231
135, 0.00, 24984.60, 13254.70, 4027.90, -6400.18, 10653.71, 29211.92, 0.00, 0.000, 0.000, 0.000, 13:18:33.231
136, 0.00, 24980.46, 13253.78, 4066.63, -6607.94, 10650.47, 29208.34, 0.00, 0.000, 0.000, 0.000, 13:18:33.231
137, 0.00, 24968.19, 13240.88, 4257.14, -6355.23, 10643.99, 29223.03, 0.00, 0.000, 0.000, 0.000, 13:18:33.231
138, 0.00, 24966.54, 13238.00, 4345.18, -5950.10, 10644.82, 29236.04, 0.00, 0.030, -0.032, 0.998, 13:18:33.231
139, 0.00, 24980.24, 13249.09, 4193.86, -6014.38, 10651.81, 29232.37, 0.00, 0.000, 0.000, 0.000, 13:18:33.232
140, 0.00, 24984.31, 13254.16, 4030.42, -6400.29, 10651.01, 29211.92, 0.00, 0.000, 0.000, 0.000, 13:18:33.232
141, 0.00, 24979.39, 13250.18, 4064.40, -6607.26, 10645.22, 29207.78, 0.00, 0.000, 0.000, 0.000, 13:18:33.232
142, 0.00, 24970.99, 13242.83, 4254.61, -6360.61, 10640.57, 29224.53, 0.00, 0.000, 0.000, 0.000, 13:18:33.232
143, 0.00, 24970.16, 13238.33, 4344.98, -5958.46, 10642.92, 29238.03, 0.00, 0.000, 0.000, 0.000, 13:18:33.233
144, 0.00, 24980.33, 13247.54, 4195.22, -6014.47, 10649.13, 29228.95, 0.00, 0.000, 0.000, 0.000, 13:18:33.233
145, 0.00, 24990.86, 13257.56, 4031.61, -6399.73, 10653.38, 29213.66, 0.00, 0.000, 0.000, 0.000, 13:18:33.233
146, 0.00, 24985.72, 13249.31, 4060.93, -6616.32, 10647.21, 29210.22, 0.00, 0.000, 0.000, 0.000, 13:18:33.233
147, 0.00, 24971.90, 13239.12, 4250.36, -6369.00, 10642.00, 29224.14, 0.00, 0.000, 0.000, 0.000, 13:18:33.233
148, 0.00, 24968.06, 13236.10, 4340.60, -5967.29, 10641.98, 29235.92, 0.00, 0.026, -0.032, 0.998, 13:18:33.234
149, 0.00, 24979.01, 13246.05, 4193.95, -6019.93, 10647.45, 29228.19, 0.00, 0.000, 0.000, 0.000, 13:18:33.234
150, 0.00, 24986.52, 13255.95, 4033.28, -6398.92, 10652.30, 29210.38, 0.00, 0.000, 0.000, 0.000, 13:18:33.234
151, 0.00, 24982.46, 13253.49, 4065.69, -6612.56, 10648.06, 29208.12, 0.00, 0.000, 0.000, 0.000, 13:18:33.234
152, 0.00, 24970.50, 13239.14, 4249.27, -6372.08, 10641.15, 29223.07, 0.00, 0.000, 0.000, 0.000, 13:18:33.234
153, 0.00, 24969.89, 13236.34, 4338.76, -5965.73, 10644.19, 29237.49, 0.00, 0.000, 0.000, 0.000, 13:18:33.235
154, 0.00, 24982.50, 13249.71, 4194.73, -6015.77, 10652.64, 29231.32, 0.00, 0.000, 0.000, 0.000, 13:18:33.235
155, 0.00, 24992.24, 13258.16, 4031.74, -6398.79, 10655.95, 29216.17, 0.00, 0.000, 0.000, 0.000, 13:18:33.235
156, 0.00, 24988.27, 13254.72, 4063.88, -6613.55, 10650.36, 29212.14, 0.00, 0.000, 0.000, 0.000, 13:18:33.236
157, 0.00, 24974.45, 13241.98, 4253.78, -6369.29, 10645.00, 29225.60, 0.00, 0.034, -0.030, 0.994, 13:18:33.236
158, 0.00, 24973.11, 13238.58, 4340.93, -5971.29, 10645.93, 29239.68, 0.00, 0.000, 0.000, 0.000, 13:18:33.236
159, 0.00, 24982.16, 13247.61, 4195.62, -6017.36, 10652.53, 29230.69, 0.00, 0.000, 0.000, 0.000, 13:18:33.236
160, 0.00, 24989.56, 13256.24, 4030.67, -6397.72, 10654.85, 29212.05, 0.00, 0.000, 0.000, 0.000, 13:18:33.236
161, 0.00, 24985.25, 13255.97, 4060.02, -6615.87, 10651.54, 29209.42, 0.00, 0.000, 0.000, 0.000, 13:18:33.237
162, 0.00, 24974.25, 13241.44, 4245.87, -6379.01, 10644.33, 29225.64, 0.00, 0.000, 0.000, 0.000, 13:18:33.237
163, 0.00, 24970.72, 13237.17, 4339.46, -5974.24, 10644.30, 29237.47, 0.00, 0.000, 0.000, 0.000, 13:18:33.237
164, 0.00, 24981.67, 13246.16, 4191.18, -6021.67, 10650.27, 29230.13, 0.00, 0.000, 0.000, 0.000, 13:18:33.238
165, 0.00, 24990.50, 13255.43, 4028.41, -6397.43, 10652.64, 29213.68, 0.00, 0.000, 0.000, 0.000, 13:18:33.238
166, 0.00, 24986.72, 13253.65, 4058.58, -6618.57, 10649.44, 29210.67, 0.00, 0.000, 0.000, 0.000, 13:18:33.238
167, 0.00, 24973.18, 13239.97, 4248.75, -6380.57, 10643.74, 29224.46, 0.00, 0.032, -0.030, 0.994, 13:18:33.239
168, 0.00, 24971.46, 13238.22, 4344.84, -5971.42, 10644.21, 29239.05, 0.00, 0.000, 0.000, 0.000, 13:18:33.239
169, 0.00, 24983.79, 13249.13, 4200.47, -6013.42, 10651.68, 29233.20, 0.00, 0.000, 0.000, 0.000, 13:18:33.239
170, 0.00, 24991.95, 13257.42, 4036.05, -6389.11, 10655.61, 29215.83, 0.00, 0.000, 0.000, 0.000, 13:18:33.239
171, 0.00, 24985.18, 13253.73, 4061.27, -6613.52, 10650.14, 29209.15, 0.00, 0.000, 0.000, 0.000, 13:18:33.240
172, 0.00, 24975.75, 13242.07, 4245.40, -6387.06, 10643.52, 29224.77, 0.00, 0.000, 0.000, 0.000, 13:18:33.240
173, 0.00, 24972.49, 13237.35, 4341.92, -5976.43, 10644.03, 29236.93, 0.00, 0.000, 0.000, 0.000, 13:18:33.240
174, 0.00, 24981.16, 13249.44, 4200.99, -6015.68, 10652.48, 29229.58, 0.00, 0.000, 0.000, 0.000, 13:18:33.240
175, 0.00, 24988.56, 13259.59, 4040.84, -6390.50, 10655.66, 29211.96, 0.00, 0.000, 0.000, 0.000, 13:18:33.241
176, 0.00, 24983.19, 13255.25, 4061.67, -6618.28, 10651.46, 29206.71, 0.00, 0.000, 0.000, 0.000, 13:18:33.241
177, 0.00, 24971.55, 13246.18, 4246.70, -6390.50, 10646.85, 29221.73, 0.00, 0.030, -0.032, 0.996, 13:18:33.241
178, 0.00, 24968.51, 13240.37, 4348.62, -5972.21, 10646.18, 29233.94, 0.00, 0.000, 0.000, 0.000, 13:18:33.241
179, 0.00, 24978.97, 13247.79, 4204.03, -6008.15, 10651.61, 29225.55, 0.00, 0.000, 0.000, 0.000, 13:18:33.241
180, 0.00, 24987.60, 13257.36, 4033.73, -6390.48, 10654.47, 29209.24, 0.00, 0.000, 0.000, 0.000, 13:18:33.242
181, 0.00, 24983.64, 13255.23, 4055.88, -6622.13, 10649.80, 29206.64, 0.00, 0.000, 0.000, 0.000, 13:18:33.242
182, 0.00, 24972.31, 13245.06, 4245.89, -6391.48, 10644.97, 29220.52, 0.00, 0.000, 0.000, 0.000, 13:18:33.242
183, 0.00, 24968.31, 13239.38, 4345.65, -5975.81, 10645.31, 29233.89, 0.00, 0.000, 0.000, 0.000, 13:18:33.242
184, 0.00, 24980.38, 13247.34, 4199.76, -6011.64, 10650.61, 29229.24, 0.00, 0.000, 0.000, 0.000, 13:18:33.242
185, 0.00, 24987.46, 13256.04, 4029.95, -6393.54, 10652.37, 29211.92, 0.00, 0.000, 0.000, 0.000, 13:18:33.243
186, 0.00, 24983.42, 13252.44, 4053.80, -6623.34, 10648.57, 29209.68, 0.00, 0.000, 0.000, 0.000, 13:18:33.243
187, 0.00, 24971.10, 13241.08, 4240.17, -6398.05, 10640.59, 29223.85, 0.00, 0.032, -0.034, 1.004, 13:18:33.243
188, 0.00, 24967.77, 13236.39, 4341.80, -5983.32, 10639.63, 29234.65, 0.00, 0.000, 0.000, 0.000, 13:18:33.243
189, 0.00, 24979.06, 13245.00, 4201.32, -6013.07, 10648.15, 29227.34, 0.00, 0.000, 0.000, 0.000, 13:18:33.244
190, 0.00, 24987.71, 13257.42, 4037.44, -6390.79, 10652.01, 29211.00, 0.00, 0.000, 0.000, 0.000, 13:18:33.244
191, 0.00, 24983.91, 13255.43, 4056.42, -6628.43, 10647.57, 29207.34, 0.00, 0.000, 0.000, 0.000, 13:18:33.244
192, 0.00, 24972.62, 13243.16, 4239.66, -6410.97, 10641.87, 29221.64, 0.00, 0.000, 0.000, 0.000, 13:18:33.244
193, 0.00, 24970.00, 13237.35, 4341.78, -5991.50, 10643.10, 29236.33, 0.00, 0.000, 0.000, 0.000, 13:18:33.244
194, 0.00, 24980.64, 13249.80, 4203.42, -6013.78, 10652.15, 29229.87, 0.00, 0.000, 0.000, 0.000, 13:18:33.697
195, 0.00, 24988.82, 13258.07, 4036.55, -6386.27, 10657.49, 29213.48, 0.00, 0.000, 0.000, 0.000, 13:18:33.697
196, 0.00, 24982.79, 13252.71, 4053.49, -6618.82, 10651.90, 29206.71, 0.00, 0.000, 0.000, 0.000, 13:18:33.697
197, 0.00, 24970.74, 13242.69, 4239.30, -6397.58, 10644.64, 29222.51, 0.00, 0.028, -0.036, 0.998, 13:18:33.697
198, 0.00, 24969.45, 13240.79, 4345.76, -5984.77, 10645.46, 29236.26, 0.00, 0.000, 0.000, 0.000, 13:18:33.697
199, 0.00, 24978.16, 13248.88, 4209.48, -6007.86, 10650.25, 29227.95, 0.00, 0.000, 0.000, 0.000, 13:18:33.697
200, 0.00, 24984.67, 13257.02, 4037.93, -6384.71, 10650.90, 29209.64, 0.00, 0.000, 0.000, 0.000, 13:18:33.697
201, 0.00, 24981.52, 13252.13, 4052.06, -6625.84, 10644.28, 29205.06, 0.00, 0.000, 0.000, 0.000, 13:18:33.697
202, 0.00, 24971.97, 13239.88, 4233.67, -6413.54, 10638.07, 29220.52, 0.00, 0.000, 0.000, 0.000, 13:18:33.698
203, 0.00, 24968.78, 13234.04, 4341.00, -5993.33, 10636.95, 29234.34, 0.00, 0.000, 0.000, 0.000, 13:18:33.698
204, 0.00, 24977.29, 13242.42, 4201.97, -6011.50, 10639.12, 29226.07, 0.00, 0.000, 0.000, 0.000, 13:18:33.698
205, 0.00, 24988.49, 13255.32, 4033.08, -6389.96, 10647.50, 29212.05, 0.00, 0.000, 0.000, 0.000, 13:18:33.698
206, 0.00, 24984.91, 13253.94, 4053.53, -6627.87, 10646.76, 29207.34, 0.00, 0.000, 0.000, 0.000, 13:18:33.698
207, 0.00, 24972.35, 13243.56, 4237.96, -6415.46, 10638.83, 29219.83, 0.00, 0.026, -0.036, 0.998, 13:18:33.698
208, 0.00, 24970.68, 13240.70, 4349.34, -5994.36, 10639.61, 29235.05, 0.00, 0.000, 0.000, 0.000, 13:18:33.698
209, 0.00, 24981.07, 13247.61, 4213.06, -6011.84, 10645.46, 29229.24, 0.00, 0.000, 0.000, 0.000, 13:18:33.698
210, 0.00, 24985.23, 13254.79, 4042.74, -6382.07, 10646.67, 29207.94, 0.00, 0.000, 0.000, 0.000, 13:18:33.698
211, 0.00, 24980.38, 13252.73, 4055.41, -6626.08, 10642.69, 29203.47, 0.00, 0.000, 0.000, 0.000, 13:18:33.699
212, 0.00, 24971.79, 13243.94, 4238.32, -6420.07, 10638.76, 29219.94, 0.00, 0.000, 0.000, 0.000, 13:18:33.699
213, 0.00, 24966.96, 13235.43, 4347.66, -5999.52, 10637.17, 29232.57, 0.00, 0.000, 0.000, 0.000, 13:18:33.699
214, 0.00, 24976.24, 13244.03, 4214.47, -6010.58, 10643.23, 29224.88, 0.00, 0.000, 0.000, 0.000, 13:18:33.699
215, 0.00, 24985.61, 13256.24, 4047.39, -6384.53, 10648.10, 29208.68, 0.00, 0.000, 0.000, 0.000, 13:18:33.699
216, 0.00, 24980.46, 13252.30, 4059.66, -6630.82, 10644.59, 29203.29, 0.00, 0.000, 0.000, 0.000, 13:18:33.699
217, 0.00, 24970.90, 13239.63, 4239.03, -6423.69, 10639.05, 29219.18, 0.00, 0.026, -0.036, 0.998, 13:18:33.699
218, 0.00, 24966.85, 13230.67, 4343.52, -6002.29, 10636.77, 29231.34, 0.00, 0.000, 0.000, 0.000, 13:18:33.700
219, 0.00, 24976.51, 13242.56, 4213.21, -6009.38, 10644.17, 29225.33, 0.00, 0.000, 0.000, 0.000, 13:18:33.700
220, 0.00, 24986.03, 13256.17, 4047.12, -6379.68, 10649.58, 29211.34, 0.00, 0.000, 0.000, 0.000, 13:18:33.700
221, 0.00, 24982.12, 13252.13, 4055.57, -6629.37, 10642.51, 29206.55, 0.00, 0.000, 0.000, 0.000, 13:18:33.700
222, 0.00, 24968.57, 13237.19, 4233.06, -6426.51, 10634.42, 29217.82, 0.00, 0.000, 0.000, 0.000, 13:18:33.700
223, 0.00, 24966.63, 13233.53, 4349.18, -6001.29, 10635.50, 29232.37, 0.00, 0.000, 0.000, 0.000, 13:18:33.700
224, 0.00, 24977.85, 13245.62, 4215.96, -6009.20, 10640.23, 29228.41, 0.00, 0.000, 0.000, 0.000, 13:18:33.700
225, 0.00, 24987.64, 13257.69, 4042.40, -6382.58, 10645.13, 29213.53, 0.00, 0.000, 0.000, 0.000, 13:18:33.701
226, 0.00, 24981.05, 13251.63, 4049.04, -6636.17, 10639.03, 29204.63, 0.00, 0.000, 0.000, 0.000, 13:18:33.701
227, 0.00, 24968.42, 13239.74, 4229.53, -6437.57, 10632.70, 29217.26, 0.00, 0.028, -0.040, 0.998, 13:18:33.701
228, 0.00, 24966.32, 13234.00, 4343.28, -6012.19, 10632.61, 29232.06, 0.00, 0.000, 0.000, 0.000, 13:18:33.701
229, 0.00, 24972.98, 13239.54, 4209.06, -6016.44, 10635.76, 29223.29, 0.00, 0.000, 0.000, 0.000, 13:18:33.701
230, 0.00, 24984.13, 13247.83, 4034.42, -6384.22, 10641.64, 29208.21, 0.00, 0.000, 0.000, 0.000, 13:18:33.701
231, 0.00, 24982.86, 13247.59, 4043.27, -6636.32, 10639.94, 29204.34, 0.00, 0.000, 0.000, 0.000, 13:18:33.701
232, 0.00, 24969.71, 13235.90, 4226.45, -6437.01, 10631.81, 29217.15, 0.00, 0.000, 0.000, 0.000, 13:18:33.701
233, 0.00, 24969.76, 13232.84, 4337.94, -6019.21, 10634.58, 29234.81, 0.00, 0.000, 0.000, 0.000, 13:18:33.702
234, 0.00, 24980.29, 13242.31, 4211.76, -6011.59, 10641.62, 29228.88, 0.00, 0.000, 0.000, 0.000, 13:18:33.702
235, 0.00, 24987.51, 13253.15, 4045.17, -6371.63, 10646.11, 29211.45, 0.00, 0.000, 0.000, 0.000, 13:18:33.702
236, 0.00, 24983.68, 13249.53, 4047.72, -6631.00, 10642.25, 29205.91, 0.00, 0.000, 0.000, 0.000, 13:18:33.702
237, 0.00, 24972.78, 13238.69, 4228.26, -6435.27, 10636.23, 29220.61, 0.00, 0.030, -0.036, 0.994, 13:18:33.702
238, 0.00, 24967.97, 13235.99, 4347.95, -6011.68, 10634.31, 29233.69, 0.00, 0.000, 0.000, 0.000, 13:18:33.703
239, 0.00, 24976.53, 13243.92, 4220.84, -6004.80, 10642.72, 29227.21, 0.00, 0.000, 0.000, 0.000, 13:18:33.703
240, 0.00, 24984.78, 13250.31, 4044.24, -6371.59, 10646.11, 29209.35, 0.00, 0.000, 0.000, 0.000, 13:18:33.703
241, 0.00, 24982.48, 13253.11, 4051.05, -6634.09, 10643.23, 29205.10, 0.00, 0.000, 0.000, 0.000, 13:18:33.703
242, 0.00, 24971.39, 13242.49, 4235.45, -6440.23, 10638.00, 29219.92, 0.00, 0.000, 0.000, 0.000, 13:18:33.703
243, 0.00, 24966.58, 13232.86, 4351.57, -6010.25, 10636.61, 29233.89, 0.00, 0.000, 0.000, 0.000, 13:18:33.703
244, 0.00, 24979.48, 13243.39, 4220.17, -6007.34, 10643.70, 29229.80, 0.00, 0.000, 0.000, 0.000, 13:18:33.704
245, 0.00, 24988.06, 13252.35, 4047.01, -6370.76, 10647.12, 29212.32, 0.00, 0.000, 0.000, 0.000, 13:18:33.704
246, 0.00, 24982.14, 13248.01, 4046.76, -6635.54, 10642.78, 29205.26, 0.00, 0.000, 0.000, 0.000, 13:18:33.704
247, 0.00, 24973.29, 13240.52, 4229.51, -6447.74, 10639.54, 29220.88, 0.00, 0.034, -0.032, 0.994, 13:18:33.705
248, 0.00, 24967.59, 13235.09, 4351.08, -6018.70, 10638.56, 29233.09, 0.00, 0.000, 0.000, 0.000, 13:18:33.705
249, 0.00, 24976.04, 13243.27, 4224.41, -6004.82, 10641.58, 29227.90, 0.00, 0.000, 0.000, 0.000, 13:18:33.705
250, 0.00, 24982.72, 13253.15, 4049.58, -6371.50, 10643.52, 29208.97, 0.00, 0.000, 0.000, 0.000, 13:18:33.705
251, 0.00, 24981.18, 13253.31, 4055.23, -6631.34, 10642.51, 29205.77, 0.00, 0.000, 0.000, 0.000, 13:18:33.705
252, 0.00, 24971.39, 13240.32, 4231.61, -6448.84, 10634.60, 29220.70, 0.00, 0.000, 0.000, 0.000, 13:18:33.705
253, 0.00, 24965.06, 13233.60, 4352.35, -6022.27, 10632.25, 29233.06, 0.00, 0.000, 0.000, 0.000, 13:18:33.706
254, 0.00, 24974.99, 13243.88, 4227.21, -6005.11, 10639.72, 29226.60, 0.00, 0.000, 0.000, 0.000, 13:18:33.706
255, 0.00, 24984.78, 13255.14, 4049.89, -6372.42, 10645.49, 29210.06, 0.00, 0.000, 0.000, 0.000, 13:18:33.706
0, 0.00, 24979.86, 13253.91, 4054.85, -6631.92, 10642.87, 29204.45, 0.00, 0.000, 0.000, 0.000, 13:18:33.706
1, 0.00, 24966.63, 13240.73, 4233.02, -6447.56, 10636.21, 29217.33, 0.00, 0.036, -0.036, 0.998, 13:18:33.706
2, 0.00, 24964.73, 13235.81, 4353.36, -6022.07, 10635.29, 29232.57, 0.00, 0.000, 0.000, 0.000, 13:18:33.706
3, 0.00, 24979.82, 13251.92, 4234.52, -5999.63, 10645.53, 29232.30, 0.00, 0.000, 0.000, 0.000, 13:18:33.706
4, 0.00, 24986.30, 13254.90, 4052.77, -6366.87, 10649.35, 29212.90, 0.00, 0.000, 0.000, 0.000, 13:18:33.707
5, 0.00, 24981.45, 13247.95, 4051.99, -6631.63, 10643.90, 29206.29, 0.00, 0.000, 0.000, 0.000, 13:18:33.707
6, 0.00, 24972.35, 13240.57, 4232.62, -6448.23, 10639.85, 29221.71, 0.00, 0.000, 0.000, 0.000, 13:18:33.708
7, 0.00, 24967.32, 13235.07, 4356.85, -6020.33, 10638.83, 29232.64, 0.00, 0.000, 0.000, 0.000, 13:18:33.708
8, 0.00, 24976.20, 13244.39, 4234.25, -6001.67, 10643.59, 29227.21, 0.00, 0.000, 0.000, 0.000, 13:18:33.708
9, 0.00, 24986.25, 13255.10, 4060.60, -6361.95, 10648.88, 29212.14, 0.00, 0.000, 0.000, 0.000, 13:18:33.708
10, 0.00, 24984.53, 13254.43, 4058.81, -6632.12, 10646.85, 29206.93, 0.00, 0.000, 0.000, 0.000, 13:18:33.708
11, 0.00, 24971.21, 13240.37, 4234.72, -6454.11, 10637.37, 29218.45, 0.00, 0.038, -0.036, 0.998, 13:18:33.708
12, 0.00, 24966.09, 13233.77, 4355.53, -6027.42, 10635.32, 29232.28, 0.00, 0.000, 0.000, 0.000, 13:18:33.708
13, 0.00, 24975.46, 13243.90, 4236.48, -6002.02, 10642.87, 29229.06, 0.00, 0.000, 0.000, 0.000, 13:18:33.708
14, 0.00, 24986.57, 13254.20, 4061.36, -6359.41, 10649.85, 29213.21, 0.00, 0.000, 0.000, 0.000, 13:18:33.709
15, 0.00, 24983.26, 13253.65, 4058.27, -6629.19, 10647.54, 29207.61, 0.00, 0.000, 0.000, 0.000, 13:18:33.709
16, 0.00, 24970.09, 13242.09, 4236.46, -6454.04, 10637.96, 29219.29, 0.00, 0.000, 0.000, 0.000, 13:18:33.709
17, 0.00, 24966.05, 13236.50, 4359.60, -6025.83, 10638.09, 29233.31, 0.00, 0.000, 0.000, 0.000, 13:18:33.709
18, 0.00, 24974.36, 13243.25, 4238.76, -5995.88, 10643.03, 29228.21, 0.00, 0.000, 0.000, 0.000, 13:18:33.709
19, 0.00, 24983.79, 13252.62, 4058.94, -6356.95, 10647.57, 29211.79, 0.00, 0.000, 0.000, 0.000, 13:18:33.709
20, 0.00, 24982.90, 13254.96, 4052.53, -6636.55, 10646.49, 29207.09, 0.00, 0.000, 0.000, 0.000, 13:18:33.709
21, 0.00, 24970.85, 13243.39, 4232.84, -6459.74, 10636.35, 29217.89, 0.00, 0.034, -0.036, 1.002, 13:18:33.709
22, 0.00, 24965.85, 13234.56, 4360.00, -6030.52, 10633.42, 29231.39, 0.00, 0.000, 0.000, 0.000, 13:18:33.709
23, 0.00, 24974.94, 13244.28, 4240.89, -6001.82, 10643.16, 29228.44, 0.00, 0.000, 0.000, 0.000, 13:18:33.709
24, 0.00, 24982.30, 13253.49, 4064.51, -6358.09, 10645.76, 29209.66, 0.00, 0.000, 0.000, 0.000, 13:18:33.709
25, 0.00, 24980.82, 13252.66, 4054.27, -6638.20, 10642.56, 29203.78, 0.00, 0.000, 0.000, 0.000, 13:18:33.710
26, 0.00, 24969.11, 13238.47, 4226.29, -6473.15, 10634.24, 29215.49, 0.00, 0.000, 0.000, 0.000, 13:18:33.710
27, 0.00, 24964.91, 13234.80, 4356.09, -6034.50, 10634.36, 29229.89, 0.00, 0.000, 0.000, 0.000, 13:18:33.710
28, 0.00, 24973.18, 13243.92, 4237.89, -5999.05, 10640.41, 29223.77, 0.00, 0.000, 0.000, 0.000, 13:18:33.710
29, 0.00, 24981.72, 13253.94, 4060.33, -6351.92, 10645.02, 29206.69, 0.00, 0.000, 0.000, 0.000, 13:18:33.711
30, 0.00, 24978.77, 13251.37, 4047.21, -6635.47, 10641.89, 29200.94, 0.00, 0.000, 0.000, 0.000, 13:18:33.712
31, 0.00, 24966.52, 13238.89, 4220.81, -6471.48, 10633.86, 29212.97, 0.00, 0.032, -0.042, 1.000, 13:18:33.712
32, 0.00, 24962.40, 13234.22, 4352.87, -6036.94, 10631.41, 29227.32, 0.00, 0.000, 0.000, 0.000, 13:18:33.712
33, 0.00, 24972.31, 13243.94, 4235.57, -6001.69, 10637.73, 29222.85, 0.00, 0.000, 0.000, 0.000, 13:18:33.712
34, 0.00, 24981.96, 13254.14, 4055.41, -6358.00, 10644.33, 29206.58, 0.00, 0.000, 0.000, 0.000, 13:18:33.712
35, 0.00, 24977.36, 13250.92, 4042.36, -6641.82, 10638.42, 29198.51, 0.00, 0.000, 0.000, 0.000, 13:18:33.712
36, 0.00, 24965.13, 13239.79, 4216.63, -6479.03, 10631.47, 29211.94, 0.00, 0.000, 0.000, 0.000, 13:18:33.713
37, 0.00, 24960.57, 13233.80, 4348.62, -6042.73, 10632.03, 29226.27, 0.00, 0.000, 0.000, 0.000, 13:18:33.713
38, 0.00, 24970.65, 13245.35, 4237.94, -5998.16, 10639.68, 29222.31, 0.00, 0.000, 0.000, 0.000, 13:18:33.713
39, 0.00, 24980.22, 13254.61, 4060.86, -6348.66, 10643.95, 29206.00, 0.00, 0.000, 0.000, 0.000, 13:18:33.713
40, 0.00, 24976.58, 13254.27, 4049.02, -6635.14, 10639.25, 29198.51, 0.00, 0.000, 0.000, 0.000, 13:18:33.713
41, 0.00, 24965.24, 13241.20, 4219.47, -6477.20, 10632.41, 29211.49, 0.00, 0.030, -0.040, 0.992, 13:18:33.713
42, 0.00, 24960.17, 13233.57, 4349.27, -6044.87, 10630.00, 29224.70, 0.00, 0.000, 0.000, 0.000, 13:18:33.713
43, 0.00, 24971.30, 13245.22, 4236.08, -6001.26, 10639.05, 29222.87, 0.00, 0.000, 0.000, 0.000, 13:18:33.714
44, 0.00, 24983.04, 13256.30, 4055.01, -6357.37, 10645.02, 29208.59, 0.00, 0.000, 0.000, 0.000, 13:18:33.714
45, 0.00, 24979.68, 13253.15, 4044.53, -6638.78, 10639.83, 29201.30, 0.00, 0.000, 0.000, 0.000, 13:18:33.714
46, 0.00, 24967.79, 13240.86, 4217.82, -6479.75, 10632.99, 29214.58, 0.00, 0.000, 0.000, 0.000, 13:18:33.714
47, 0.00, 24962.29, 13235.38, 4355.01, -6044.52, 10632.68, 29227.83, 0.00, 0.000, 0.000, 0.000, 13:18:33.714
48, 0.00, 24971.95, 13243.23, 4242.63, -5994.29, 10638.85, 29224.10, 0.00, 0.000, 0.000, 0.000, 13:18:33.714
49, 0.00, 24982.19, 13254.85, 4062.38, -6343.45, 10645.51, 29209.04, 0.00, 0.000, 0.000, 0.000, 13:18:33.714
50, 0.00, 24977.69, 13253.31, 4043.34, -6636.12, 10642.11, 29201.08, 0.00, 0.000, 0.000, 0.000, 13:18:33.714
51, 0.00, 24967.72, 13244.06, 4217.19, -6481.89, 10637.17, 29216.10, 0.00, 0.038, -0.036, 0.990, 13:18:33.715
52, 0.00, 24963.75, 13236.55, 4352.11, -6046.50, 10634.56, 29230.34, 0.00, 0.000, 0.000, 0.000, 13:18:33.715
53, 0.00, 24972.73, 13245.22, 4240.53, -5993.28, 10640.17, 29225.26, 0.00, 0.000, 0.000, 0.000, 13:18:33.715
54, 0.00, 24982.99, 13257.60, 4061.38, -6345.24, 10645.20, 29210.02, 0.00, 0.000, 0.000, 0.000, 13:18:33.715
55, 0.00, 24980.78, 13257.71, 4047.81, -6632.81, 10642.07, 29204.59, 0.00, 0.000, 0.000, 0.000, 13:18:33.715
56, 0.00, 24967.57, 13240.70, 4217.01, -6481.13, 10632.70, 29216.61, 0.00, 0.000, 0.000, 0.000, 13:18:33.715
57, 0.00, 24962.09, 13231.72, 4348.11, -6049.07, 10633.64, 29228.71, 0.00, 0.000, 0.000, 0.000, 13:18:33.716
58, 0.00, 24970.56, 13242.13, 4238.61, -5996.08, 10639.43, 29223.21, 0.00, 0.000, 0.000, 0.000, 13:18:33.716
