%OpenBCI Raw EEG Data
%
%Sample Rate = 250.0 Hz
%First Column = SampleIndex
%Last Column = Timestamp 
%Other Columns = EEG data in microvolts followed by Accel Data (in G) interleaved with Aux Data
0, 0.00, 0.00, 0.00, 0.00, 0.00, 0.00, 0.00, 0.00, 0.000, 0.000, 0.000, 13:11:34.286
1, 0.00, 28984.29, 16518.92, 10284.84, -1637.98, 15051.51, 33339.13, 0.00, 0.034, -0.036, 1.000, 13:11:34.766
2, 0.00, 28985.00, 16515.99, 10226.68, -1702.98, 15050.88, 33316.97, 0.00, 0.000, 0.000, 0.000, 13:11:34.766
3, 0.00, 28983.71, 16517.96, 10223.78, -1816.12, 15046.17, 33306.29, 0.00, 0.000, 0.000, 0.000, 13:11:34.766
4, 0.00, 28977.45, 16512.33, 10268.17, -1842.32, 15038.81, 33315.79, 0.00, 0.000, 0.000, 0.000, 13:11:34.766
5, 0.00, 28975.88, 16509.51, 10312.02, -1708.14, 15039.66, 33334.18, 0.00, 0.000, 0.000, 0.000, 13:11:34.766
6, 0.00, 28979.64, 16516.51, 10281.00, -1644.82, 15046.97, 33332.71, 0.00, 0.000, 0.000, 0.000, 13:11:34.767
7, 0.00, 28980.11, 16517.49, 10224.49, -1710.24, 15045.14, 33310.34, 0.00, 0.000, 0.000, 0.000, 13:11:34.767
8, 0.00, 28982.14, 16520.08, 10222.01, -1821.91, 15043.68, 33303.34, 0.00, 0.032, -0.028, 0.998, 13:11:34.767
9, 0.00, 28977.87, 16513.42, 10265.51, -1844.53, 15037.38, 33313.73, 0.00, 0.000, 0.000, 0.000, 13:11:34.767
10, 0.00, 28974.83, 16508.80, 10308.56, -1709.84, 15037.72, 33330.70, 0.00, 0.000, 0.000, 0.000, 13:11:34.767
11, 0.00, 28983.13, 16519.35, 10280.71, -1642.50, 15048.85, 33334.99, 0.00, 0.000, 0.000, 0.000, 13:11:34.768
12, 0.00, 28986.30, 16521.56, 10228.63, -1705.64, 15051.53, 33316.53, 0.00, 0.000, 0.000, 0.000, 13:11:34.768
13, 0.00, 28982.39, 16514.38, 10219.02, -1824.10, 15040.73, 33302.11, 0.00, 0.000, 0.000, 0.000, 13:11:34.768
14, 0.00, 28976.53, 16507.25, 10262.58, -1845.38, 15033.74, 33312.73, 0.00, 0.000, 0.000, 0.000, 13:11:34.768
15, 0.00, 28976.15, 16508.13, 10312.22, -1709.66, 15038.61, 33333.49, 0.00, 0.000, 0.000, 0.000, 13:11:34.768
16, 0.00, 28979.33, 16512.19, 10281.98, -1647.77, 15044.13, 33332.06, 0.00, 0.000, 0.000, 0.000, 13:11:34.768
17, 0.00, 28984.91, 16517.63, 10229.70, -1712.68, 15046.99, 33314.34, 0.00, 0.000, 0.000, 0.000, 13:11:34.769
18, 0.00, 28982.63, 16517.47, 10223.98, -1828.06, 15040.15, 33302.29, 0.00, 0.032, -0.026, 0.994, 13:11:34.769
19, 0.00, 28976.20, 16510.52, 10268.30, -1848.80, 15033.42, 33312.84, 0.00, 0.000, 0.000, 0.000, 13:11:34.769
20, 0.00, 28976.11, 16510.88, 10313.94, -1707.52, 15036.20, 33332.13, 0.00, 0.000, 0.000, 0.000, 13:11:34.769
21, 0.00, 28981.47, 16517.29, 10281.98, -1646.30, 15045.36, 33334.00, 0.00, 0.000, 0.000, 0.000, 13:11:34.769
22, 0.00, 28985.47, 16524.04, 10230.84, -1711.65, 15050.12, 33317.09, 0.00, 0.000, 0.000, 0.000, 13:11:34.769
23, 0.00, 28981.36, 16521.85, 10223.49, -1827.41, 15042.68, 33302.55, 0.00, 0.000, 0.000, 0.000, 13:11:34.770
24, 0.00, 28976.98, 16517.69, 10270.83, -1842.45, 15037.31, 33312.66, 0.00, 0.000, 0.000, 0.000, 13:11:34.770
25, 0.00, 28973.47, 16510.36, 10311.37, -1707.76, 15036.08, 33329.02, 0.00, 0.000, 0.000, 0.000, 13:11:34.770
26, 0.00, 28979.06, 16517.54, 10281.69, -1644.91, 15044.09, 33330.00, 0.00, 0.000, 0.000, 0.000, 13:11:34.770
27, 0.00, 28983.82, 16522.70, 10229.95, -1711.61, 15047.10, 33311.14, 0.00, 0.000, 0.000, 0.000, 13:11:34.770
28, 0.00, 28982.86, 16522.32, 10222.79, -1828.37, 15041.99, 33300.61, 0.00, 0.032, -0.028, 0.994, 13:11:34.771
29, 0.00, 28977.09, 16515.01, 10266.29, -1846.12, 15034.72, 33312.99, 0.00, 0.000, 0.000, 0.000, 13:11:34.771
30, 0.00, 28970.97, 16508.66, 10306.30, -1708.70, 15033.29, 33327.14, 0.00, 0.000, 0.000, 0.000, 13:11:34.771
31, 0.00, 28974.14, 16515.99, 10274.31, -1648.58, 15044.02, 33325.02, 0.00, 0.000, 0.000, 0.000, 13:11:34.771
32, 0.00, 28981.00, 16522.88, 10223.69, -1713.84, 15048.78, 33309.66, 0.00, 0.000, 0.000, 0.000, 13:11:34.771
33, 0.00, 28978.57, 16519.46, 10218.46, -1829.15, 15039.95, 33298.18, 0.00, 0.000, 0.000, 0.000, 13:11:34.772
34, 0.00, 28974.50, 16514.18, 10264.23, -1845.90, 15034.79, 33311.54, 0.00, 0.000, 0.000, 0.000, 13:11:34.772
35, 0.00, 28975.66, 16515.64, 10309.45, -1709.73, 15039.17, 33331.73, 0.00, 0.000, 0.000, 0.000, 13:11:34.772
36, 0.00, 28980.67, 16521.02, 10276.30, -1650.14, 15043.24, 33330.07, 0.00, 0.000, 0.000, 0.000, 13:11:34.772
37, 0.00, 28984.82, 16520.87, 10221.85, -1717.37, 15044.20, 33311.59, 0.00, 0.000, 0.000, 0.000, 13:11:34.772
38, 0.00, 28979.21, 16517.65, 10215.95, -1833.13, 15039.15, 33298.13, 0.00, 0.030, -0.026, 0.990, 13:11:34.773
39, 0.00, 28970.61, 16512.39, 10262.74, -1847.91, 15033.74, 33307.81, 0.00, 0.000, 0.000, 0.000, 13:11:34.773
40, 0.00, 28970.05, 16515.81, 10310.68, -1708.99, 15037.43, 33328.28, 0.00, 0.000, 0.000, 0.000, 13:11:34.773
41, 0.00, 28974.74, 16520.24, 10278.02, -1647.73, 15044.29, 33329.11, 0.00, 0.000, 0.000, 0.000, 13:11:34.773
42, 0.00, 28978.59, 16523.10, 10225.95, -1714.60, 15047.60, 33310.20, 0.00, 0.000, 0.000, 0.000, 13:11:34.773
43, 0.00, 28974.10, 16518.01, 10218.28, -1831.95, 15038.14, 33296.01, 0.00, 0.000, 0.000, 0.000, 13:11:34.773
44, 0.00, 28972.53, 16517.47, 10265.93, -1850.17, 15035.84, 33309.24, 0.00, 0.000, 0.000, 0.000, 13:11:34.774
45, 0.00, 28969.71, 16514.14, 10307.71, -1710.02, 15037.16, 33326.76, 0.00, 0.000, 0.000, 0.000, 13:11:34.774
46, 0.00, 28972.73, 16516.78, 10270.49, -1652.31, 15043.48, 33326.09, 0.00, 0.000, 0.000, 0.000, 13:11:34.774
47, 0.00, 28977.45, 16525.94, 10221.94, -1721.15, 15048.36, 33310.27, 0.00, 0.000, 0.000, 0.000, 13:11:34.774
48, 0.00, 28973.07, 16525.34, 10222.64, -1834.05, 15040.06, 33298.84, 0.00, 0.032, -0.028, 0.994, 13:11:34.774
49, 0.00, 28967.77, 16520.24, 10268.82, -1848.09, 15034.41, 33309.86, 0.00, 0.000, 0.000, 0.000, 13:11:34.775
50, 0.00, 28967.14, 16512.80, 10306.68, -1710.42, 15035.88, 33328.21, 0.00, 0.000, 0.000, 0.000, 13:11:34.775
51, 0.00, 28973.29, 16518.83, 10271.65, -1652.38, 15042.30, 33328.19, 0.00, 0.000, 0.000, 0.000, 13:11:34.775
52, 0.00, 28975.08, 16521.94, 10219.40, -1720.88, 15045.52, 33308.10, 0.00, 0.000, 0.000, 0.000, 13:11:34.775
53, 0.00, 28973.69, 16520.75, 10216.24, -1836.11, 15038.34, 33298.69, 0.00, 0.000, 0.000, 0.000, 13:11:34.775
54, 0.00, 28969.18, 16518.30, 10266.09, -1850.64, 15031.61, 33310.20, 0.00, 0.000, 0.000, 0.000, 13:11:34.776
55, 0.00, 28966.38, 16514.99, 10306.43, -1711.50, 15035.75, 33327.28, 0.00, 0.000, 0.000, 0.000, 13:11:34.776
56, 0.00, 28969.96, 16517.85, 10267.74, -1655.79, 15042.48, 33326.16, 0.00, 0.000, 0.000, 0.000, 13:11:34.776
57, 0.00, 28970.70, 16521.54, 10215.75, -1729.62, 15042.21, 33305.93, 0.00, 0.000, 0.000, 0.000, 13:11:34.776
58, 0.00, 28968.89, 16519.99, 10214.97, -1841.25, 15035.24, 33295.11, 0.00, 0.034, -0.030, 0.998, 13:11:34.776
59, 0.00, 28966.99, 16518.38, 10267.50, -1848.56, 15031.79, 33309.77, 0.00, 0.000, 0.000, 0.000, 13:11:34.777
60, 0.00, 28968.66, 16518.52, 10308.38, -1709.42, 15038.88, 33330.23, 0.00, 0.000, 0.000, 0.000, 13:11:34.777
61, 0.00, 28973.20, 16521.04, 10272.62, -1655.01, 15044.06, 33327.61, 0.00, 0.000, 0.000, 0.000, 13:11:34.777
62, 0.00, 28975.77, 16525.22, 10223.35, -1726.81, 15043.64, 33307.32, 0.00, 0.000, 0.000, 0.000, 13:11:34.777
63, 0.00, 28972.29, 16523.33, 10223.87, -1838.19, 15035.48, 33295.11, 0.00, 0.000, 0.000, 0.000, 13:11:34.777
64, 0.00, 28968.33, 16519.30, 10273.93, -1847.95, 15033.40, 33309.64, 0.00, 0.000, 0.000, 0.000, 13:11:34.778
65, 0.00, 28968.02, 16517.00, 10314.99, -1706.71, 15037.20, 33329.69, 0.00, 0.000, 0.000, 0.000, 13:11:34.778
66, 0.00, 28973.63, 16522.59, 10275.61, -1656.47, 15045.50, 33328.13, 0.00, 0.000, 0.000, 0.000, 13:11:34.778
67, 0.00, 28976.09, 16528.11, 10224.96, -1727.66, 15045.94, 33308.55, 0.00, 0.000, 0.000, 0.000, 13:11:34.778
68, 0.00, 28971.46, 16522.61, 10220.76, -1840.87, 15036.71, 33294.78, 0.00, 0.034, -0.032, 0.994, 13:11:34.779
69, 0.00, 28965.15, 16518.12, 10268.48, -1853.88, 15029.74, 33306.63, 0.00, 0.000, 0.000, 0.000, 13:11:34.779
70, 0.00, 28965.94, 16518.97, 10311.49, -1711.85, 15034.88, 33327.75, 0.00, 0.000, 0.000, 0.000, 13:11:34.779
71, 0.00, 28972.58, 16526.12, 10275.79, -1655.50, 15044.56, 33327.90, 0.00, 0.000, 0.000, 0.000, 13:11:34.779
72, 0.00, 28975.37, 16530.48, 10223.33, -1728.04, 15045.90, 33308.97, 0.00, 0.000, 0.000, 0.000, 13:11:34.779
73, 0.00, 28971.71, 16526.37, 10221.70, -1841.02, 15037.92, 33296.81, 0.00, 0.000, 0.000, 0.000, 13:11:34.780
74, 0.00, 28965.94, 16517.96, 10266.98, -1851.01, 15030.27, 33308.08, 0.00, 0.000, 0.000, 0.000, 13:11:34.780
75, 0.00, 28966.16, 16517.36, 10307.08, -1711.52, 15037.72, 33327.90, 0.00, 0.000, 0.000, 0.000, 13:11:34.783
76, 0.00, 28970.72, 16523.13, 10271.63, -1658.52, 15045.61, 33326.29, 0.00, 0.000, 0.000, 0.000, 13:11:34.783
77, 0.00, 28973.65, 16524.22, 10216.58, -1730.56, 15046.01, 33306.42, 0.00, 0.000, 0.000, 0.000, 13:11:34.783
78, 0.00, 28971.95, 16522.52, 10213.83, -1845.00, 15038.57, 33295.96, 0.00, 0.036, -0.030, 0.998, 13:11:34.783
79, 0.00, 28965.47, 16516.57, 10263.56, -1853.61, 15031.82, 33308.97, 0.00, 0.000, 0.000, 0.000, 13:11:34.783
80, 0.00, 28963.10, 16516.46, 10307.10, -1714.02, 15034.36, 33327.03, 0.00, 0.000, 0.000, 0.000, 13:11:34.783
81, 0.00, 28969.25, 16524.60, 10270.60, -1663.26, 15043.08, 33325.54, 0.00, 0.000, 0.000, 0.000, 13:11:34.783
82, 0.00, 28973.63, 16526.10, 10217.67, -1735.12, 15043.89, 33306.09, 0.00, 0.000, 0.000, 0.000, 13:11:34.784
83, 0.00, 28972.42, 16523.39, 10216.11, -1845.85, 15035.97, 33297.01, 0.00, 0.000, 0.000, 0.000, 13:11:34.784
84, 0.00, 28967.81, 16520.75, 10265.44, -1853.27, 15030.63, 33309.95, 0.00, 0.000, 0.000, 0.000, 13:11:34.784
85, 0.00, 28966.14, 16520.08, 10305.92, -1711.94, 15034.25, 33328.44, 0.00, 0.000, 0.000, 0.000, 13:11:34.784
86, 0.00, 28970.34, 16524.82, 10270.11, -1657.96, 15045.16, 33326.09, 0.00, 0.000, 0.000, 0.000, 13:11:34.784
87, 0.00, 28972.22, 16529.79, 10217.97, -1734.52, 15044.87, 33305.68, 0.00, 0.000, 0.000, 0.000, 13:11:34.784
88, 0.00, 28968.04, 16521.54, 10213.99, -1847.80, 15034.36, 33293.68, 0.00, 0.034, -0.026, 0.990, 13:11:34.785
89, 0.00, 28964.60, 16517.56, 10263.63, -1854.73, 15029.40, 33308.08, 0.00, 0.000, 0.000, 0.000, 13:11:34.785
90, 0.00, 28962.63, 16515.41, 10300.20, -1717.49, 15032.75, 33325.54, 0.00, 0.000, 0.000, 0.000, 13:11:34.785
91, 0.00, 28968.87, 16522.10, 10264.43, -1664.51, 15040.60, 33323.57, 0.00, 0.000, 0.000, 0.000, 13:11:34.786
92, 0.00, 28974.48, 16526.99, 10215.06, -1739.14, 15042.63, 33306.20, 0.00, 0.000, 0.000, 0.000, 13:11:34.786
93, 0.00, 28967.05, 16520.40, 10211.68, -1853.27, 15031.77, 33292.63, 0.00, 0.000, 0.000, 0.000, 13:11:34.786
94, 0.00, 28962.00, 16517.83, 10266.31, -1857.23, 15026.09, 33306.07, 0.00, 0.000, 0.000, 0.000, 13:11:34.786
95, 0.00, 28964.64, 16520.69, 10308.67, -1717.20, 15033.83, 33326.43, 0.00, 0.000, 0.000, 0.000, 13:11:34.787
96, 0.00, 28968.62, 16524.91, 10270.51, -1662.88, 15039.84, 33322.94, 0.00, 0.000, 0.000, 0.000, 13:11:34.787
97, 0.00, 28972.67, 16527.39, 10217.61, -1738.83, 15042.01, 33303.61, 0.00, 0.000, 0.000, 0.000, 13:11:34.787
98, 0.00, 28967.05, 16522.61, 10216.18, -1852.31, 15034.57, 33291.54, 0.00, 0.036, -0.032, 0.992, 13:11:34.787
99, 0.00, 28964.71, 16519.77, 10267.45, -1856.89, 15028.98, 33307.68, 0.00, 0.000, 0.000, 0.000, 13:11:34.787
100, 0.00, 28965.89, 16515.26, 10303.44, -1718.31, 15031.57, 33326.85, 0.00, 0.000, 0.000, 0.000, 13:11:34.788
101, 0.00, 28969.40, 16520.64, 10264.17, -1667.19, 15041.36, 33321.38, 0.00, 0.000, 0.000, 0.000, 13:11:34.788
102, 0.00, 28971.73, 16525.09, 10215.44, -1740.37, 15042.79, 33301.73, 0.00, 0.000, 0.000, 0.000, 13:11:34.788
103, 0.00, 28972.96, 16524.89, 10217.00, -1851.26, 15036.71, 33294.78, 0.00, 0.000, 0.000, 0.000, 13:11:34.788
104, 0.00, 28967.99, 16520.20, 10268.06, -1853.56, 15030.79, 33308.12, 0.00, 0.000, 0.000, 0.000, 13:11:34.788
105, 0.00, 28963.14, 16514.45, 10302.72, -1714.62, 15031.08, 33323.07, 0.00, 0.000, 0.000, 0.000, 13:11:34.789
106, 0.00, 28966.50, 16520.71, 10263.41, -1667.24, 15039.33, 33319.57, 0.00, 0.000, 0.000, 0.000, 13:11:34.789
107, 0.00, 28968.46, 16527.35, 10214.95, -1743.28, 15040.56, 33301.26, 0.00, 0.000, 0.000, 0.000, 13:11:34.789
108, 0.00, 28965.31, 16524.78, 10216.62, -1854.48, 15034.90, 33290.55, 0.00, 0.034, -0.030, 0.994, 13:11:34.789
109, 0.00, 28961.67, 16518.25, 10263.05, -1860.87, 15029.74, 33304.21, 0.00, 0.000, 0.000, 0.000, 13:11:34.789
110, 0.00, 28961.69, 16518.10, 10300.67, -1716.41, 15035.37, 33324.13, 0.00, 0.000, 0.000, 0.000, 13:11:34.790
111, 0.00, 28966.09, 16523.33, 10260.30, -1667.55, 15042.32, 33321.46, 0.00, 0.000, 0.000, 0.000, 13:11:34.790
112, 0.00, 28970.27, 16530.34, 10212.18, -1743.93, 15043.77, 33302.33, 0.00, 0.000, 0.000, 0.000, 13:11:34.790
113, 0.00, 28966.76, 16528.53, 10216.56, -1852.76, 15034.88, 33291.87, 0.00, 0.000, 0.000, 0.000, 13:11:34.790
114, 0.00, 28960.64, 16523.88, 10266.11, -1857.41, 15028.42, 33303.41, 0.00, 0.000, 0.000, 0.000, 13:11:34.790
115, 0.00, 28962.34, 16526.30, 10303.06, -1716.26, 15035.88, 33323.88, 0.00, 0.000, 0.000, 0.000, 13:11:34.791
116, 0.00, 28968.11, 16531.82, 10265.17, -1665.36, 15044.47, 33322.14, 0.00, 0.000, 0.000, 0.000, 13:11:34.791
117, 0.00, 28968.82, 16531.57, 10216.45, -1743.37, 15043.73, 33300.21, 0.00, 0.000, 0.000, 0.000, 13:11:34.791
118, 0.00, 28967.30, 16528.85, 10220.96, -1851.60, 15035.75, 33291.56, 0.00, 0.032, -0.034, 0.998, 13:11:34.791
119, 0.00, 28963.28, 16524.60, 10271.36, -1853.14, 15028.93, 33305.95, 0.00, 0.000, 0.000, 0.000, 13:11:34.791
120, 0.00, 28961.94, 16521.43, 10306.34, -1713.37, 15032.75, 33322.85, 0.00, 0.000, 0.000, 0.000, 13:11:34.792
121, 0.00, 28968.11, 16527.97, 10266.74, -1666.90, 15043.04, 33321.33, 0.00, 0.000, 0.000, 0.000, 13:11:35.246
122, 0.00, 28970.07, 16532.04, 10218.21, -1742.99, 15043.71, 33299.92, 0.00, 0.000, 0.000, 0.000, 13:11:35.246
123, 0.00, 28966.14, 16528.98, 10220.29, -1852.78, 15036.20, 33290.22, 0.00, 0.000, 0.000, 0.000, 13:11:35.247
124, 0.00, 28963.28, 16527.08, 10275.30, -1848.24, 15033.76, 33306.18, 0.00, 0.000, 0.000, 0.000, 13:11:35.247
125, 0.00, 28963.37, 16524.85, 10310.81, -1708.16, 15036.35, 33324.86, 0.00, 0.000, 0.000, 0.000, 13:11:35.247
126, 0.00, 28967.32, 16529.74, 10265.40, -1670.37, 15041.11, 33320.93, 0.00, 0.000, 0.000, 0.000, 13:11:35.247
127, 0.00, 28969.83, 16532.54, 10214.03, -1749.87, 15041.43, 33298.55, 0.00, 0.000, 0.000, 0.000, 13:11:35.247
128, 0.00, 28966.88, 16530.41, 10218.84, -1855.13, 15035.50, 33289.86, 0.00, 0.030, -0.032, 1.004, 13:11:35.248
129, 0.00, 28963.12, 16526.79, 10269.02, -1852.40, 15030.30, 33305.55, 0.00, 0.000, 0.000, 0.000, 13:11:35.248
130, 0.00, 28963.34, 16530.19, 10311.40, -1709.22, 15034.90, 33324.44, 0.00, 0.000, 0.000, 0.000, 13:11:35.248
131, 0.00, 28969.74, 16530.63, 10267.16, -1667.51, 15040.71, 33320.13, 0.00, 0.000, 0.000, 0.000, 13:11:35.249
132, 0.00, 28970.83, 16531.82, 10214.95, -1749.23, 15041.92, 33298.82, 0.00, 0.000, 0.000, 0.000, 13:11:35.249
133, 0.00, 28968.40, 16530.54, 10220.83, -1854.88, 15036.87, 33291.56, 0.00, 0.000, 0.000, 0.000, 13:11:35.249
134, 0.00, 28965.24, 16526.70, 10271.50, -1849.92, 15034.25, 33308.57, 0.00, 0.000, 0.000, 0.000, 13:11:35.249
135, 0.00, 28964.93, 16525.25, 10305.50, -1709.28, 15038.57, 33327.14, 0.00, 0.000, 0.000, 0.000, 13:11:35.249
136, 0.00, 28969.47, 16530.39, 10261.24, -1669.27, 15044.65, 33322.98, 0.00, 0.000, 0.000, 0.000, 13:11:35.249
137, 0.00, 28970.94, 16536.13, 10214.21, -1750.25, 15043.71, 33301.89, 0.00, 0.034, -0.030, 0.998, 13:11:35.250
138, 0.00, 28968.04, 16534.23, 10222.93, -1854.28, 15036.04, 33292.72, 0.00, 0.000, 0.000, 0.000, 13:11:35.250
139, 0.00, 28962.67, 16526.99, 10273.58, -1849.45, 15028.96, 33306.02, 0.00, 0.000, 0.000, 0.000, 13:11:35.250
140, 0.00, 28963.37, 16525.92, 10306.52, -1712.95, 15032.20, 33324.35, 0.00, 0.000, 0.000, 0.000, 13:11:35.250
141, 0.00, 28969.27, 16536.00, 10263.76, -1673.18, 15042.19, 33323.72, 0.00, 0.000, 0.000, 0.000, 13:11:35.250
142, 0.00, 28969.34, 16537.70, 10213.83, -1751.15, 15040.60, 33302.13, 0.00, 0.000, 0.000, 0.000, 13:11:35.251
143, 0.00, 28968.44, 16536.74, 10221.18, -1854.86, 15036.53, 33295.85, 0.00, 0.000, 0.000, 0.000, 13:11:35.251
144, 0.00, 28963.70, 16527.62, 10271.90, -1848.15, 15030.88, 33308.61, 0.00, 0.000, 0.000, 0.000, 13:11:35.251
145, 0.00, 28963.86, 16525.83, 10303.48, -1709.22, 15032.98, 33326.34, 0.00, 0.000, 0.000, 0.000, 13:11:35.251
146, 0.00, 28967.90, 16529.58, 10258.47, -1671.20, 15041.36, 33322.29, 0.00, 0.000, 0.000, 0.000, 13:11:35.251
147, 0.00, 28971.53, 16534.23, 10210.90, -1752.22, 15043.01, 33305.68, 0.00, 0.036, -0.030, 0.994, 13:11:35.251
148, 0.00, 28969.56, 16531.15, 10215.51, -1858.35, 15035.53, 33296.14, 0.00, 0.000, 0.000, 0.000, 13:11:35.252
149, 0.00, 28965.36, 16529.70, 10271.77, -1852.42, 15028.49, 33308.93, 0.00, 0.000, 0.000, 0.000, 13:11:35.252
150, 0.00, 28967.37, 16529.74, 10309.67, -1708.81, 15034.77, 33329.04, 0.00, 0.000, 0.000, 0.000, 13:11:35.252
151, 0.00, 28971.57, 16533.00, 10263.56, -1671.22, 15041.85, 33325.51, 0.00, 0.000, 0.000, 0.000, 13:11:35.252
152, 0.00, 28975.82, 16539.60, 10213.99, -1752.18, 15044.27, 33306.56, 0.00, 0.000, 0.000, 0.000, 13:11:35.253
153, 0.00, 28972.31, 16537.41, 10222.37, -1853.59, 15036.78, 33297.48, 0.00, 0.000, 0.000, 0.000, 13:11:35.253
154, 0.00, 28965.00, 16529.29, 10272.46, -1847.89, 15029.25, 33309.30, 0.00, 0.000, 0.000, 0.000, 13:11:35.253
155, 0.00, 28963.77, 16527.17, 10304.94, -1709.33, 15032.02, 33325.27, 0.00, 0.000, 0.000, 0.000, 13:11:35.253
156, 0.00, 28968.57, 16534.68, 10261.42, -1673.23, 15036.76, 33321.29, 0.00, 0.000, 0.000, 0.000, 13:11:35.253
157, 0.00, 28970.45, 16539.84, 10212.67, -1754.03, 15039.75, 33301.84, 0.00, 0.040, -0.032, 0.990, 13:11:35.253
158, 0.00, 28967.39, 16533.74, 10215.82, -1859.82, 15032.20, 33292.25, 0.00, 0.000, 0.000, 0.000, 13:11:35.254
159, 0.00, 28965.09, 16531.86, 10271.92, -1847.53, 15028.33, 33309.80, 0.00, 0.000, 0.000, 0.000, 13:11:35.254
160, 0.00, 28962.45, 16528.40, 10303.24, -1709.48, 15031.57, 33324.64, 0.00, 0.000, 0.000, 0.000, 13:11:35.254
161, 0.00, 28970.38, 16536.11, 10260.95, -1672.45, 15040.29, 33322.85, 0.00, 0.000, 0.000, 0.000, 13:11:35.254
162, 0.00, 28971.82, 16537.41, 10212.42, -1754.75, 15037.25, 33302.73, 0.00, 0.000, 0.000, 0.000, 13:11:35.254
163, 0.00, 28968.26, 16533.72, 10218.70, -1862.32, 15029.51, 33294.02, 0.00, 0.000, 0.000, 0.000, 13:11:35.255
164, 0.00, 28961.80, 16527.84, 10272.15, -1850.26, 15023.79, 33307.09, 0.00, 0.000, 0.000, 0.000, 13:11:35.255
165, 0.00, 28963.81, 16528.94, 10304.09, -1712.97, 15029.07, 33326.52, 0.00, 0.000, 0.000, 0.000, 13:11:35.255
166, 0.00, 28969.74, 16534.08, 10259.03, -1678.24, 15035.48, 33322.18, 0.00, 0.000, 0.000, 0.000, 13:11:35.255
167, 0.00, 28970.52, 16535.55, 10207.77, -1763.22, 15035.79, 33300.84, 0.00, 0.040, -0.034, 0.988, 13:11:35.255
168, 0.00, 28966.54, 16533.45, 10217.09, -1864.20, 15029.78, 33292.12, 0.00, 0.000, 0.000, 0.000, 13:11:35.256
169, 0.00, 28960.19, 16525.11, 10263.65, -1855.13, 15024.15, 33304.81, 0.00, 0.000, 0.000, 0.000, 13:11:35.256
170, 0.00, 28961.91, 16528.67, 10302.68, -1710.60, 15031.23, 33322.67, 0.00, 0.000, 0.000, 0.000, 13:11:35.256
171, 0.00, 28964.69, 16532.78, 10258.82, -1676.76, 15036.31, 33316.41, 0.00, 0.000, 0.000, 0.000, 13:11:35.256
172, 0.00, 28971.73, 16540.04, 10213.94, -1757.79, 15039.84, 33300.77, 0.00, 0.000, 0.000, 0.000, 13:11:35.256
173, 0.00, 28968.33, 16538.01, 10223.38, -1860.78, 15033.80, 33292.83, 0.00, 0.000, 0.000, 0.000, 13:11:35.257
174, 0.00, 28961.76, 16526.30, 10273.00, -1852.76, 15027.17, 33306.76, 0.00, 0.000, 0.000, 0.000, 13:11:35.257
175, 0.00, 28962.21, 16526.54, 10304.29, -1715.30, 15031.19, 33324.59, 0.00, 0.000, 0.000, 0.000, 13:11:35.257
176, 0.00, 28965.36, 16533.03, 10262.11, -1675.29, 15039.79, 33318.71, 0.00, 0.000, 0.000, 0.000, 13:11:35.258
177, 0.00, 28968.49, 16536.54, 10212.58, -1759.26, 15041.18, 33298.98, 0.00, 0.032, -0.036, 0.992, 13:11:35.258
178, 0.00, 28965.60, 16534.99, 10221.14, -1863.08, 15034.92, 33291.43, 0.00, 0.000, 0.000, 0.000, 13:11:35.258
179, 0.00, 28962.65, 16532.20, 10273.38, -1850.32, 15032.35, 33308.25, 0.00, 0.000, 0.000, 0.000, 13:11:35.258
180, 0.00, 28960.84, 16527.64, 10301.47, -1709.86, 15033.36, 33323.01, 0.00, 0.000, 0.000, 0.000, 13:11:35.258
181, 0.00, 28964.60, 16532.13, 10257.19, -1673.50, 15036.87, 33316.68, 0.00, 0.000, 0.000, 0.000, 13:11:35.258
182, 0.00, 28968.35, 16537.74, 10209.72, -1759.80, 15038.95, 33298.84, 0.00, 0.000, 0.000, 0.000, 13:11:35.259
183, 0.00, 28966.63, 16535.73, 10217.56, -1864.36, 15032.15, 33291.94, 0.00, 0.000, 0.000, 0.000, 13:11:35.259
184, 0.00, 28957.64, 16528.13, 10266.92, -1853.00, 15024.31, 33301.71, 0.00, 0.000, 0.000, 0.000, 13:11:35.259
185, 0.00, 28958.56, 16530.50, 10301.34, -1713.44, 15028.66, 33321.13, 0.00, 0.000, 0.000, 0.000, 13:11:35.259
186, 0.00, 28965.78, 16538.17, 10257.39, -1678.71, 15036.35, 33318.71, 0.00, 0.000, 0.000, 0.000, 13:11:35.259
187, 0.00, 28967.39, 16536.63, 10207.01, -1764.87, 15037.14, 33297.82, 0.00, 0.026, -0.030, 0.990, 13:11:35.259
188, 0.00, 28963.30, 16534.10, 10217.56, -1866.39, 15029.18, 33289.55, 0.00, 0.000, 0.000, 0.000, 13:11:35.260
189, 0.00, 28957.94, 16529.70, 10270.04, -1852.11, 15025.24, 33304.10, 0.00, 0.000, 0.000, 0.000, 13:11:35.260
190, 0.00, 28957.31, 16529.49, 10303.24, -1710.58, 15030.39, 33320.66, 0.00, 0.000, 0.000, 0.000, 13:11:35.260
191, 0.00, 28963.30, 16535.33, 10257.01, -1676.51, 15039.24, 33317.24, 0.00, 0.000, 0.000, 0.000, 13:11:35.260
192, 0.00, 28968.04, 16541.47, 10212.62, -1760.07, 15041.16, 33299.54, 0.00, 0.000, 0.000, 0.000, 13:11:35.260
193, 0.00, 28963.17, 16537.00, 10219.37, -1867.31, 15030.92, 33289.37, 0.00, 0.000, 0.000, 0.000, 13:11:35.261
194, 0.00, 28959.50, 16534.55, 10274.22, -1851.66, 15028.26, 33305.98, 0.00, 0.000, 0.000, 0.000, 13:11:35.261
195, 0.00, 28958.88, 16532.00, 10302.39, -1710.78, 15032.46, 33322.20, 0.00, 0.000, 0.000, 0.000, 13:11:35.261
196, 0.00, 28964.08, 16537.52, 10256.30, -1678.88, 15037.58, 33316.19, 0.00, 0.000, 0.000, 0.000, 13:11:35.261
197, 0.00, 28969.49, 16542.55, 10212.58, -1761.97, 15038.83, 33299.38, 0.00, 0.032, -0.032, 0.988, 13:11:35.261
198, 0.00, 28966.14, 16538.48, 10221.70, -1862.35, 15030.16, 33291.80, 0.00, 0.000, 0.000, 0.000, 13:11:35.262
199, 0.00, 28962.41, 16536.58, 10274.85, -1848.20, 15030.23, 33308.08, 0.00, 0.000, 0.000, 0.000, 13:11:35.262
200, 0.00, 28962.47, 16536.18, 10305.63, -1705.35, 15037.47, 33325.71, 0.00, 0.000, 0.000, 0.000, 13:11:35.262
201, 0.00, 28965.76, 16538.03, 10260.05, -1673.99, 15043.24, 33319.07, 0.00, 0.000, 0.000, 0.000, 13:11:35.262
202, 0.00, 28966.65, 16539.91, 10211.13, -1764.20, 15039.44, 33297.15, 0.00, 0.000, 0.000, 0.000, 13:11:35.262
203, 0.00, 28963.41, 16539.98, 10224.78, -1868.85, 15031.57, 33289.39, 0.00, 0.000, 0.000, 0.000, 13:11:35.263
204, 0.00, 28959.57, 16536.92, 10284.48, -1846.08, 15027.28, 33304.72, 0.00, 0.000, 0.000, 0.000, 13:11:35.263
205, 0.00, 28960.10, 16534.30, 10308.13, -1711.23, 15029.04, 33321.20, 0.00, 0.000, 0.000, 0.000, 13:11:35.263
206, 0.00, 28964.26, 16541.50, 10263.09, -1679.71, 15036.46, 33315.79, 0.00, 0.000, 0.000, 0.000, 13:11:35.263
207, 0.00, 28965.02, 16544.54, 10214.95, -1769.27, 15035.97, 33293.93, 0.00, 0.032, -0.034, 0.984, 13:11:35.263
208, 0.00, 28962.07, 16543.64, 10227.69, -1870.84, 15028.11, 33288.59, 0.00, 0.000, 0.000, 0.000, 13:11:35.263
209, 0.00, 28959.54, 16540.20, 10282.32, -1848.74, 15028.75, 33306.20, 0.00, 0.000, 0.000, 0.000, 13:11:35.264
210, 0.00, 28956.30, 16536.13, 10307.91, -1711.83, 15032.20, 33318.92, 0.00, 0.000, 0.000, 0.000, 13:11:35.264
211, 0.00, 28961.74, 16539.57, 10260.95, -1680.90, 15039.24, 33315.57, 0.00, 0.000, 0.000, 0.000, 13:11:35.264
212, 0.00, 28962.72, 16546.97, 10217.52, -1766.01, 15039.71, 33296.01, 0.00, 0.000, 0.000, 0.000, 13:11:35.265
213, 0.00, 28959.61, 16543.84, 10227.91, -1868.70, 15031.97, 33287.29, 0.00, 0.000, 0.000, 0.000, 13:11:35.265
214, 0.00, 28956.66, 16540.16, 10280.19, -1849.36, 15028.44, 33303.34, 0.00, 0.000, 0.000, 0.000, 13:11:35.265
215, 0.00, 28953.53, 16532.38, 10305.00, -1711.38, 15027.50, 33317.15, 0.00, 0.000, 0.000, 0.000, 13:11:35.265
216, 0.00, 28961.71, 16539.02, 10257.42, -1682.53, 15034.79, 33313.75, 0.00, 0.000, 0.000, 0.000, 13:11:35.265
217, 0.00, 28965.58, 16545.39, 10213.83, -1769.25, 15036.82, 33295.05, 0.00, 0.032, -0.030, 0.990, 13:11:35.266
218, 0.00, 28961.09, 16541.54, 10225.45, -1870.19, 15030.45, 33288.52, 0.00, 0.000, 0.000, 0.000, 13:11:35.266
219, 0.00, 28955.52, 16535.95, 10276.95, -1847.75, 15026.16, 33304.07, 0.00, 0.000, 0.000, 0.000, 13:11:35.266
220, 0.00, 28955.77, 16536.74, 10305.96, -1705.97, 15032.08, 33320.77, 0.00, 0.000, 0.000, 0.000, 13:11:35.266
221, 0.00, 28962.41, 16543.71, 10261.31, -1679.38, 15037.76, 33317.17, 0.00, 0.000, 0.000, 0.000, 13:11:35.266
222, 0.00, 28963.08, 16547.35, 10214.37, -1768.40, 15036.15, 33297.48, 0.00, 0.000, 0.000, 0.000, 13:11:35.267
223, 0.00, 28955.86, 16540.54, 10222.66, -1871.47, 15028.62, 33285.52, 0.00, 0.000, 0.000, 0.000, 13:11:35.267
224, 0.00, 28949.62, 16533.27, 10275.75, -1847.26, 15022.76, 33298.62, 0.00, 0.000, 0.000, 0.000, 13:11:35.267
225, 0.00, 28955.37, 16539.13, 10308.36, -1704.41, 15030.12, 33320.10, 0.00, 0.000, 0.000, 0.000, 13:11:35.267
226, 0.00, 28961.31, 16547.13, 10263.16, -1678.75, 15036.60, 33313.98, 0.00, 0.000, 0.000, 0.000, 13:11:35.267
227, 0.00, 28961.38, 16550.08, 10216.49, -1771.13, 15034.30, 33292.09, 0.00, 0.036, -0.038, 0.990, 13:11:35.267
228, 0.00, 28957.38, 16547.60, 10225.70, -1873.43, 15026.72, 33285.81, 0.00, 0.000, 0.000, 0.000, 13:11:35.268
229, 0.00, 28953.51, 16543.22, 10278.52, -1850.41, 15024.69, 33301.71, 0.00, 0.000, 0.000, 0.000, 13:11:35.268
230, 0.00, 28950.74, 16537.79, 10303.86, -1709.35, 15026.99, 33315.45, 0.00, 0.000, 0.000, 0.000, 13:11:35.268
231, 0.00, 28956.44, 16542.95, 10257.33, -1682.68, 15035.44, 33311.43, 0.00, 0.000, 0.000, 0.000, 13:11:35.268
232, 0.00, 28960.86, 16547.49, 10210.72, -1771.22, 15036.20, 33294.04, 0.00, 0.000, 0.000, 0.000, 13:11:35.268
233, 0.00, 28958.79, 16544.34, 10224.80, -1872.38, 15028.60, 33288.43, 0.00, 0.000, 0.000, 0.000, 13:11:35.269
234, 0.00, 28952.21, 16537.36, 10282.20, -1846.99, 15024.26, 33302.60, 0.00, 0.000, 0.000, 0.000, 13:11:35.269
235, 0.00, 28954.36, 16540.80, 10314.17, -1705.42, 15030.03, 33321.33, 0.00, 0.000, 0.000, 0.000, 13:11:35.269
236, 0.00, 28961.18, 16548.36, 10269.13, -1676.63, 15037.18, 33317.26, 0.00, 0.000, 0.000, 0.000, 13:11:35.270
237, 0.00, 28956.86, 16544.94, 10215.46, -1773.68, 15033.27, 33291.09, 0.00, 0.030, -0.032, 0.990, 13:11:35.270
238, 0.00, 28953.53, 16544.22, 10227.84, -1874.33, 15025.94, 33283.29, 0.00, 0.000, 0.000, 0.000, 13:11:35.270
239, 0.00, 28950.38, 16539.73, 10281.29, -1850.41, 15022.03, 33300.12, 0.00, 0.000, 0.000, 0.000, 13:11:35.270
240, 0.00, 28952.04, 16540.94, 10305.65, -1711.67, 15027.77, 33316.57, 0.00, 0.000, 0.000, 0.000, 13:11:35.270
241, 0.00, 28957.53, 16549.32, 10261.15, -1682.21, 15034.99, 33310.42, 0.00, 0.000, 0.000, 0.000, 13:11:35.727
242, 0.00, 28959.99, 16552.18, 10214.61, -1774.86, 15034.54, 33291.34, 0.00, 0.000, 0.000, 0.000, 13:11:35.727
243, 0.00, 28958.16, 16550.75, 10228.78, -1874.22, 15030.63, 33287.25, 0.00, 0.000, 0.000, 0.000, 13:11:35.727
244, 0.00, 28952.48, 16544.40, 10283.01, -1845.67, 15025.38, 33302.94, 0.00, 0.000, 0.000, 0.000, 13:11:35.728
245, 0.00, 28951.68, 16543.78, 10307.91, -1708.16, 15027.32, 33317.53, 0.00, 0.000, 0.000, 0.000, 13:11:35.728
246, 0.00, 28957.33, 16546.84, 10259.25, -1681.72, 15035.82, 33311.90, 0.00, 0.000, 0.000, 0.000, 13:11:35.728
247, 0.00, 28961.69, 16551.04, 10214.23, -1772.23, 15036.82, 33293.35, 0.00, 0.030, -0.036, 0.996, 13:11:35.728
248, 0.00, 28958.83, 16546.35, 10226.68, -1871.82, 15029.74, 33287.00, 0.00, 0.000, 0.000, 0.000, 13:11:35.728
249, 0.00, 28951.30, 16538.77, 10276.79, -1847.46, 15022.92, 33300.25, 0.00, 0.000, 0.000, 0.000, 13:11:35.728
250, 0.00, 28952.59, 16540.00, 10303.68, -1705.75, 15027.70, 33316.61, 0.00, 0.000, 0.000, 0.000, 13:11:35.728
251, 0.00, 28954.83, 16544.72, 10255.83, -1683.33, 15034.88, 33307.03, 0.00, 0.000, 0.000, 0.000, 13:11:35.728
252, 0.00, 28958.43, 16550.55, 10214.34, -1775.18, 15037.49, 33288.41, 0.00, 0.000, 0.000, 0.000, 13:11:35.729
253, 0.00, 28957.78, 16549.88, 10231.13, -1871.27, 15032.58, 33285.08, 0.00, 0.000, 0.000, 0.000, 13:11:35.729
254, 0.00, 28951.65, 16543.06, 10285.18, -1841.65, 15024.31, 33300.43, 0.00, 0.000, 0.000, 0.000, 13:11:35.729
255, 0.00, 28951.74, 16542.21, 10310.17, -1705.39, 15028.89, 33316.05, 0.00, 0.000, 0.000, 0.000, 13:11:35.729
0, 0.00, 28955.77, 16545.43, 10259.18, -1683.89, 15035.39, 33308.03, 0.00, 0.000, 0.000, 0.000, 13:11:35.729
1, 0.00, 28958.43, 16548.43, 10212.53, -1776.11, 15035.28, 33288.41, 0.00, 0.030, -0.032, 0.990, 13:11:35.729
2, 0.00, 28956.19, 16545.97, 10225.59, -1875.74, 15027.77, 33282.95, 0.00, 0.000, 0.000, 0.000, 13:11:35.729
3, 0.00, 28952.01, 16540.98, 10279.81, -1845.34, 15024.13, 33300.05, 0.00, 0.000, 0.000, 0.000, 13:11:35.729
4, 0.00, 28953.33, 16542.57, 10302.68, -1708.14, 15029.58, 33317.35, 0.00, 0.000, 0.000, 0.000, 13:11:35.730
5, 0.00, 28957.33, 16546.64, 10257.80, -1684.63, 15035.15, 33308.77, 0.00, 0.000, 0.000, 0.000, 13:11:35.730
6, 0.00, 28959.77, 16553.01, 10218.35, -1775.40, 15036.31, 33288.92, 0.00, 0.000, 0.000, 0.000, 13:11:35.730
7, 0.00, 28954.74, 16549.57, 10232.81, -1872.63, 15027.08, 33281.55, 0.00, 0.000, 0.000, 0.000, 13:11:35.730
8, 0.00, 28949.15, 16542.82, 10282.67, -1845.52, 15025.18, 33297.93, 0.00, 0.000, 0.000, 0.000, 13:11:35.730
9, 0.00, 28948.71, 16541.99, 10304.53, -1706.44, 15031.10, 33313.13, 0.00, 0.000, 0.000, 0.000, 13:11:35.730
10, 0.00, 28956.51, 16550.37, 10258.76, -1683.24, 15039.44, 33309.48, 0.00, 0.000, 0.000, 0.000, 13:11:35.730
11, 0.00, 28959.23, 16554.77, 10214.77, -1776.56, 15038.54, 33290.71, 0.00, 0.024, -0.032, 0.990, 13:11:35.731
12, 0.00, 28954.52, 16550.48, 10228.31, -1876.07, 15029.25, 33284.63, 0.00, 0.000, 0.000, 0.000, 13:11:35.731
13, 0.00, 28947.32, 16541.59, 10279.79, -1846.68, 15021.40, 33298.24, 0.00, 0.000, 0.000, 0.000, 13:11:35.731
14, 0.00, 28951.63, 16541.90, 10302.39, -1707.16, 15028.73, 33315.54, 0.00, 0.000, 0.000, 0.000, 13:11:35.731
15, 0.00, 28958.16, 16549.54, 10253.84, -1685.68, 15035.88, 33308.81, 0.00, 0.000, 0.000, 0.000, 13:11:35.731
16, 0.00, 28957.76, 16553.99, 10210.10, -1781.86, 15033.20, 33287.40, 0.00, 0.000, 0.000, 0.000, 13:11:35.731
17, 0.00, 28954.70, 16550.86, 10227.20, -1878.28, 15024.98, 33284.05, 0.00, 0.000, 0.000, 0.000, 13:11:35.731
18, 0.00, 28951.10, 16545.68, 10279.88, -1845.54, 15023.30, 33301.95, 0.00, 0.000, 0.000, 0.000, 13:11:35.731
19, 0.00, 28950.69, 16545.19, 10302.14, -1706.35, 15029.38, 33315.63, 0.00, 0.000, 0.000, 0.000, 13:11:35.731
20, 0.00, 28956.75, 16551.82, 10254.00, -1684.52, 15038.12, 33309.02, 0.00, 0.000, 0.000, 0.000, 13:11:35.731
21, 0.00, 28954.27, 16548.54, 10205.38, -1781.81, 15033.94, 33285.28, 0.00, 0.026, -0.034, 0.988, 13:11:35.731
22, 0.00, 28948.97, 16544.07, 10220.13, -1880.12, 15024.46, 33279.27, 0.00, 0.000, 0.000, 0.000, 13:11:35.732
23, 0.00, 28945.20, 16541.79, 10278.92, -1843.10, 15023.25, 33297.75, 0.00, 0.000, 0.000, 0.000, 13:11:35.732
24, 0.00, 28950.38, 16546.59, 10305.14, -1700.95, 15033.40, 33318.27, 0.00, 0.000, 0.000, 0.000, 13:11:35.732
25, 0.00, 28955.97, 16550.75, 10253.84, -1680.90, 15037.60, 33310.27, 0.00, 0.000, 0.000, 0.000, 13:11:35.732
26, 0.00, 28959.05, 16557.48, 10212.04, -1774.77, 15040.94, 33291.54, 0.00, 0.000, 0.000, 0.000, 13:11:35.732
27, 0.00, 28954.85, 16553.14, 10229.48, -1870.82, 15033.25, 33286.69, 0.00, 0.000, 0.000, 0.000, 13:11:35.732
28, 0.00, 28948.84, 16543.62, 10282.38, -1838.59, 15027.55, 33301.50, 0.00, 0.000, 0.000, 0.000, 13:11:35.732
29, 0.00, 28947.43, 16543.40, 10303.68, -1705.13, 15030.39, 33314.58, 0.00, 0.000, 0.000, 0.000, 13:11:35.732
30, 0.00, 28954.78, 16550.21, 10255.18, -1684.41, 15038.12, 33308.30, 0.00, 0.000, 0.000, 0.000, 13:11:35.732
31, 0.00, 28959.88, 16558.33, 10216.04, -1777.79, 15041.70, 33291.85, 0.00, 0.030, -0.032, 0.986, 13:11:35.733
32, 0.00, 28957.60, 16554.60, 10232.25, -1873.57, 15034.25, 33287.85, 0.00, 0.000, 0.000, 0.000, 13:11:35.733
33, 0.00, 28950.16, 16543.89, 10279.90, -1842.70, 15025.18, 33301.06, 0.00, 0.000, 0.000, 0.000, 13:11:35.733
34, 0.00, 28948.93, 16542.64, 10299.48, -1706.18, 15028.84, 33314.65, 0.00, 0.000, 0.000, 0.000, 13:11:35.733
35, 0.00, 28953.62, 16550.19, 10252.25, -1689.32, 15035.03, 33306.13, 0.00, 0.000, 0.000, 0.000, 13:11:35.733
36, 0.00, 28958.16, 16554.86, 10211.93, -1783.04, 15034.70, 33287.49, 0.00, 0.000, 0.000, 0.000, 13:11:35.733
37, 0.00, 28956.15, 16552.16, 10230.26, -1879.92, 15027.48, 33284.23, 0.00, 0.000, 0.000, 0.000, 13:11:35.733
38, 0.00, 28949.53, 16544.36, 10282.61, -1845.38, 15022.52, 33298.91, 0.00, 0.000, 0.000, 0.000, 13:11:35.734
39, 0.00, 28948.26, 16542.66, 10302.30, -1707.96, 15025.27, 33312.01, 0.00, 0.000, 0.000, 0.000, 13:11:35.734
40, 0.00, 28953.31, 16549.30, 10253.21, -1692.23, 15032.06, 33303.54, 0.00, 0.000, 0.000, 0.000, 13:11:35.734
41, 0.00, 28955.14, 16555.04, 10211.98, -1784.90, 15035.44, 33284.07, 0.00, 0.028, -0.032, 0.992, 13:11:35.734
42, 0.00, 28951.05, 16554.28, 10231.49, -1877.37, 15029.25, 33279.76, 0.00, 0.000, 0.000, 0.000, 13:11:35.734
43, 0.00, 28945.75, 16548.81, 10287.81, -1838.81, 15023.61, 33296.52, 0.00, 0.000, 0.000, 0.000, 13:11:35.734
44, 0.00, 28945.64, 16548.38, 10307.33, -1703.00, 15029.04, 33311.23, 0.00, 0.000, 0.000, 0.000, 13:11:35.734
45, 0.00, 28949.06, 16552.12, 10256.34, -1686.93, 15036.49, 33301.26, 0.00, 0.000, 0.000, 0.000, 13:11:35.734
46, 0.00, 28949.38, 16552.38, 10212.65, -1783.24, 15034.36, 33279.60, 0.00, 0.000, 0.000, 0.000, 13:11:35.735
47, 0.00, 28948.21, 16551.58, 10231.53, -1876.67, 15027.77, 33278.71, 0.00, 0.000, 0.000, 0.000, 13:11:35.735
48, 0.00, 28945.37, 16545.34, 10285.92, -1838.05, 15023.81, 33297.82, 0.00, 0.000, 0.000, 0.000, 13:11:35.735
49, 0.00, 28949.60, 16543.96, 10306.14, -1701.57, 15030.63, 33315.36, 0.00, 0.000, 0.000, 0.000, 13:11:35.735
50, 0.00, 28952.84, 16548.18, 10254.26, -1685.37, 15036.33, 33305.17, 0.00, 0.000, 0.000, 0.000, 13:11:35.735
51, 0.00, 28955.07, 16552.23, 10210.21, -1784.36, 15035.35, 33285.86, 0.00, 0.030, -0.030, 0.988, 13:11:35.735
52, 0.00, 28952.41, 16550.75, 10232.72, -1874.73, 15028.87, 33283.13, 0.00, 0.000, 0.000, 0.000, 13:11:35.735
53, 0.00, 28948.50, 16547.06, 10289.47, -1836.69, 15024.48, 33300.99, 0.00, 0.000, 0.000, 0.000, 13:11:35.735
54, 0.00, 28951.28, 16549.88, 10309.96, -1701.68, 15030.50, 33316.46, 0.00, 0.000, 0.000, 0.000, 13:11:35.736
55, 0.00, 28954.65, 16555.71, 10258.20, -1686.91, 15036.60, 33306.60, 0.00, 0.000, 0.000, 0.000, 13:11:35.736
56, 0.00, 28956.06, 16556.94, 10215.28, -1781.59, 15035.41, 33286.38, 0.00, 0.000, 0.000, 0.000, 13:11:35.736
57, 0.00, 28953.42, 16550.26, 10229.01, -1876.92, 15028.87, 33282.17, 0.00, 0.000, 0.000, 0.000, 13:11:35.736
58, 0.00, 28945.13, 16543.82, 10279.30, -1841.14, 15021.24, 33295.11, 0.00, 0.000, 0.000, 0.000, 13:11:35.736
59, 0.00, 28947.30, 16549.72, 10306.41, -1701.37, 15029.51, 33311.34, 0.00, 0.000, 0.000, 0.000, 13:11:35.736
60, 0.00, 28951.16, 16555.94, 10258.33, -1683.94, 15036.60, 33302.38, 0.00, 0.000, 0.000, 0.000, 13:11:35.737
61, 0.00, 28952.21, 16555.49, 10211.30, -1784.36, 15031.93, 33282.02, 0.00, 0.032, -0.032, 0.992, 13:11:35.737
62, 0.00, 28949.44, 16554.35, 10230.21, -1878.13, 15026.14, 33280.11, 0.00, 0.000, 0.000, 0.000, 13:11:35.737
63, 0.00, 28946.42, 16550.30, 10286.12, -1835.37, 15026.72, 33299.63, 0.00, 0.000, 0.000, 0.000, 13:11:35.737
64, 0.00, 28947.72, 16550.33, 10304.58, -1698.55, 15031.57, 33314.36, 0.00, 0.000, 0.000, 0.000, 13:11:35.737
65, 0.00, 28953.96, 16561.48, 10259.47, -1683.51, 15039.79, 33307.38, 0.00, 0.000, 0.000, 0.000, 13:11:35.737
66, 0.00, 28954.98, 16561.10, 10217.43, -1781.72, 15037.36, 33287.80, 0.00, 0.000, 0.000, 0.000, 13:11:35.737
67, 0.00, 28950.34, 16552.23, 10231.04, -1878.31, 15027.64, 33283.60, 0.00, 0.000, 0.000, 0.000, 13:11:35.737
68, 0.00, 28948.59, 16549.63, 10290.54, -1832.93, 15027.03, 33304.30, 0.00, 0.000, 0.000, 0.000, 13:11:35.737
69, 0.00, 28951.63, 16549.39, 10309.99, -1694.91, 15033.02, 33320.32, 0.00, 0.000, 0.000, 0.000, 13:11:35.738
70, 0.00, 28952.84, 16551.33, 10255.65, -1684.00, 15037.67, 33308.48, 0.00, 0.000, 0.000, 0.000, 13:11:35.738
71, 0.00, 28956.28, 16556.52, 10217.16, -1781.75, 15040.40, 33292.23, 0.00, 0.030, -0.034, 0.988, 13:11:35.738
72, 0.00, 28953.58, 16553.68, 10236.94, -1874.24, 15033.76, 33289.30, 0.00, 0.000, 0.000, 0.000, 13:11:35.738
73, 0.00, 28947.54, 16545.63, 10287.86, -1833.07, 15026.81, 33303.92, 0.00, 0.000, 0.000, 0.000, 13:11:35.738
74, 0.00, 28948.26, 16546.84, 10304.96, -1697.70, 15032.08, 33317.91, 0.00, 0.000, 0.000, 0.000, 13:11:35.738
75, 0.00, 28954.47, 16554.57, 10256.28, -1684.74, 15039.19, 33308.70, 0.00, 0.000, 0.000, 0.000, 13:11:35.738
76, 0.00, 28954.52, 16556.58, 10214.72, -1785.32, 15036.44, 33286.93, 0.00, 0.000, 0.000, 0.000, 13:11:35.739
77, 0.00, 28951.12, 16553.39, 10234.17, -1874.77, 15029.71, 33285.37, 0.00, 0.000, 0.000, 0.000, 13:11:35.739
78, 0.00, 28947.05, 16547.20, 10286.50, -1831.84, 15025.18, 33303.00, 0.00, 0.000, 0.000, 0.000, 13:11:35.739
79, 0.00, 28947.88, 16549.39, 10307.42, -1696.30, 15031.61, 33317.04, 0.00, 0.000, 0.000, 0.000, 13:11:35.739
80, 0.00, 28952.24, 16556.41, 10256.46, -1687.60, 15038.21, 33307.09, 0.00, 0.000, 0.000, 0.000, 13:11:35.740
81, 0.00, 28954.47, 16559.38, 10216.22, -1783.92, 15039.28, 33288.27, 0.00, 0.038, -0.036, 0.986, 13:11:35.740
82, 0.00, 28949.04, 16554.44, 10234.62, -1877.81, 15029.60, 33283.64, 0.00, 0.000, 0.000, 0.000, 13:11:35.740
83, 0.00, 28942.04, 16546.64, 10287.08, -1834.79, 15020.62, 33298.58, 0.00, 0.000, 0.000, 0.000, 13:11:35.740
84, 0.00, 28947.83, 16553.95, 10307.80, -1696.81, 15027.66, 33317.13, 0.00, 0.000, 0.000, 0.000, 13:11:35.740
85, 0.00, 28953.87, 16559.96, 10253.73, -1687.02, 15038.25, 33308.46, 0.00, 0.000, 0.000, 0.000, 13:11:35.740
86, 0.00, 28957.53, 16561.57, 10215.33, -1786.73, 15037.09, 33290.38, 0.00, 0.000, 0.000, 0.000, 13:11:35.740
87, 0.00, 28953.17, 16559.24, 10240.43, -1874.89, 15031.12, 33286.86, 0.00, 0.000, 0.000, 0.000, 13:11:35.741
88, 0.00, 28948.88, 16554.17, 10295.12, -1827.95, 15028.49, 33303.74, 0.00, 0.000, 0.000, 0.000, 13:11:35.741
89, 0.00, 28948.95, 16553.01, 10307.64, -1697.97, 15031.57, 33317.11, 0.00, 0.000, 0.000, 0.000, 13:11:35.741
90, 0.00, 28954.31, 16558.69, 10259.16, -1682.39, 15040.96, 33309.38, 0.00, 0.000, 0.000, 0.000, 13:11:35.741
91, 0.00, 28955.99, 16558.44, 10214.10, -1785.23, 15039.64, 33290.80, 0.00, 0.038, -0.034, 0.994, 13:11:35.741
92, 0.00, 28950.29, 16551.94, 10230.10, -1879.54, 15027.81, 33286.06, 0.00, 0.000, 0.000, 0.000, 13:11:35.741
93, 0.00, 28944.61, 16550.37, 10289.09, -1833.78, 15023.01, 33302.49, 0.00, 0.000, 0.000, 0.000, 13:11:35.741
94, 0.00, 28946.51, 16554.10, 10310.01, -1697.48, 15029.63, 33317.06, 0.00, 0.000, 0.000, 0.000, 13:11:35.741
95, 0.00, 28952.10, 16559.80, 10260.68, -1684.63, 15036.84, 33307.70, 0.00, 0.000, 0.000, 0.000, 13:11:35.741
96, 0.00, 28955.52, 16565.77, 10220.80, -1786.98, 15037.54, 33289.75, 0.00, 0.000, 0.000, 0.000, 13:11:35.741
97, 0.00, 28949.89, 16559.15, 10237.72, -1881.23, 15028.96, 33284.00, 0.00, 0.000, 0.000, 0.000, 13:11:35.742
98, 0.00, 28944.81, 16552.81, 10293.49, -1829.07, 15024.98, 33299.54, 0.00, 0.000, 0.000, 0.000, 13:11:35.742
99, 0.00, 28946.98, 16552.23, 10307.22, -1696.68, 15031.35, 33313.84, 0.00, 0.000, 0.000, 0.000, 13:11:35.742
100, 0.00, 28954.36, 16558.87, 10255.96, -1684.81, 15040.22, 33307.79, 0.00, 0.000, 0.000, 0.000, 13:11:35.742
101, 0.00, 28955.50, 16564.14, 10214.61, -1786.51, 15037.83, 33288.43, 0.00, 0.038, -0.030, 0.994, 13:11:35.742
102, 0.00, 28951.56, 16560.70, 10235.98, -1878.49, 15029.31, 33285.97, 0.00, 0.000, 0.000, 0.000, 13:11:35.742
103, 0.00, 28946.31, 16552.54, 10291.95, -1827.43, 15025.83, 33303.45, 0.00, 0.000, 0.000, 0.000, 13:11:35.742
104, 0.00, 28947.36, 16553.84, 10306.19, -1693.30, 15029.38, 33316.55, 0.00, 0.000, 0.000, 0.000, 13:11:35.742
105, 0.00, 28951.41, 16559.38, 10252.41, -1687.65, 15036.60, 33305.46, 0.00, 0.000, 0.000, 0.000, 13:11:36.207
106, 0.00, 28949.89, 16560.16, 10210.01, -1794.04, 15032.46, 33283.42, 0.00, 0.000, 0.000, 0.000, 13:11:36.207
107, 0.00, 28946.09, 16558.08, 10231.69, -1885.37, 15024.69, 33280.65, 0.00, 0.000, 0.000, 0.000, 13:11:36.207
108, 0.00, 28944.84, 16556.58, 10290.09, -1833.67, 15023.52, 33301.50, 0.00, 0.000, 0.000, 0.000, 13:11:36.208
109, 0.00, 28945.04, 16554.91, 10304.13, -1699.20, 15027.64, 33315.05, 0.00, 0.000, 0.000, 0.000, 13:11:36.208
110, 0.00, 28947.88, 16559.42, 10250.53, -1693.64, 15031.53, 33302.82, 0.00, 0.000, 0.000, 0.000, 13:11:36.208
111, 0.00, 28949.33, 16560.07, 10206.77, -1800.46, 15029.09, 33283.22, 0.00, 0.034, -0.034, 0.992, 13:11:36.208
112, 0.00, 28946.49, 16559.42, 10231.38, -1887.20, 15025.65, 33281.48, 0.00, 0.000, 0.000, 0.000, 13:11:36.208
113, 0.00, 28945.66, 16560.21, 10296.31, -1827.10, 15026.21, 33302.22, 0.00, 0.000, 0.000, 0.000, 13:11:36.209
114, 0.00, 28947.81, 16558.42, 10307.80, -1695.22, 15030.92, 33315.68, 0.00, 0.000, 0.000, 0.000, 13:11:36.209
115, 0.00, 28949.33, 16559.33, 10252.88, -1687.71, 15036.15, 33303.72, 0.00, 0.000, 0.000, 0.000, 13:11:36.209
116, 0.00, 28953.09, 16564.45, 10214.57, -1790.87, 15037.25, 33286.57, 0.00, 0.000, 0.000, 0.000, 13:11:36.209
117, 0.00, 28950.72, 16561.68, 10236.54, -1881.93, 15030.07, 33284.96, 0.00, 0.000, 0.000, 0.000, 13:11:36.209
118, 0.00, 28944.81, 16553.57, 10289.69, -1831.10, 15023.34, 33301.30, 0.00, 0.000, 0.000, 0.000, 13:11:36.210
119, 0.00, 28946.42, 16555.67, 10305.72, -1697.53, 15031.70, 33315.90, 0.00, 0.000, 0.000, 0.000, 13:11:36.211
120, 0.00, 28951.56, 16561.68, 10256.92, -1685.30, 15040.51, 33306.94, 0.00, 0.000, 0.000, 0.000, 13:11:36.211
121, 0.00, 28952.59, 16563.80, 10216.76, -1790.73, 15036.60, 33286.80, 0.00, 0.034, -0.032, 0.990, 13:11:36.211
122, 0.00, 28945.06, 16556.38, 10235.78, -1882.35, 15022.94, 33280.20, 0.00, 0.000, 0.000, 0.000, 13:11:36.211
123, 0.00, 28942.20, 16549.57, 10289.58, -1830.03, 15021.65, 33299.47, 0.00, 0.000, 0.000, 0.000, 13:11:36.212
124, 0.00, 28942.45, 16549.92, 10301.65, -1697.88, 15029.02, 33312.93, 0.00, 0.000, 0.000, 0.000, 13:11:36.212
125, 0.00, 28951.34, 16560.76, 10254.15, -1689.72, 15037.67, 33305.73, 0.00, 0.000, 0.000, 0.000, 13:11:36.212
126, 0.00, 28951.88, 16562.17, 10217.81, -1792.21, 15034.83, 33285.73, 0.00, 0.000, 0.000, 0.000, 13:11:36.212
127, 0.00, 28946.83, 16555.47, 10236.99, -1885.35, 15026.81, 33282.06, 0.00, 0.000, 0.000, 0.000, 13:11:36.212
128, 0.00, 28942.07, 16548.34, 10289.31, -1831.52, 15023.14, 33299.74, 0.00, 0.000, 0.000, 0.000, 13:11:36.212
129, 0.00, 28942.56, 16549.16, 10302.52, -1696.12, 15029.89, 33312.77, 0.00, 0.000, 0.000, 0.000, 13:11:36.212
130, 0.00, 28950.92, 16560.47, 10257.21, -1686.71, 15038.23, 33305.46, 0.00, 0.000, 0.000, 0.000, 13:11:36.213
131, 0.00, 28951.59, 16561.77, 10217.67, -1795.05, 15034.07, 33285.50, 0.00, 0.036, -0.034, 0.994, 13:11:36.213
132, 0.00, 28947.77, 16557.14, 10236.61, -1884.63, 15027.84, 33283.49, 0.00, 0.000, 0.000, 0.000, 13:11:36.213
133, 0.00, 28943.81, 16551.20, 10292.69, -1825.44, 15025.24, 33300.84, 0.00, 0.000, 0.000, 0.000, 13:11:36.213
134, 0.00, 28945.53, 16553.68, 10306.01, -1694.62, 15031.79, 33313.89, 0.00, 0.000, 0.000, 0.000, 13:11:36.213
135, 0.00, 28951.01, 16560.54, 10255.47, -1686.15, 15039.46, 33303.79, 0.00, 0.000, 0.000, 0.000, 13:11:36.213
136, 0.00, 28950.96, 16561.14, 10215.82, -1792.34, 15035.64, 33283.33, 0.00, 0.000, 0.000, 0.000, 13:11:36.213
137, 0.00, 28946.38, 16554.10, 10232.49, -1886.46, 15025.47, 33280.32, 0.00, 0.000, 0.000, 0.000, 13:11:36.213
138, 0.00, 28941.39, 16548.81, 10287.70, -1831.52, 15021.13, 33298.40, 0.00, 0.000, 0.000, 0.000, 13:11:36.214
139, 0.00, 28945.04, 16552.12, 10303.08, -1697.03, 15028.64, 33314.07, 0.00, 0.000, 0.000, 0.000, 13:11:36.214
140, 0.00, 28950.49, 16559.18, 10251.27, -1690.08, 15035.97, 33303.07, 0.00, 0.000, 0.000, 0.000, 13:11:36.215
141, 0.00, 28951.61, 16562.13, 10212.69, -1792.32, 15033.87, 33283.89, 0.00, 0.036, -0.036, 0.988, 13:11:36.215
142, 0.00, 28945.93, 16555.78, 10231.42, -1883.92, 15021.96, 33280.16, 0.00, 0.000, 0.000, 0.000, 13:11:36.215
143, 0.00, 28941.02, 16545.86, 10282.79, -1830.74, 15019.75, 33297.73, 0.00, 0.000, 0.000, 0.000, 13:11:36.215
144, 0.00, 28945.53, 16553.50, 10303.82, -1693.35, 15028.71, 33312.99, 0.00, 0.000, 0.000, 0.000, 13:11:36.215
145, 0.00, 28952.55, 16561.88, 10254.06, -1690.40, 15036.11, 33303.70, 0.00, 0.000, 0.000, 0.000, 13:11:36.215
146, 0.00, 28953.89, 16562.98, 10214.14, -1797.26, 15032.53, 33284.32, 0.00, 0.000, 0.000, 0.000, 13:11:36.217
147, 0.00, 28946.83, 16556.41, 10234.51, -1887.69, 15021.13, 33280.83, 0.00, 0.000, 0.000, 0.000, 13:11:36.217
148, 0.00, 28943.12, 16551.82, 10290.25, -1827.59, 15019.88, 33300.43, 0.00, 0.000, 0.000, 0.000, 13:11:36.217
149, 0.00, 28946.47, 16555.24, 10302.01, -1695.09, 15029.00, 33316.01, 0.00, 0.000, 0.000, 0.000, 13:11:36.217
150, 0.00, 28949.82, 16561.17, 10251.83, -1688.54, 15034.12, 33304.63, 0.00, 0.000, 0.000, 0.000, 13:11:36.217
151, 0.00, 28953.51, 16566.33, 10216.33, -1793.64, 15036.38, 33287.85, 0.00, 0.034, -0.038, 0.990, 13:11:36.217
152, 0.00, 28946.49, 16558.42, 10234.51, -1884.39, 15026.38, 33283.42, 0.00, 0.000, 0.000, 0.000, 13:11:36.217
153, 0.00, 28941.33, 16551.67, 10288.37, -1827.37, 15020.86, 33299.65, 0.00, 0.000, 0.000, 0.000, 13:11:36.217
154, 0.00, 28943.12, 16553.16, 10301.58, -1694.13, 15025.47, 33312.50, 0.00, 0.000, 0.000, 0.000, 13:11:36.218
155, 0.00, 28949.82, 16561.17, 10250.33, -1691.96, 15033.04, 33304.41, 0.00, 0.000, 0.000, 0.000, 13:11:36.218
156, 0.00, 28948.68, 16559.45, 10209.18, -1802.42, 15029.51, 33282.75, 0.00, 0.000, 0.000, 0.000, 13:11:36.218
157, 0.00, 28946.22, 16558.24, 10235.44, -1887.54, 15022.76, 33281.86, 0.00, 0.000, 0.000, 0.000, 13:11:36.218
158, 0.00, 28941.66, 16555.13, 10293.25, -1827.08, 15020.30, 33299.70, 0.00, 0.000, 0.000, 0.000, 13:11:36.218
159, 0.00, 28944.17, 16557.57, 10303.66, -1696.05, 15025.13, 33312.68, 0.00, 0.000, 0.000, 0.000, 13:11:36.218
160, 0.00, 28950.67, 16563.74, 10251.69, -1690.78, 15031.79, 33302.22, 0.00, 0.000, 0.000, 0.000, 13:11:36.218
161, 0.00, 28951.68, 16561.75, 10209.11, -1802.42, 15031.26, 33283.27, 0.00, 0.032, -0.038, 0.986, 13:11:36.219
162, 0.00, 28945.78, 16556.45, 10232.18, -1889.84, 15021.29, 33280.65, 0.00, 0.000, 0.000, 0.000, 13:11:36.219
163, 0.00, 28941.78, 16552.12, 10293.29, -1824.95, 15019.30, 33299.32, 0.00, 0.000, 0.000, 0.000, 13:11:36.219
164, 0.00, 28943.56, 16552.99, 10300.82, -1696.18, 15025.71, 33310.58, 0.00, 0.000, 0.000, 0.000, 13:11:36.219
165, 0.00, 28948.32, 16559.13, 10247.83, -1693.77, 15032.96, 33299.72, 0.00, 0.000, 0.000, 0.000, 13:11:36.219
166, 0.00, 28948.01, 16561.41, 10212.67, -1800.97, 15030.25, 33280.45, 0.00, 0.000, 0.000, 0.000, 13:11:36.221
167, 0.00, 28944.05, 16557.97, 10237.59, -1886.62, 15021.58, 33279.76, 0.00, 0.000, 0.000, 0.000, 13:11:36.221
168, 0.00, 28941.22, 16555.62, 10296.31, -1821.69, 15021.69, 33299.20, 0.00, 0.000, 0.000, 0.000, 13:11:36.221
169, 0.00, 28944.19, 16557.30, 10307.37, -1691.22, 15028.40, 33312.32, 0.00, 0.000, 0.000, 0.000, 13:11:36.221
170, 0.00, 28950.63, 16562.24, 10252.54, -1691.71, 15033.56, 33302.18, 0.00, 0.000, 0.000, 0.000, 13:11:36.221
171, 0.00, 28951.56, 16564.97, 10216.16, -1801.24, 15030.74, 33282.37, 0.00, 0.036, -0.040, 0.990, 13:11:36.221
172, 0.00, 28947.77, 16561.55, 10243.56, -1886.04, 15023.66, 33281.48, 0.00, 0.000, 0.000, 0.000, 13:11:36.221
173, 0.00, 28943.52, 16555.45, 10298.43, -1821.18, 15019.90, 33300.32, 0.00, 0.000, 0.000, 0.000, 13:11:36.221
174, 0.00, 28944.30, 16555.47, 10305.12, -1695.80, 15025.67, 33312.77, 0.00, 0.000, 0.000, 0.000, 13:11:36.221
175, 0.00, 28947.14, 16557.41, 10249.59, -1697.75, 15028.62, 33299.45, 0.00, 0.000, 0.000, 0.000, 13:11:36.221
176, 0.00, 28950.11, 16562.08, 10215.10, -1803.72, 15026.52, 33283.22, 0.00, 0.000, 0.000, 0.000, 13:11:36.222
177, 0.00, 28945.49, 16558.87, 10238.64, -1889.30, 15019.77, 33282.33, 0.00, 0.000, 0.000, 0.000, 13:11:36.222
178, 0.00, 28941.02, 16550.37, 10293.04, -1823.25, 15019.10, 33300.50, 0.00, 0.000, 0.000, 0.000, 13:11:36.223
179, 0.00, 28944.79, 16554.44, 10303.08, -1694.58, 15028.82, 33317.13, 0.00, 0.000, 0.000, 0.000, 13:11:36.223
180, 0.00, 28948.15, 16558.66, 10250.87, -1693.50, 15033.27, 33305.73, 0.00, 0.000, 0.000, 0.000, 13:11:36.223
181, 0.00, 28947.10, 16557.28, 10210.66, -1806.78, 15027.10, 33283.47, 0.00, 0.030, -0.040, 0.992, 13:11:36.223
182, 0.00, 28942.49, 16556.67, 10241.14, -1889.86, 15019.70, 33280.50, 0.00, 0.000, 0.000, 0.000, 13:11:36.223
183, 0.00, 28941.31, 16555.89, 10300.06, -1822.83, 15020.13, 33301.57, 0.00, 0.000, 0.000, 0.000, 13:11:36.224
184, 0.00, 28944.99, 16557.61, 10305.85, -1695.74, 15026.25, 33313.08, 0.00, 0.000, 0.000, 0.000, 13:11:36.224
185, 0.00, 28947.36, 16559.04, 10247.07, -1701.10, 15028.62, 33297.41, 0.00, 0.000, 0.000, 0.000, 13:11:36.224
186, 0.00, 28947.36, 16558.93, 10210.77, -1806.47, 15025.67, 33278.80, 0.00, 0.000, 0.000, 0.000, 13:11:36.224
187, 0.00, 28945.20, 16559.07, 10242.64, -1888.54, 15022.85, 33281.55, 0.00, 0.000, 0.000, 0.000, 13:11:36.224
188, 0.00, 28939.05, 16552.16, 10297.76, -1822.49, 15020.08, 33298.24, 0.00, 0.000, 0.000, 0.000, 13:11:36.224
189, 0.00, 28940.97, 16553.05, 10303.17, -1696.61, 15024.86, 33309.73, 0.00, 0.000, 0.000, 0.000, 13:11:36.224
190, 0.00, 28947.03, 16560.56, 10252.77, -1696.12, 15030.23, 33300.10, 0.00, 0.000, 0.000, 0.000, 13:11:36.224
191, 0.00, 28950.18, 16563.89, 10217.07, -1805.17, 15030.85, 33283.29, 0.00, 0.032, -0.038, 0.998, 13:11:36.225
192, 0.00, 28945.13, 16557.03, 10240.81, -1888.30, 15024.06, 33282.08, 0.00, 0.000, 0.000, 0.000, 13:11:36.226
193, 0.00, 28939.99, 16549.19, 10293.40, -1822.05, 15018.18, 33299.89, 0.00, 0.000, 0.000, 0.000, 13:11:36.226
194, 0.00, 28944.88, 16553.30, 10299.33, -1695.87, 15026.18, 33314.29, 0.00, 0.000, 0.000, 0.000, 13:11:36.226
195, 0.00, 28949.69, 16561.28, 10247.40, -1696.14, 15034.43, 33303.18, 0.00, 0.000, 0.000, 0.000, 13:11:36.226
196, 0.00, 28948.88, 16563.67, 10213.61, -1807.74, 15029.96, 33283.24, 0.00, 0.000, 0.000, 0.000, 13:11:36.226
197, 0.00, 28946.31, 16564.70, 10245.50, -1888.88, 15026.14, 33284.56, 0.00, 0.000, 0.000, 0.000, 13:11:36.226
198, 0.00, 28940.99, 16560.25, 10302.39, -1816.46, 15023.19, 33303.25, 0.00, 0.000, 0.000, 0.000, 13:11:36.227
199, 0.00, 28942.40, 16556.54, 10305.20, -1691.18, 15028.08, 33313.48, 0.00, 0.000, 0.000, 0.000, 13:11:36.227
200, 0.00, 28950.49, 16564.07, 10250.55, -1695.76, 15034.92, 33304.07, 0.00, 0.000, 0.000, 0.000, 13:11:36.228
201, 0.00, 28950.74, 16567.54, 10216.29, -1805.60, 15032.44, 33285.61, 0.00, 0.032, -0.034, 0.990, 13:11:36.228
202, 0.00, 28946.65, 16562.66, 10241.95, -1887.56, 15023.70, 33285.08, 0.00, 0.000, 0.000, 0.000, 13:11:36.228
203, 0.00, 28942.22, 16556.67, 10294.83, -1819.79, 15019.68, 33302.67, 0.00, 0.000, 0.000, 0.000, 13:11:36.228
204, 0.00, 28941.31, 16557.97, 10303.13, -1693.41, 15024.51, 33311.32, 0.00, 0.000, 0.000, 0.000, 13:11:36.228
205, 0.00, 28945.49, 16563.45, 10250.60, -1698.22, 15031.03, 33298.06, 0.00, 0.000, 0.000, 0.000, 13:11:36.228
206, 0.00, 28949.49, 16567.89, 10218.81, -1804.55, 15032.58, 33283.16, 0.00, 0.000, 0.000, 0.000, 13:11:36.228
207, 0.00, 28945.57, 16564.79, 10244.32, -1888.30, 15025.13, 33282.75, 0.00, 0.000, 0.000, 0.000, 13:11:36.229
208, 0.00, 28939.00, 16558.04, 10297.02, -1818.90, 15020.24, 33298.55, 0.00, 0.000, 0.000, 0.000, 13:11:36.229
209, 0.00, 28939.94, 16559.27, 10300.96, -1696.30, 15027.86, 33310.04, 0.00, 0.000, 0.000, 0.000, 13:11:36.230
210, 0.00, 28943.92, 16565.06, 10249.68, -1700.03, 15035.55, 33297.37, 0.00, 0.000, 0.000, 0.000, 13:11:36.230
211, 0.00, 28945.26, 16567.98, 10220.07, -1807.67, 15032.64, 33278.82, 0.00, 0.030, -0.030, 0.992, 13:11:36.230
212, 0.00, 28942.24, 16566.20, 10251.38, -1887.54, 15027.50, 33280.45, 0.00, 0.000, 0.000, 0.000, 13:11:36.231
213, 0.00, 28937.21, 16560.50, 10304.13, -1816.03, 15024.69, 33298.49, 0.00, 0.000, 0.000, 0.000, 13:11:36.231
214, 0.00, 28940.61, 16562.55, 10308.38, -1689.39, 15032.44, 33310.74, 0.00, 0.000, 0.000, 0.000, 13:11:36.231
215, 0.00, 28946.47, 16567.94, 10254.60, -1694.71, 15037.09, 33298.98, 0.00, 0.000, 0.000, 0.000, 13:11:36.231
216, 0.00, 28946.51, 16568.25, 10220.87, -1806.49, 15030.83, 33279.38, 0.00, 0.000, 0.000, 0.000, 13:11:36.231
217, 0.00, 28943.16, 16563.22, 10249.15, -1885.50, 15022.96, 33280.09, 0.00, 0.000, 0.000, 0.000, 13:11:36.231
218, 0.00, 28941.24, 16561.84, 10305.85, -1811.09, 15023.50, 33301.75, 0.00, 0.000, 0.000, 0.000, 13:11:36.231
219, 0.00, 28943.70, 16561.70, 10307.95, -1689.43, 15030.97, 33313.44, 0.00, 0.000, 0.000, 0.000, 13:11:36.231
220, 0.00, 28944.86, 16564.47, 10253.15, -1696.18, 15033.04, 33296.75, 0.00, 0.000, 0.000, 0.000, 13:11:36.231
221, 0.00, 28947.70, 16568.86, 10224.76, -1801.64, 15032.98, 33279.64, 0.00, 0.032, -0.036, 0.990, 13:11:36.232
222, 0.00, 28941.51, 16563.09, 10249.71, -1884.14, 15025.83, 33278.93, 0.00, 0.000, 0.000, 0.000, 13:11:36.232
223, 0.00, 28937.15, 16556.47, 10303.66, -1811.77, 15024.62, 33297.13, 0.00, 0.000, 0.000, 0.000, 13:11:36.232
224, 0.00, 28945.31, 16561.70, 10308.51, -1685.34, 15033.96, 33313.31, 0.00, 0.000, 0.000, 0.000, 13:11:36.232
225, 0.00, 28947.83, 16566.35, 10255.00, -1690.51, 15036.55, 33299.43, 0.00, 0.000, 0.000, 0.000, 13:11:36.689
226, 0.00, 28946.54, 16568.10, 10225.39, -1803.16, 15031.17, 33278.77, 0.00, 0.000, 0.000, 0.000, 13:11:36.689
227, 0.00, 28942.89, 16562.44, 10251.00, -1887.60, 15023.21, 33279.46, 0.00, 0.000, 0.000, 0.000, 13:11:36.689
228, 0.00, 28937.60, 16555.47, 10303.51, -1816.15, 15021.31, 33296.86, 0.00, 0.000, 0.000, 0.000, 13:11:36.689
229, 0.00, 28944.57, 16562.49, 10311.06, -1687.04, 15031.84, 33311.77, 0.00, 0.000, 0.000, 0.000, 13:11:36.690
230, 0.00, 28947.65, 16566.11, 10256.83, -1694.58, 15035.41, 33297.04, 0.00, 0.000, 0.000, 0.000, 13:11:36.690
231, 0.00, 28948.28, 16567.25, 10225.54, -1804.84, 15032.44, 33277.88, 0.00, 0.034, -0.036, 0.986, 13:11:36.690
232, 0.00, 28943.12, 16561.39, 10252.72, -1887.07, 15024.57, 33278.55, 0.00, 0.000, 0.000, 0.000, 13:11:36.690
233, 0.00, 28939.32, 16557.46, 10308.58, -1809.53, 15022.92, 33298.31, 0.00, 0.000, 0.000, 0.000, 13:11:36.690
234, 0.00, 28943.52, 16561.84, 10314.50, -1683.18, 15031.32, 33310.85, 0.00, 0.000, 0.000, 0.000, 13:11:36.690
235, 0.00, 28945.04, 16563.83, 10258.36, -1691.18, 15035.59, 33295.56, 0.00, 0.000, 0.000, 0.000, 13:11:36.691
236, 0.00, 28944.35, 16566.67, 10226.91, -1804.55, 15031.97, 33275.49, 0.00, 0.000, 0.000, 0.000, 13:11:36.691
237, 0.00, 28938.56, 16558.19, 10250.49, -1888.57, 15019.05, 33274.41, 0.00, 0.000, 0.000, 0.000, 13:11:36.691
238, 0.00, 28938.18, 16556.25, 10308.85, -1811.59, 15020.57, 33297.13, 0.00, 0.000, 0.000, 0.000, 13:11:36.691
239, 0.00, 28941.39, 16561.50, 10314.23, -1685.25, 15026.81, 33309.62, 0.00, 0.000, 0.000, 0.000, 13:11:36.691
240, 0.00, 28947.70, 16568.07, 10260.86, -1697.32, 15031.88, 33296.86, 0.00, 0.000, 0.000, 0.000, 13:11:36.692
241, 0.00, 28947.68, 16568.54, 10226.77, -1810.36, 15028.75, 33277.43, 0.00, 0.038, -0.042, 0.986, 13:11:36.692
242, 0.00, 28941.22, 16564.43, 10257.26, -1886.62, 15019.17, 33276.76, 0.00, 0.000, 0.000, 0.000, 13:11:36.692
243, 0.00, 28935.99, 16559.18, 10312.96, -1809.08, 15016.21, 33294.58, 0.00, 0.000, 0.000, 0.000, 13:11:36.692
244, 0.00, 28937.55, 16560.32, 10314.10, -1686.93, 15027.46, 33304.05, 0.00, 0.000, 0.000, 0.000, 13:11:36.692
245, 0.00, 28945.64, 16567.25, 10263.56, -1693.01, 15036.40, 33294.84, 0.00, 0.000, 0.000, 0.000, 13:11:36.693
246, 0.00, 28946.22, 16568.50, 10233.72, -1802.80, 15034.65, 33276.43, 0.00, 0.000, 0.000, 0.000, 13:11:36.693
247, 0.00, 28942.69, 16565.06, 10258.29, -1883.80, 15026.72, 33278.62, 0.00, 0.000, 0.000, 0.000, 13:11:36.693
248, 0.00, 28937.33, 16556.54, 10309.18, -1806.71, 15024.01, 33297.32, 0.00, 0.000, 0.000, 0.000, 13:11:36.693
249, 0.00, 28939.88, 16558.80, 10311.66, -1684.85, 15029.69, 33308.70, 0.00, 0.000, 0.000, 0.000, 13:11:36.693
250, 0.00, 28943.90, 16565.84, 10259.29, -1696.32, 15034.03, 33294.91, 0.00, 0.000, 0.000, 0.000, 13:11:36.694
251, 0.00, 28944.05, 16567.25, 10226.55, -1809.06, 15030.94, 33276.18, 0.00, 0.036, -0.034, 0.986, 13:11:36.694
252, 0.00, 28938.09, 16563.09, 10256.54, -1884.77, 15023.90, 33275.18, 0.00, 0.000, 0.000, 0.000, 13:11:36.694
253, 0.00, 28936.01, 16561.73, 10317.79, -1800.43, 15025.42, 33296.03, 0.00, 0.000, 0.000, 0.000, 13:11:36.694
254, 0.00, 28936.48, 16565.21, 10319.55, -1680.31, 15031.59, 33304.79, 0.00, 0.000, 0.000, 0.000, 13:11:36.694
255, 0.00, 28941.48, 16574.13, 10267.63, -1688.79, 15035.17, 33291.60, 0.00, 0.000, 0.000, 0.000, 13:11:36.695
0, 0.00, 28942.92, 16572.16, 10234.10, -1803.90, 15032.84, 33273.01, 0.00, 0.000, 0.000, 0.000, 13:11:36.695
1, 0.00, 28940.97, 16571.18, 10266.07, -1881.19, 15029.60, 33278.10, 0.00, 0.000, 0.000, 0.000, 13:11:36.695
2, 0.00, 28934.15, 16563.38, 10317.97, -1803.50, 15021.87, 33295.54, 0.00, 0.000, 0.000, 0.000, 13:11:36.696
3, 0.00, 28934.73, 16562.71, 10318.12, -1681.68, 15026.97, 33303.09, 0.00, 0.000, 0.000, 0.000, 13:11:36.696
4, 0.00, 28944.44, 16572.83, 10264.93, -1692.21, 15037.27, 33294.46, 0.00, 0.036, -0.032, 0.990, 13:11:36.696
5, 0.00, 28941.69, 16570.67, 10231.13, -1808.77, 15029.40, 33273.10, 0.00, 0.000, 0.000, 0.000, 13:11:36.696
6, 0.00, 28935.23, 16566.62, 10262.33, -1887.43, 15019.70, 33271.42, 0.00, 0.000, 0.000, 0.000, 13:11:36.696
7, 0.00, 28931.67, 16564.23, 10320.20, -1806.27, 15020.77, 33291.11, 0.00, 0.000, 0.000, 0.000, 13:11:36.696
8, 0.00, 28934.40, 16564.56, 10319.55, -1683.98, 15027.97, 33302.89, 0.00, 0.000, 0.000, 0.000, 13:11:36.697
9, 0.00, 28939.83, 16569.66, 10264.68, -1694.75, 15034.48, 33290.15, 0.00, 0.000, 0.000, 0.000, 13:11:36.697
10, 0.00, 28942.29, 16572.57, 10234.77, -1811.56, 15031.50, 33273.72, 0.00, 0.000, 0.000, 0.000, 13:11:36.697
11, 0.00, 28937.82, 16566.46, 10263.90, -1888.97, 15021.40, 33274.93, 0.00, 0.000, 0.000, 0.000, 13:11:36.697
12, 0.00, 28936.25, 16565.03, 10323.67, -1801.19, 15023.23, 33295.56, 0.00, 0.000, 0.000, 0.000, 13:11:36.697
13, 0.00, 28939.43, 16568.16, 10324.02, -1679.93, 15031.75, 33307.47, 0.00, 0.000, 0.000, 0.000, 13:11:36.698
14, 0.00, 28942.96, 16570.96, 10270.69, -1688.47, 15031.55, 33293.73, 0.00, 0.030, -0.038, 0.990, 13:11:36.698
15, 0.00, 28943.81, 16574.87, 10238.69, -1805.44, 15032.06, 33275.91, 0.00, 0.000, 0.000, 0.000, 13:11:36.698
16, 0.00, 28940.19, 16573.62, 10272.03, -1877.84, 15027.66, 33279.24, 0.00, 0.000, 0.000, 0.000, 13:11:36.698
17, 0.00, 28932.46, 16559.13, 10318.71, -1799.58, 15019.77, 33294.89, 0.00, 0.000, 0.000, 0.000, 13:11:36.698
18, 0.00, 28932.97, 16562.96, 10317.43, -1681.68, 15026.72, 33302.89, 0.00, 0.000, 0.000, 0.000, 13:11:36.699
19, 0.00, 28942.67, 16576.01, 10273.58, -1687.82, 15037.05, 33293.32, 0.00, 0.000, 0.000, 0.000, 13:11:36.699
20, 0.00, 28943.68, 16577.80, 10243.87, -1800.81, 15032.71, 33275.87, 0.00, 0.000, 0.000, 0.000, 13:11:36.699
21, 0.00, 28937.97, 16570.31, 10270.04, -1879.45, 15022.79, 33276.05, 0.00, 0.000, 0.000, 0.000, 13:11:36.699
22, 0.00, 28933.35, 16565.08, 10322.88, -1796.92, 15021.80, 33294.53, 0.00, 0.000, 0.000, 0.000, 13:11:36.699
23, 0.00, 28938.54, 16571.05, 10324.81, -1673.63, 15031.91, 33306.63, 0.00, 0.000, 0.000, 0.000, 13:11:36.699
24, 0.00, 28941.46, 16574.13, 10268.12, -1688.76, 15036.53, 33291.78, 0.00, 0.030, -0.032, 0.988, 13:11:36.700
25, 0.00, 28941.39, 16574.62, 10235.29, -1804.21, 15033.76, 33274.39, 0.00, 0.000, 0.000, 0.000, 13:11:36.700
26, 0.00, 28935.74, 16566.58, 10264.28, -1879.25, 15022.00, 33273.88, 0.00, 0.000, 0.000, 0.000, 13:11:36.700
27, 0.00, 28931.34, 16560.68, 10318.46, -1795.87, 15020.06, 33292.12, 0.00, 0.000, 0.000, 0.000, 13:11:36.700
28, 0.00, 28937.66, 16568.39, 10318.08, -1675.87, 15031.68, 33305.21, 0.00, 0.000, 0.000, 0.000, 13:11:36.700
29, 0.00, 28945.29, 16576.93, 10265.58, -1687.91, 15038.81, 33295.14, 0.00, 0.000, 0.000, 0.000, 13:11:36.701
30, 0.00, 28943.88, 16576.93, 10233.97, -1804.55, 15032.26, 33275.73, 0.00, 0.000, 0.000, 0.000, 13:11:36.701
31, 0.00, 28934.69, 16568.99, 10261.37, -1880.45, 15017.94, 33273.01, 0.00, 0.000, 0.000, 0.000, 13:11:36.701
32, 0.00, 28933.62, 16569.08, 10316.40, -1795.54, 15020.44, 33295.74, 0.00, 0.000, 0.000, 0.000, 13:11:36.701
33, 0.00, 28935.09, 16568.39, 10312.60, -1676.45, 15029.33, 33305.13, 0.00, 0.000, 0.000, 0.000, 13:11:36.701
34, 0.00, 28943.07, 16575.34, 10261.04, -1690.10, 15036.69, 33294.04, 0.00, 0.030, -0.036, 0.992, 13:11:36.702
35, 0.00, 28942.47, 16575.67, 10231.11, -1806.11, 15029.74, 33274.73, 0.00, 0.000, 0.000, 0.000, 13:11:36.702
36, 0.00, 28938.06, 16572.19, 10264.84, -1880.09, 15022.56, 33277.37, 0.00, 0.000, 0.000, 0.000, 13:11:36.702
37, 0.00, 28934.24, 16566.20, 10320.56, -1794.49, 15021.02, 33296.95, 0.00, 0.000, 0.000, 0.000, 13:11:36.702
38, 0.00, 28938.71, 16568.30, 10316.69, -1674.08, 15029.18, 33307.63, 0.00, 0.000, 0.000, 0.000, 13:11:36.702
39, 0.00, 28942.96, 16575.58, 10263.54, -1689.95, 15032.04, 33292.25, 0.00, 0.000, 0.000, 0.000, 13:11:36.702
40, 0.00, 28943.68, 16575.70, 10234.59, -1807.92, 15026.70, 33274.15, 0.00, 0.000, 0.000, 0.000, 13:11:36.703
41, 0.00, 28939.12, 16572.14, 10269.22, -1880.14, 15022.90, 33277.30, 0.00, 0.000, 0.000, 0.000, 13:11:36.703
42, 0.00, 28934.73, 16567.13, 10325.14, -1788.56, 15021.29, 33296.81, 0.00, 0.000, 0.000, 0.000, 13:11:36.703
43, 0.00, 28936.54, 16568.68, 10319.98, -1673.05, 15028.04, 33305.08, 0.00, 0.000, 0.000, 0.000, 13:11:36.703
44, 0.00, 28940.46, 16573.62, 10264.95, -1691.65, 15032.13, 33290.11, 0.00, 0.034, -0.036, 0.988, 13:11:36.703
45, 0.00, 28940.50, 16575.34, 10237.12, -1806.87, 15028.13, 33271.89, 0.00, 0.000, 0.000, 0.000, 13:11:36.704
46, 0.00, 28937.33, 16573.64, 10269.20, -1880.01, 15020.01, 33275.44, 0.00, 0.000, 0.000, 0.000, 13:11:36.705
47, 0.00, 28934.38, 16571.36, 10328.20, -1787.29, 15020.91, 33297.01, 0.00, 0.000, 0.000, 0.000, 13:11:36.705
48, 0.00, 28935.07, 16568.63, 10321.39, -1674.64, 15024.37, 33304.59, 0.00, 0.000, 0.000, 0.000, 13:11:36.705
49, 0.00, 28941.73, 16575.29, 10269.17, -1691.33, 15032.84, 33291.58, 0.00, 0.000, 0.000, 0.000, 13:11:36.706
50, 0.00, 28939.76, 16574.18, 10239.18, -1809.75, 15026.09, 33270.86, 0.00, 0.000, 0.000, 0.000, 13:11:36.706
51, 0.00, 28932.83, 16566.82, 10269.35, -1884.90, 15014.63, 33271.46, 0.00, 0.000, 0.000, 0.000, 13:11:36.707
52, 0.00, 28930.33, 16564.05, 10325.14, -1794.76, 15014.67, 33291.71, 0.00, 0.000, 0.000, 0.000, 13:11:36.707
53, 0.00, 28933.91, 16569.59, 10323.40, -1681.39, 15018.47, 33301.50, 0.00, 0.000, 0.000, 0.000, 13:11:36.707
54, 0.00, 28939.67, 16576.30, 10270.63, -1698.71, 15024.48, 33288.25, 0.00, 0.036, -0.036, 0.988, 13:11:36.708
55, 0.00, 28940.61, 16576.97, 10243.54, -1812.32, 15025.76, 33272.74, 0.00, 0.000, 0.000, 0.000, 13:11:36.708
56, 0.00, 28934.29, 16567.83, 10270.31, -1884.03, 15017.35, 33273.72, 0.00, 0.000, 0.000, 0.000, 13:11:36.708
57, 0.00, 28930.33, 16563.49, 10322.66, -1794.82, 15015.92, 33292.52, 0.00, 0.000, 0.000, 0.000, 13:11:36.709
58, 0.00, 28933.57, 16566.15, 10317.99, -1678.30, 15022.79, 33302.11, 0.00, 0.000, 0.000, 0.000, 13:11:36.709
59, 0.00, 28940.01, 16575.45, 10269.75, -1695.54, 15028.11, 33289.41, 0.00, 0.000, 0.000, 0.000, 13:11:36.710
60, 0.00, 28940.28, 16574.69, 10240.07, -1815.99, 15021.62, 33272.31, 0.00, 0.000, 0.000, 0.000, 13:11:36.712
61, 0.00, 28936.32, 16568.48, 10271.01, -1886.26, 15013.73, 33275.64, 0.00, 0.000, 0.000, 0.000, 13:11:36.713
62, 0.00, 28934.64, 16564.16, 10325.23, -1790.58, 15016.30, 33296.27, 0.00, 0.000, 0.000, 0.000, 13:11:36.713
63, 0.00, 28936.59, 16567.18, 10318.26, -1677.95, 15025.04, 33304.39, 0.00, 0.000, 0.000, 0.000, 13:11:36.713
64, 0.00, 28940.01, 16575.29, 10266.96, -1694.75, 15029.31, 33289.32, 0.00, 0.034, -0.028, 0.992, 13:11:36.713
65, 0.00, 28937.97, 16573.10, 10234.24, -1818.31, 15024.37, 33269.54, 0.00, 0.000, 0.000, 0.000, 13:11:36.714
66, 0.00, 28935.45, 16567.74, 10266.78, -1886.29, 15019.10, 33275.06, 0.00, 0.000, 0.000, 0.000, 13:11:36.714
67, 0.00, 28930.94, 16562.35, 10321.32, -1791.83, 15015.86, 33293.95, 0.00, 0.000, 0.000, 0.000, 13:11:36.714
68, 0.00, 28935.58, 16565.46, 10314.82, -1681.07, 15023.10, 33303.56, 0.00, 0.000, 0.000, 0.000, 13:11:36.714
69, 0.00, 28939.94, 16570.40, 10259.34, -1701.84, 15025.47, 33287.78, 0.00, 0.000, 0.000, 0.000, 13:11:36.714
70, 0.00, 28936.54, 16570.46, 10233.21, -1815.83, 15023.79, 33269.45, 0.00, 0.000, 0.000, 0.000, 13:11:36.715
71, 0.00, 28933.57, 16568.10, 10268.39, -1884.68, 15015.83, 33274.08, 0.00, 0.000, 0.000, 0.000, 13:11:36.715
72, 0.00, 28930.55, 16566.02, 10325.79, -1789.64, 15016.42, 33293.95, 0.00, 0.000, 0.000, 0.000, 13:11:36.715
73, 0.00, 28933.28, 16567.36, 10315.91, -1678.71, 15022.18, 33301.21, 0.00, 0.000, 0.000, 0.000, 13:11:36.715
74, 0.00, 28935.40, 16568.12, 10256.86, -1700.32, 15026.36, 33284.38, 0.00, 0.032, -0.034, 0.988, 13:11:36.715
75, 0.00, 28934.94, 16572.07, 10235.04, -1814.81, 15023.63, 33266.19, 0.00, 0.000, 0.000, 0.000, 13:11:36.716
76, 0.00, 28931.05, 16569.91, 10272.10, -1883.94, 15016.19, 33269.54, 0.00, 0.000, 0.000, 0.000, 13:11:36.716
77, 0.00, 28928.52, 16568.21, 10327.78, -1788.01, 15016.93, 33290.60, 0.00, 0.000, 0.000, 0.000, 13:11:36.716
78, 0.00, 28932.46, 16571.27, 10319.91, -1675.02, 15024.31, 33300.79, 0.00, 0.000, 0.000, 0.000, 13:11:36.716
79, 0.00, 28936.99, 16574.91, 10262.76, -1699.00, 15027.84, 33286.15, 0.00, 0.000, 0.000, 0.000, 13:11:36.717
80, 0.00, 28937.19, 16577.80, 10238.95, -1814.60, 15022.76, 33268.02, 0.00, 0.000, 0.000, 0.000, 13:11:36.717
81, 0.00, 28930.55, 16570.76, 10269.73, -1888.19, 15011.07, 33268.87, 0.00, 0.000, 0.000, 0.000, 13:11:36.717
82, 0.00, 28925.53, 16561.48, 10321.03, -1795.78, 15008.64, 33287.42, 0.00, 0.000, 0.000, 0.000, 13:11:36.717
83, 0.00, 28929.44, 16567.47, 10317.81, -1679.53, 15018.43, 33298.38, 0.00, 0.000, 0.000, 0.000, 13:11:36.717
84, 0.00, 28935.00, 16572.79, 10261.53, -1702.29, 15025.54, 33285.17, 0.00, 0.028, -0.036, 0.992, 13:11:36.717
85, 0.00, 28936.68, 16574.38, 10236.88, -1816.28, 15025.94, 33269.30, 0.00, 0.000, 0.000, 0.000, 13:11:36.718
86, 0.00, 28930.96, 16571.90, 10273.69, -1883.38, 15018.63, 33271.49, 0.00, 0.000, 0.000, 0.000, 13:11:36.718
87, 0.00, 28928.34, 16567.58, 10327.94, -1787.02, 15017.94, 33292.54, 0.00, 0.000, 0.000, 0.000, 13:11:36.718
88, 0.00, 28931.07, 16566.98, 10315.51, -1678.03, 15023.28, 33300.93, 0.00, 0.000, 0.000, 0.000, 13:11:36.718
89, 0.00, 28934.58, 16572.79, 10265.17, -1698.49, 15027.43, 33284.32, 0.00, 0.000, 0.000, 0.000, 13:11:36.718
90, 0.00, 28936.37, 16575.20, 10241.81, -1814.63, 15025.27, 33268.74, 0.00, 0.000, 0.000, 0.000, 13:11:37.168
91, 0.00, 28932.95, 16569.59, 10273.15, -1885.46, 15016.53, 33273.52, 0.00, 0.000, 0.000, 0.000, 13:11:37.168
92, 0.00, 28926.62, 16563.04, 10329.72, -1788.27, 15013.55, 33291.20, 0.00, 0.000, 0.000, 0.000, 13:11:37.168
93, 0.00, 28930.64, 16568.21, 10322.64, -1680.23, 15020.64, 33300.43, 0.00, 0.000, 0.000, 0.000, 13:11:37.169
94, 0.00, 28933.75, 16573.77, 10268.79, -1702.96, 15023.86, 33284.20, 0.00, 0.032, -0.036, 0.992, 13:11:37.169
95, 0.00, 28935.03, 16576.39, 10242.46, -1820.64, 15022.36, 33268.76, 0.00, 0.000, 0.000, 0.000, 13:11:37.169
96, 0.00, 28930.71, 16571.27, 10275.50, -1889.33, 15014.74, 33272.76, 0.00, 0.000, 0.000, 0.000, 13:11:37.169
97, 0.00, 28925.88, 16563.63, 10330.71, -1788.30, 15012.50, 33290.46, 0.00, 0.000, 0.000, 0.000, 13:11:37.169
98, 0.00, 28932.19, 16569.62, 10323.64, -1675.51, 15023.32, 33300.97, 0.00, 0.000, 0.000, 0.000, 13:11:37.169
99, 0.00, 28937.10, 16577.60, 10270.63, -1699.69, 15029.94, 33286.71, 0.00, 0.000, 0.000, 0.000, 13:11:37.169
100, 0.00, 28935.83, 16579.79, 10247.92, -1817.71, 15026.29, 33268.98, 0.00, 0.000, 0.000, 0.000, 13:11:37.169
101, 0.00, 28927.43, 16570.24, 10278.34, -1887.63, 15013.98, 33269.09, 0.00, 0.000, 0.000, 0.000, 13:11:37.169
102, 0.00, 28923.92, 16568.23, 10334.06, -1789.53, 15012.39, 33288.63, 0.00, 0.000, 0.000, 0.000, 13:11:37.170
103, 0.00, 28930.55, 16572.63, 10330.04, -1675.29, 15023.14, 33299.63, 0.00, 0.000, 0.000, 0.000, 13:11:37.170
104, 0.00, 28935.12, 16577.33, 10278.20, -1698.11, 15028.37, 33285.52, 0.00, 0.032, -0.036, 0.994, 13:11:37.170
105, 0.00, 28933.42, 16575.14, 10254.89, -1821.15, 15022.23, 33268.31, 0.00, 0.000, 0.000, 0.000, 13:11:37.170
106, 0.00, 28929.19, 16570.42, 10293.38, -1886.29, 15011.30, 33271.55, 0.00, 0.000, 0.000, 0.000, 13:11:37.170
107, 0.00, 28927.00, 16568.30, 10349.66, -1785.70, 15013.62, 33291.34, 0.00, 0.000, 0.000, 0.000, 13:11:37.170
108, 0.00, 28931.70, 16571.27, 10339.25, -1676.27, 15021.78, 33300.23, 0.00, 0.000, 0.000, 0.000, 13:11:37.170
109, 0.00, 28939.56, 16580.93, 10286.56, -1699.60, 15025.45, 33288.47, 0.00, 0.000, 0.000, 0.000, 13:11:37.170
110, 0.00, 28936.75, 16581.37, 10261.51, -1818.92, 15018.58, 33268.94, 0.00, 0.000, 0.000, 0.000, 13:11:37.171
111, 0.00, 28928.90, 16573.64, 10294.61, -1885.64, 15009.17, 33270.55, 0.00, 0.000, 0.000, 0.000, 13:11:37.171
112, 0.00, 28926.15, 16566.93, 10347.83, -1787.83, 15011.77, 33291.13, 0.00, 0.000, 0.000, 0.000, 13:11:37.171
113, 0.00, 28931.61, 16572.95, 10343.63, -1675.87, 15021.89, 33300.99, 0.00, 0.000, 0.000, 0.000, 13:11:37.171
114, 0.00, 28937.19, 16579.92, 10289.42, -1699.89, 15026.72, 33287.09, 0.00, 0.026, -0.034, 0.994, 13:11:37.171
115, 0.00, 28934.64, 16579.54, 10263.54, -1822.94, 15019.10, 33266.82, 0.00, 0.000, 0.000, 0.000, 13:11:37.171
116, 0.00, 28929.55, 16572.57, 10294.18, -1892.46, 15010.63, 33269.41, 0.00, 0.000, 0.000, 0.000, 13:11:37.171
117, 0.00, 28925.39, 16566.55, 10347.14, -1790.13, 15009.60, 33289.59, 0.00, 0.000, 0.000, 0.000, 13:11:37.171
118, 0.00, 28931.47, 16574.78, 10343.96, -1679.22, 15020.24, 33300.16, 0.00, 0.000, 0.000, 0.000, 13:11:37.171
119, 0.00, 28936.28, 16581.89, 10292.42, -1704.50, 15025.83, 33284.05, 0.00, 0.000, 0.000, 0.000, 13:11:37.172
120, 0.00, 28936.46, 16581.08, 10266.74, -1822.96, 15021.42, 33266.79, 0.00, 0.000, 0.000, 0.000, 13:11:37.172
121, 0.00, 28931.63, 16575.90, 10298.81, -1890.20, 15012.41, 33270.64, 0.00, 0.000, 0.000, 0.000, 13:11:37.172
122, 0.00, 28927.98, 16573.64, 10355.88, -1785.32, 15015.92, 33292.72, 0.00, 0.000, 0.000, 0.000, 13:11:37.172
123, 0.00, 28930.76, 16577.71, 10349.44, -1676.54, 15022.29, 33299.36, 0.00, 0.000, 0.000, 0.000, 13:11:37.172
124, 0.00, 28935.14, 16581.44, 10293.54, -1704.90, 15023.93, 33283.98, 0.00, 0.028, -0.030, 0.996, 13:11:37.172
125, 0.00, 28937.30, 16586.63, 10272.84, -1819.12, 15027.39, 33271.38, 0.00, 0.000, 0.000, 0.000, 13:11:37.172
126, 0.00, 28932.90, 16581.53, 10306.12, -1885.79, 15017.64, 33275.46, 0.00, 0.000, 0.000, 0.000, 13:11:37.172
127, 0.00, 28930.42, 16574.00, 10357.66, -1784.47, 15015.88, 33294.18, 0.00, 0.000, 0.000, 0.000, 13:11:37.172
128, 0.00, 28933.10, 16575.23, 10343.31, -1677.48, 15020.17, 33299.89, 0.00, 0.000, 0.000, 0.000, 13:11:37.173
129, 0.00, 28938.22, 16583.41, 10289.36, -1709.17, 15024.26, 33285.66, 0.00, 0.000, 0.000, 0.000, 13:11:37.173
130, 0.00, 28936.28, 16582.74, 10267.65, -1826.65, 15018.11, 33268.16, 0.00, 0.000, 0.000, 0.000, 13:11:37.173
131, 0.00, 28934.67, 16580.17, 10304.76, -1887.98, 15013.69, 33276.18, 0.00, 0.000, 0.000, 0.000, 13:11:37.174
132, 0.00, 28931.22, 16577.28, 10359.45, -1781.77, 15012.97, 33295.56, 0.00, 0.000, 0.000, 0.000, 13:11:37.174
133, 0.00, 28933.13, 16578.36, 10343.58, -1681.90, 15020.06, 33300.81, 0.00, 0.000, 0.000, 0.000, 13:11:37.174
134, 0.00, 28940.08, 16587.74, 10295.30, -1706.96, 15028.28, 33287.96, 0.00, 0.030, -0.032, 0.994, 13:11:37.174
135, 0.00, 28939.92, 16589.11, 10274.07, -1823.01, 15026.16, 33272.56, 0.00, 0.000, 0.000, 0.000, 13:11:37.174
136, 0.00, 28935.20, 16581.37, 10306.41, -1886.24, 15017.58, 33276.27, 0.00, 0.000, 0.000, 0.000, 13:11:37.175
137, 0.00, 28933.39, 16575.96, 10359.03, -1782.48, 15017.18, 33297.26, 0.00, 0.000, 0.000, 0.000, 13:11:37.175
138, 0.00, 28936.63, 16578.49, 10347.70, -1677.57, 15022.85, 33305.73, 0.00, 0.000, 0.000, 0.000, 13:11:37.175
139, 0.00, 28939.79, 16582.29, 10290.65, -1709.19, 15026.09, 33288.77, 0.00, 0.000, 0.000, 0.000, 13:11:37.175
140, 0.00, 28938.78, 16580.88, 10268.01, -1826.61, 15021.38, 33270.66, 0.00, 0.000, 0.000, 0.000, 13:11:37.175
141, 0.00, 28934.09, 16576.63, 10301.94, -1891.56, 15011.52, 33274.21, 0.00, 0.000, 0.000, 0.000, 13:11:37.175
142, 0.00, 28932.88, 16573.08, 10352.05, -1788.07, 15013.17, 33295.65, 0.00, 0.000, 0.000, 0.000, 13:11:37.175
143, 0.00, 28933.06, 16575.18, 10338.24, -1682.82, 15019.43, 33299.34, 0.00, 0.000, 0.000, 0.000, 13:11:37.176
144, 0.00, 28938.15, 16581.98, 10284.73, -1712.95, 15023.81, 33284.96, 0.00, 0.028, -0.032, 0.998, 13:11:37.176
145, 0.00, 28938.47, 16584.90, 10262.71, -1830.65, 15019.37, 33270.10, 0.00, 0.000, 0.000, 0.000, 13:11:37.176
146, 0.00, 28932.79, 16580.59, 10300.56, -1887.07, 15012.55, 33273.16, 0.00, 0.000, 0.000, 0.000, 13:11:37.176
147, 0.00, 28929.26, 16576.01, 10354.18, -1780.25, 15014.20, 33291.54, 0.00, 0.000, 0.000, 0.000, 13:11:37.176
148, 0.00, 28932.37, 16578.67, 10339.83, -1678.71, 15020.26, 33297.77, 0.00, 0.000, 0.000, 0.000, 13:11:37.177
149, 0.00, 28936.81, 16585.69, 10286.27, -1710.74, 15021.29, 33282.62, 0.00, 0.000, 0.000, 0.000, 13:11:37.177
150, 0.00, 28936.66, 16586.47, 10262.20, -1831.99, 15022.56, 33268.43, 0.00, 0.000, 0.000, 0.000, 13:11:37.177
151, 0.00, 28932.81, 16582.45, 10299.55, -1891.32, 15014.87, 33274.64, 0.00, 0.000, 0.000, 0.000, 13:11:37.177
152, 0.00, 28929.13, 16577.06, 10350.96, -1784.92, 15012.41, 33293.59, 0.00, 0.000, 0.000, 0.000, 13:11:37.177
153, 0.00, 28934.51, 16585.17, 10345.46, -1678.59, 15025.51, 33302.80, 0.00, 0.000, 0.000, 0.000, 13:11:37.178
154, 0.00, 28938.06, 16588.41, 10288.82, -1710.38, 15030.18, 33286.48, 0.00, 0.030, -0.034, 0.998, 13:11:37.178
155, 0.00, 28936.08, 16584.61, 10264.59, -1829.31, 15023.63, 33268.27, 0.00, 0.000, 0.000, 0.000, 13:11:37.178
156, 0.00, 28934.36, 16581.22, 10304.11, -1888.88, 15018.34, 33277.23, 0.00, 0.000, 0.000, 0.000, 13:11:37.178
157, 0.00, 28928.14, 16576.97, 10355.43, -1785.17, 15013.20, 33294.11, 0.00, 0.000, 0.000, 0.000, 13:11:37.178
158, 0.00, 28934.64, 16579.54, 10344.48, -1679.22, 15021.51, 33303.74, 0.00, 0.000, 0.000, 0.000, 13:11:37.179
159, 0.00, 28940.26, 16582.92, 10291.46, -1710.44, 15025.38, 33288.99, 0.00, 0.000, 0.000, 0.000, 13:11:37.179
160, 0.00, 28940.66, 16585.96, 10270.85, -1830.47, 15021.76, 33273.30, 0.00, 0.000, 0.000, 0.000, 13:11:37.179
161, 0.00, 28934.31, 16579.72, 10307.17, -1892.28, 15013.84, 33276.47, 0.00, 0.000, 0.000, 0.000, 13:11:37.180
162, 0.00, 28929.82, 16573.28, 10361.22, -1782.53, 15009.29, 33293.50, 0.00, 0.000, 0.000, 0.000, 13:11:37.180
163, 0.00, 28933.62, 16577.64, 10348.25, -1682.39, 15017.78, 33300.03, 0.00, 0.000, 0.000, 0.000, 13:11:37.180
164, 0.00, 28938.24, 16586.13, 10294.95, -1715.54, 15025.54, 33284.90, 0.00, 0.028, -0.030, 0.996, 13:11:37.180
165, 0.00, 28933.24, 16582.11, 10269.04, -1837.81, 15017.20, 33264.45, 0.00, 0.000, 0.000, 0.000, 13:11:37.180
166, 0.00, 28927.60, 16574.02, 10308.00, -1895.38, 15008.23, 33269.27, 0.00, 0.000, 0.000, 0.000, 13:11:37.180
167, 0.00, 28927.18, 16573.71, 10365.11, -1783.49, 15010.27, 33291.87, 0.00, 0.000, 0.000, 0.000, 13:11:37.181
168, 0.00, 28929.59, 16576.63, 10346.53, -1685.25, 15018.09, 33297.39, 0.00, 0.000, 0.000, 0.000, 13:11:37.181
169, 0.00, 28935.18, 16582.51, 10291.59, -1716.50, 15022.81, 33281.84, 0.00, 0.000, 0.000, 0.000, 13:11:37.181
170, 0.00, 28934.42, 16581.26, 10268.84, -1833.87, 15015.92, 33265.65, 0.00, 0.000, 0.000, 0.000, 13:11:37.181
171, 0.00, 28932.07, 16580.48, 10309.34, -1893.33, 15007.88, 33272.85, 0.00, 0.000, 0.000, 0.000, 13:11:37.182
172, 0.00, 28928.43, 16576.81, 10362.72, -1784.50, 15009.00, 33292.77, 0.00, 0.000, 0.000, 0.000, 13:11:37.182
173, 0.00, 28932.46, 16581.66, 10346.64, -1684.45, 15018.34, 33299.65, 0.00, 0.000, 0.000, 0.000, 13:11:37.182
174, 0.00, 28934.82, 16585.22, 10290.54, -1720.44, 15021.38, 33281.37, 0.00, 0.030, -0.026, 0.992, 13:11:37.182
175, 0.00, 28936.30, 16585.04, 10269.35, -1836.49, 15020.73, 33267.60, 0.00, 0.000, 0.000, 0.000, 13:11:37.183
176, 0.00, 28931.83, 16579.61, 10306.79, -1891.52, 15010.45, 33273.23, 0.00, 0.000, 0.000, 0.000, 13:11:37.183
177, 0.00, 28929.68, 16578.58, 10362.13, -1778.51, 15011.74, 33294.46, 0.00, 0.000, 0.000, 0.000, 13:11:37.183
178, 0.00, 28934.47, 16582.76, 10347.92, -1679.35, 15022.27, 33301.91, 0.00, 0.000, 0.000, 0.000, 13:11:37.183
179, 0.00, 28938.82, 16589.04, 10295.79, -1712.90, 15029.98, 33285.84, 0.00, 0.000, 0.000, 0.000, 13:11:37.183
180, 0.00, 28936.93, 16587.59, 10281.09, -1829.53, 15025.47, 33268.69, 0.00, 0.000, 0.000, 0.000, 13:11:37.184
181, 0.00, 28928.07, 16576.63, 10320.00, -1892.32, 15013.06, 33270.28, 0.00, 0.000, 0.000, 0.000, 13:11:37.184
182, 0.00, 28926.08, 16573.75, 10374.90, -1781.64, 15012.41, 33289.93, 0.00, 0.000, 0.000, 0.000, 13:11:37.184
183, 0.00, 28932.14, 16579.38, 10365.29, -1682.51, 15020.17, 33298.87, 0.00, 0.000, 0.000, 0.000, 13:11:37.184
184, 0.00, 28937.60, 16585.96, 10316.98, -1713.28, 15025.62, 33284.59, 0.00, 0.028, -0.034, 0.992, 13:11:37.184
185, 0.00, 28936.72, 16585.02, 10294.39, -1833.00, 15020.08, 33268.00, 0.00, 0.000, 0.000, 0.000, 13:11:37.185
186, 0.00, 28931.85, 16579.16, 10330.19, -1892.46, 15011.01, 33274.35, 0.00, 0.000, 0.000, 0.000, 13:11:37.185
187, 0.00, 28926.53, 16574.27, 10381.58, -1786.06, 15006.80, 33291.80, 0.00, 0.000, 0.000, 0.000, 13:11:37.185
188, 0.00, 28934.51, 16581.95, 10366.22, -1687.71, 15016.73, 33301.37, 0.00, 0.000, 0.000, 0.000, 13:11:37.185
189, 0.00, 28938.78, 16588.55, 10312.60, -1718.76, 15021.06, 33286.33, 0.00, 0.000, 0.000, 0.000, 13:11:37.185
190, 0.00, 28935.85, 16587.65, 10289.56, -1838.83, 15011.99, 33268.25, 0.00, 0.000, 0.000, 0.000, 13:11:37.185
191, 0.00, 28928.50, 16576.34, 10319.04, -1900.70, 15004.43, 33270.82, 0.00, 0.000, 0.000, 0.000, 13:11:37.186
192, 0.00, 28927.25, 16572.48, 10367.54, -1788.85, 15007.59, 33292.23, 0.00, 0.000, 0.000, 0.000, 13:11:37.186
193, 0.00, 28934.67, 16579.54, 10353.28, -1686.57, 15017.42, 33302.20, 0.00, 0.000, 0.000, 0.000, 13:11:37.189
194, 0.00, 28938.71, 16586.27, 10301.94, -1720.99, 15024.53, 33286.08, 0.00, 0.026, -0.034, 0.994, 13:11:37.189
195, 0.00, 28938.60, 16588.66, 10286.25, -1838.16, 15020.06, 33269.88, 0.00, 0.000, 0.000, 0.000, 13:11:37.190
196, 0.00, 28933.64, 16582.24, 10323.17, -1892.28, 15010.74, 33275.11, 0.00, 0.000, 0.000, 0.000, 13:11:37.190
197, 0.00, 28926.98, 16574.89, 10368.62, -1783.89, 15006.56, 33290.71, 0.00, 0.000, 0.000, 0.000, 13:11:37.190
198, 0.00, 28931.40, 16576.23, 10345.71, -1689.95, 15013.53, 33295.85, 0.00, 0.000, 0.000, 0.000, 13:11:37.190
199, 0.00, 28937.93, 16585.17, 10295.75, -1724.73, 15018.99, 33281.66, 0.00, 0.000, 0.000, 0.000, 13:11:37.190
200, 0.00, 28936.75, 16586.13, 10278.74, -1841.43, 15014.61, 33266.01, 0.00, 0.000, 0.000, 0.000, 13:11:37.191
201, 0.00, 28934.02, 16585.20, 10319.49, -1893.68, 15010.83, 33274.66, 0.00, 0.000, 0.000, 0.000, 13:11:37.191
202, 0.00, 28928.61, 16577.91, 10365.38, -1784.00, 15007.81, 33291.13, 0.00, 0.000, 0.000, 0.000, 13:11:37.191
203, 0.00, 28931.18, 16580.59, 10343.40, -1687.58, 15016.64, 33296.81, 0.00, 0.000, 0.000, 0.000, 13:11:37.191
204, 0.00, 28936.54, 16587.86, 10288.13, -1721.75, 15023.37, 33281.21, 0.00, 0.032, -0.034, 1.000, 13:11:37.191
205, 0.00, 28934.40, 16585.69, 10268.28, -1840.71, 15018.63, 33262.99, 0.00, 0.000, 0.000, 0.000, 13:11:37.191
206, 0.00, 28930.00, 16580.05, 10306.97, -1892.63, 15011.07, 33269.79, 0.00, 0.000, 0.000, 0.000, 13:11:37.192
207, 0.00, 28926.64, 16579.12, 10361.15, -1779.89, 15009.11, 33289.97, 0.00, 0.000, 0.000, 0.000, 13:11:37.192
208, 0.00, 28933.71, 16587.23, 10347.65, -1681.66, 15019.17, 33298.20, 0.00, 0.000, 0.000, 0.000, 13:11:37.192
209, 0.00, 28934.42, 16587.27, 10287.14, -1721.89, 15021.74, 33278.86, 0.00, 0.000, 0.000, 0.000, 13:11:37.192
210, 0.00, 28932.50, 16583.05, 10263.83, -1843.46, 15018.18, 33262.21, 0.00, 0.000, 0.000, 0.000, 13:11:37.650
211, 0.00, 28932.16, 16584.30, 10308.29, -1891.81, 15013.26, 33273.32, 0.00, 0.000, 0.000, 0.000, 13:11:37.650
212, 0.00, 28926.84, 16576.63, 10359.27, -1779.36, 15009.78, 33289.97, 0.00, 0.000, 0.000, 0.000, 13:11:37.650
213, 0.00, 28931.74, 16578.69, 10338.55, -1691.96, 15014.69, 33295.94, 0.00, 0.000, 0.000, 0.000, 13:11:37.650
214, 0.00, 28935.29, 16583.76, 10284.89, -1730.67, 15018.65, 33279.82, 0.00, 0.030, -0.034, 0.992, 13:11:37.650
215, 0.00, 28935.34, 16585.60, 10275.63, -1843.55, 15015.43, 33265.65, 0.00, 0.000, 0.000, 0.000, 13:11:37.650
216, 0.00, 28930.67, 16580.72, 10316.67, -1897.53, 15007.90, 33272.09, 0.00, 0.000, 0.000, 0.000, 13:11:37.650
217, 0.00, 28927.09, 16576.95, 10367.36, -1780.50, 15009.38, 33291.83, 0.00, 0.000, 0.000, 0.000, 13:11:37.650
218, 0.00, 28930.76, 16580.21, 10346.47, -1684.34, 15016.64, 33296.50, 0.00, 0.000, 0.000, 0.000, 13:11:37.651
219, 0.00, 28934.33, 16584.55, 10292.49, -1725.51, 15018.87, 33277.68, 0.00, 0.000, 0.000, 0.000, 13:11:37.651
220, 0.00, 28933.42, 16582.94, 10275.14, -1844.00, 15011.63, 33261.32, 0.00, 0.000, 0.000, 0.000, 13:11:37.651
221, 0.00, 28928.70, 16578.65, 10315.42, -1894.71, 15007.45, 33267.96, 0.00, 0.000, 0.000, 0.000, 13:11:37.651
222, 0.00, 28923.92, 16577.13, 10368.35, -1780.58, 15011.07, 33288.05, 0.00, 0.000, 0.000, 0.000, 13:11:37.651
223, 0.00, 28926.49, 16578.00, 10348.72, -1686.26, 15016.17, 33293.21, 0.00, 0.000, 0.000, 0.000, 13:11:37.651
224, 0.00, 28932.54, 16581.66, 10291.41, -1727.12, 15016.50, 33278.10, 0.00, 0.030, -0.030, 0.984, 13:11:37.651
225, 0.00, 28932.97, 16585.73, 10274.45, -1847.10, 15013.51, 33262.43, 0.00, 0.000, 0.000, 0.000, 13:11:37.651
226, 0.00, 28924.83, 16582.49, 10314.88, -1894.27, 15009.11, 33267.29, 0.00, 0.000, 0.000, 0.000, 13:11:37.652
227, 0.00, 28922.49, 16576.57, 10367.43, -1777.57, 15010.87, 33288.23, 0.00, 0.000, 0.000, 0.000, 13:11:37.652
228, 0.00, 28930.78, 16580.86, 10353.01, -1683.62, 15020.28, 33296.66, 0.00, 0.000, 0.000, 0.000, 13:11:37.652
229, 0.00, 28935.00, 16584.28, 10296.55, -1723.19, 15022.34, 33279.31, 0.00, 0.000, 0.000, 0.000, 13:11:37.652
230, 0.00, 28932.16, 16584.01, 10277.51, -1844.69, 15014.25, 33261.25, 0.00, 0.000, 0.000, 0.000, 13:11:37.652
231, 0.00, 28928.70, 16582.80, 10318.53, -1896.79, 15007.59, 33270.21, 0.00, 0.000, 0.000, 0.000, 13:11:37.652
232, 0.00, 28927.43, 16580.17, 10366.47, -1778.91, 15008.03, 33292.23, 0.00, 0.000, 0.000, 0.000, 13:11:37.652
233, 0.00, 28931.63, 16584.12, 10341.62, -1689.66, 15014.69, 33298.38, 0.00, 0.000, 0.000, 0.000, 13:11:37.652
234, 0.00, 28932.75, 16585.87, 10281.91, -1731.52, 15015.81, 33279.38, 0.00, 0.028, -0.034, 0.990, 13:11:37.653
235, 0.00, 28931.63, 16584.95, 10265.46, -1849.88, 15012.12, 33264.00, 0.00, 0.000, 0.000, 0.000, 13:11:37.653
236, 0.00, 28928.01, 16580.54, 10308.31, -1901.69, 15005.98, 33272.09, 0.00, 0.000, 0.000, 0.000, 13:11:37.653
237, 0.00, 28924.05, 16575.34, 10358.29, -1785.61, 15005.35, 33290.15, 0.00, 0.000, 0.000, 0.000, 13:11:37.653
238, 0.00, 28926.71, 16580.08, 10341.15, -1691.58, 15012.50, 33294.55, 0.00, 0.000, 0.000, 0.000, 13:11:37.653
239, 0.00, 28932.46, 16586.67, 10289.83, -1729.06, 15018.27, 33279.45, 0.00, 0.000, 0.000, 0.000, 13:11:37.653
240, 0.00, 28930.04, 16584.48, 10269.82, -1849.03, 15013.31, 33261.61, 0.00, 0.000, 0.000, 0.000, 13:11:37.653
241, 0.00, 28923.74, 16578.58, 10306.46, -1901.11, 15003.52, 33265.63, 0.00, 0.000, 0.000, 0.000, 13:11:37.653
242, 0.00, 28922.60, 16576.43, 10354.20, -1784.99, 15002.38, 33286.24, 0.00, 0.000, 0.000, 0.000, 13:11:37.654
243, 0.00, 28925.19, 16580.75, 10332.96, -1691.16, 15013.46, 33290.98, 0.00, 0.000, 0.000, 0.000, 13:11:37.654
244, 0.00, 28928.70, 16587.74, 10277.47, -1734.03, 15017.80, 33272.92, 0.00, 0.030, -0.028, 0.992, 13:11:37.654
245, 0.00, 28927.16, 16585.78, 10262.02, -1851.69, 15012.48, 33257.79, 0.00, 0.000, 0.000, 0.000, 13:11:37.654
246, 0.00, 28921.59, 16578.82, 10299.10, -1900.81, 15005.84, 33264.67, 0.00, 0.000, 0.000, 0.000, 13:11:37.654
247, 0.00, 28917.32, 16573.71, 10349.30, -1782.75, 15005.15, 33282.98, 0.00, 0.000, 0.000, 0.000, 13:11:37.654
248, 0.00, 28922.31, 16576.08, 10324.05, -1695.83, 15012.30, 33288.70, 0.00, 0.000, 0.000, 0.000, 13:11:37.654
249, 0.00, 28926.87, 16584.37, 10271.16, -1738.07, 15015.92, 33271.49, 0.00, 0.000, 0.000, 0.000, 13:11:37.654
250, 0.00, 28927.47, 16589.93, 10265.53, -1851.51, 15013.22, 33257.63, 0.00, 0.000, 0.000, 0.000, 13:11:37.655
251, 0.00, 28923.94, 16585.62, 10306.72, -1898.62, 15007.43, 33266.88, 0.00, 0.000, 0.000, 0.000, 13:11:37.655
252, 0.00, 28923.69, 16582.74, 10354.18, -1781.01, 15008.44, 33289.41, 0.00, 0.000, 0.000, 0.000, 13:11:37.655
253, 0.00, 28928.10, 16584.68, 10330.04, -1693.23, 15012.88, 33294.40, 0.00, 0.000, 0.000, 0.000, 13:11:37.655
254, 0.00, 28930.49, 16587.50, 10271.86, -1740.33, 15014.09, 33276.02, 0.00, 0.034, -0.034, 0.988, 13:11:37.655
255, 0.00, 28927.76, 16584.68, 10251.38, -1859.33, 15007.03, 33258.75, 0.00, 0.000, 0.000, 0.000, 13:11:37.655
0, 0.00, 28923.74, 16579.16, 10289.49, -1907.30, 15001.53, 33264.96, 0.00, 0.000, 0.000, 0.000, 13:11:37.655
1, 0.00, 28924.32, 16580.21, 10344.72, -1785.48, 15004.70, 33287.13, 0.00, 0.000, 0.000, 0.000, 13:11:37.655
2, 0.00, 28927.31, 16581.11, 10319.40, -1697.01, 15010.56, 33290.89, 0.00, 0.000, 0.000, 0.000, 13:11:37.656
3, 0.00, 28928.05, 16582.22, 10257.21, -1745.51, 15014.94, 33271.22, 0.00, 0.000, 0.000, 0.000, 13:11:37.656
4, 0.00, 28929.57, 16590.40, 10253.86, -1856.11, 15013.15, 33259.84, 0.00, 0.000, 0.000, 0.000, 13:11:37.656
5, 0.00, 28925.68, 16585.08, 10294.16, -1901.93, 15008.59, 33266.86, 0.00, 0.000, 0.000, 0.000, 13:11:37.656
6, 0.00, 28920.77, 16577.53, 10342.55, -1782.46, 15007.97, 33284.38, 0.00, 0.000, 0.000, 0.000, 13:11:37.656
7, 0.00, 28924.92, 16584.84, 10326.26, -1691.42, 15017.53, 33290.24, 0.00, 0.000, 0.000, 0.000, 13:11:37.656
8, 0.00, 28928.61, 16586.65, 10266.71, -1734.81, 15020.84, 33273.30, 0.00, 0.036, -0.034, 0.986, 13:11:37.656
9, 0.00, 28927.27, 16584.86, 10247.98, -1854.46, 15015.48, 33258.46, 0.00, 0.000, 0.000, 0.000, 13:11:37.656
10, 0.00, 28922.24, 16580.43, 10291.41, -1900.93, 15009.29, 33266.48, 0.00, 0.000, 0.000, 0.000, 13:11:37.656
11, 0.00, 28918.66, 16575.45, 10336.76, -1782.26, 15008.44, 33286.06, 0.00, 0.000, 0.000, 0.000, 13:11:37.657
12, 0.00, 28922.75, 16576.93, 10310.39, -1697.82, 15012.39, 33289.55, 0.00, 0.000, 0.000, 0.000, 13:11:37.657
13, 0.00, 28928.10, 16582.85, 10256.30, -1741.69, 15014.49, 33273.43, 0.00, 0.000, 0.000, 0.000, 13:11:37.657
14, 0.00, 28926.42, 16581.84, 10241.66, -1861.36, 15009.58, 33258.01, 0.00, 0.000, 0.000, 0.000, 13:11:37.657
15, 0.00, 28921.77, 16573.35, 10273.02, -1911.79, 15002.51, 33265.86, 0.00, 0.000, 0.000, 0.000, 13:11:37.657
16, 0.00, 28922.40, 16574.04, 10327.04, -1785.70, 15006.38, 33288.30, 0.00, 0.000, 0.000, 0.000, 13:11:37.657
17, 0.00, 28928.52, 16581.66, 10310.03, -1694.82, 15016.95, 33293.95, 0.00, 0.000, 0.000, 0.000, 13:11:37.657
18, 0.00, 28931.27, 16589.04, 10263.88, -1738.12, 15020.77, 33276.00, 0.00, 0.038, -0.030, 0.992, 13:11:37.657
19, 0.00, 28928.65, 16587.41, 10254.91, -1858.30, 15012.68, 33259.89, 0.00, 0.000, 0.000, 0.000, 13:11:37.658
20, 0.00, 28921.68, 16577.73, 10293.00, -1905.40, 15002.11, 33264.78, 0.00, 0.000, 0.000, 0.000, 13:11:37.658
21, 0.00, 28921.26, 16577.26, 10344.19, -1781.12, 15004.35, 33287.13, 0.00, 0.000, 0.000, 0.000, 13:11:37.658
22, 0.00, 28927.92, 16584.23, 10319.60, -1697.08, 15014.99, 33293.82, 0.00, 0.000, 0.000, 0.000, 13:11:37.658
23, 0.00, 28932.83, 16587.52, 10265.11, -1740.28, 15016.04, 33276.79, 0.00, 0.000, 0.000, 0.000, 13:11:37.658
24, 0.00, 28931.27, 16582.29, 10245.17, -1860.85, 15009.35, 33260.11, 0.00, 0.000, 0.000, 0.000, 13:11:37.658
25, 0.00, 28924.21, 16577.01, 10287.75, -1906.60, 15004.14, 33266.08, 0.00, 0.000, 0.000, 0.000, 13:11:37.658
26, 0.00, 28920.94, 16576.66, 10342.87, -1785.26, 15004.52, 33284.41, 0.00, 0.000, 0.000, 0.000, 13:11:37.658
27, 0.00, 28925.75, 16583.29, 10322.46, -1697.06, 15014.76, 33288.77, 0.00, 0.000, 0.000, 0.000, 13:11:37.658
28, 0.00, 28931.09, 16587.05, 10267.03, -1741.11, 15018.34, 33272.87, 0.00, 0.030, -0.034, 0.990, 13:11:37.659
29, 0.00, 28927.52, 16582.58, 10248.59, -1864.72, 15009.62, 33256.51, 0.00, 0.000, 0.000, 0.000, 13:11:37.659
30, 0.00, 28923.40, 16580.59, 10294.65, -1906.45, 15003.85, 33265.12, 0.00, 0.000, 0.000, 0.000, 13:11:37.659
31, 0.00, 28921.21, 16577.51, 10344.12, -1786.28, 15005.33, 33285.05, 0.00, 0.000, 0.000, 0.000, 13:11:37.659
32, 0.00, 28925.48, 16579.36, 10319.51, -1700.36, 15014.99, 33289.14, 0.00, 0.000, 0.000, 0.000, 13:11:37.659
33, 0.00, 28929.75, 16582.49, 10264.59, -1745.11, 15019.21, 33272.87, 0.00, 0.000, 0.000, 0.000, 13:11:37.659
34, 0.00, 28927.36, 16582.11, 10250.51, -1860.72, 15012.39, 33258.30, 0.00, 0.000, 0.000, 0.000, 13:11:37.659
35, 0.00, 28924.12, 16577.97, 10289.65, -1907.23, 15003.97, 33268.85, 0.00, 0.000, 0.000, 0.000, 13:11:37.660
36, 0.00, 28922.44, 16575.79, 10341.95, -1784.50, 15004.10, 33289.23, 0.00, 0.000, 0.000, 0.000, 13:11:37.660
37, 0.00, 28929.46, 16582.38, 10323.17, -1698.33, 15014.36, 33295.34, 0.00, 0.000, 0.000, 0.000, 13:11:37.660
38, 0.00, 28933.17, 16586.31, 10269.06, -1744.37, 15017.94, 33277.57, 0.00, 0.034, -0.030, 0.986, 13:11:37.660
39, 0.00, 28930.22, 16585.75, 10254.40, -1864.34, 15011.41, 33261.92, 0.00, 0.000, 0.000, 0.000, 13:11:37.660
40, 0.00, 28924.47, 16580.28, 10292.26, -1910.22, 15004.03, 33268.36, 0.00, 0.000, 0.000, 0.000, 13:11:37.660
41, 0.00, 28923.47, 16576.52, 10338.24, -1788.39, 15004.39, 33288.74, 0.00, 0.000, 0.000, 0.000, 13:11:37.660
42, 0.00, 28925.97, 16576.63, 10312.42, -1705.53, 15009.96, 33291.20, 0.00, 0.000, 0.000, 0.000, 13:11:37.660
43, 0.00, 28931.38, 16585.06, 10260.79, -1755.01, 15015.28, 33274.84, 0.00, 0.000, 0.000, 0.000, 13:11:37.661
44, 0.00, 28930.46, 16587.94, 10253.06, -1867.38, 15010.69, 33261.81, 0.00, 0.000, 0.000, 0.000, 13:11:37.661
45, 0.00, 28924.97, 16583.18, 10294.90, -1908.64, 15003.99, 33270.48, 0.00, 0.000, 0.000, 0.000, 13:11:37.661
46, 0.00, 28923.09, 16578.60, 10339.38, -1786.78, 15005.37, 33290.42, 0.00, 0.000, 0.000, 0.000, 13:11:37.661
47, 0.00, 28928.19, 16581.48, 10315.22, -1703.63, 15013.42, 33294.71, 0.00, 0.000, 0.000, 0.000, 13:11:37.661
48, 0.00, 28931.07, 16587.34, 10264.10, -1751.51, 15015.63, 33276.72, 0.00, 0.034, -0.030, 0.986, 13:11:37.662
49, 0.00, 28929.30, 16587.70, 10251.87, -1868.18, 15010.00, 33262.05, 0.00, 0.000, 0.000, 0.000, 13:11:37.662
50, 0.00, 28922.71, 16581.66, 10293.51, -1908.37, 15003.34, 33268.49, 0.00, 0.000, 0.000, 0.000, 13:11:37.662
51, 0.00, 28921.66, 16581.28, 10340.88, -1784.36, 15006.63, 33289.43, 0.00, 0.000, 0.000, 0.000, 13:11:37.662
52, 0.00, 28926.06, 16587.38, 10317.39, -1702.20, 15015.88, 33292.48, 0.00, 0.000, 0.000, 0.000, 13:11:37.662
53, 0.00, 28930.06, 16591.10, 10263.83, -1749.27, 15018.94, 33274.73, 0.00, 0.000, 0.000, 0.000, 13:11:37.662
54, 0.00, 28927.65, 16590.34, 10248.36, -1868.29, 15011.16, 33258.46, 0.00, 0.000, 0.000, 0.000, 13:11:37.662
55, 0.00, 28919.60, 16583.27, 10286.72, -1909.73, 15004.08, 33263.35, 0.00, 0.000, 0.000, 0.000, 13:11:37.662
56, 0.00, 28917.88, 16583.29, 10340.88, -1780.92, 15004.90, 33283.00, 0.00, 0.000, 0.000, 0.000, 13:11:37.663
57, 0.00, 28922.55, 16589.78, 10317.65, -1701.19, 15012.28, 33287.25, 0.00, 0.000, 0.000, 0.000, 13:11:37.663
58, 0.00, 28927.80, 16594.29, 10263.72, -1751.15, 15018.32, 33271.06, 0.00, 0.034, -0.032, 0.988, 13:11:37.663
59, 0.00, 28927.54, 16593.91, 10252.77, -1864.96, 15014.99, 33258.63, 0.00, 0.000, 0.000, 0.000, 13:11:37.663
60, 0.00, 28924.34, 16588.77, 10293.40, -1904.99, 15007.79, 33268.52, 0.00, 0.000, 0.000, 0.000, 13:11:37.663
61, 0.00, 28921.48, 16584.10, 10338.53, -1780.00, 15008.03, 33286.24, 0.00, 0.000, 0.000, 0.000, 13:11:37.663
62, 0.00, 28925.12, 16586.51, 10308.13, -1704.45, 15013.06, 33287.65, 0.00, 0.000, 0.000, 0.000, 13:11:37.663
63, 0.00, 28929.39, 16592.44, 10257.91, -1750.52, 15016.30, 33270.17, 0.00, 0.000, 0.000, 0.000, 13:11:37.663
64, 0.00, 28928.99, 16594.02, 10248.74, -1866.84, 15012.95, 33256.89, 0.00, 0.000, 0.000, 0.000, 13:11:37.663
65, 0.00, 28924.25, 16588.01, 10290.03, -1904.73, 15004.43, 33265.61, 0.00, 0.000, 0.000, 0.000, 13:11:37.664
66, 0.00, 28923.34, 16585.29, 10335.09, -1781.37, 15006.45, 33286.02, 0.00, 0.000, 0.000, 0.000, 13:11:37.664
67, 0.00, 28926.58, 16588.55, 10305.56, -1704.90, 15013.17, 33287.51, 0.00, 0.000, 0.000, 0.000, 13:11:37.664
68, 0.00, 28933.06, 16595.07, 10254.42, -1750.72, 15016.73, 33271.60, 0.00, 0.038, -0.038, 0.992, 13:11:37.664
69, 0.00, 28931.29, 16593.87, 10241.66, -1869.77, 15009.73, 33257.23, 0.00, 0.000, 0.000, 0.000, 13:11:37.664
70, 0.00, 28927.04, 16588.03, 10284.28, -1907.50, 15002.38, 33266.39, 0.00, 0.000, 0.000, 0.000, 13:11:37.664
71, 0.00, 28924.27, 16585.73, 10332.90, -1779.71, 15005.04, 33285.12, 0.00, 0.000, 0.000, 0.000, 13:11:37.664
72, 0.00, 28926.62, 16587.52, 10303.57, -1701.17, 15011.97, 33286.60, 0.00, 0.000, 0.000, 0.000, 13:11:37.664
73, 0.00, 28931.25, 16593.31, 10247.83, -1751.64, 15015.03, 33270.82, 0.00, 0.000, 0.000, 0.000, 13:11:37.665
74, 0.00, 28929.73, 16597.98, 10240.45, -1868.09, 15008.23, 33258.25, 0.00, 0.000, 0.000, 0.000, 13:11:38.130
75, 0.00, 28924.41, 16589.17, 10284.04, -1904.79, 14998.96, 33266.10, 0.00, 0.000, 0.000, 0.000, 13:11:38.130
76, 0.00, 28920.12, 16585.71, 10331.29, -1778.22, 15002.67, 33283.29, 0.00, 0.000, 0.000, 0.000, 13:11:38.130
77, 0.00, 28922.46, 16591.77, 10302.63, -1703.43, 15008.48, 33283.36, 0.00, 0.000, 0.000, 0.000, 13:11:38.130
78, 0.00, 28928.03, 16598.27, 10249.33, -1752.87, 15012.62, 33267.15, 0.00, 0.036, -0.032, 0.994, 13:11:38.130
79, 0.00, 28924.88, 16595.59, 10233.81, -1873.55, 15004.46, 33251.75, 0.00, 0.000, 0.000, 0.000, 13:11:38.130
80, 0.00, 28920.25, 16590.34, 10275.95, -1909.00, 14999.00, 33260.91, 0.00, 0.000, 0.000, 0.000, 13:11:38.130
81, 0.00, 28918.44, 16588.55, 10322.15, -1780.85, 15002.04, 33281.43, 0.00, 0.000, 0.000, 0.000, 13:11:38.130
82, 0.00, 28921.37, 16591.61, 10294.10, -1703.49, 15010.11, 33283.51, 0.00, 0.000, 0.000, 0.000, 13:11:38.130
83, 0.00, 28924.86, 16595.77, 10241.64, -1754.77, 15011.01, 33265.56, 0.00, 0.000, 0.000, 0.000, 13:11:38.130
84, 0.00, 28921.32, 16590.38, 10227.24, -1875.13, 15000.57, 33248.87, 0.00, 0.000, 0.000, 0.000, 13:11:38.131
85, 0.00, 28917.41, 16586.51, 10268.82, -1913.80, 14993.73, 33259.64, 0.00, 0.000, 0.000, 0.000, 13:11:38.132
86, 0.00, 28915.09, 16585.62, 10317.77, -1787.45, 14994.96, 33278.13, 0.00, 0.000, 0.000, 0.000, 13:11:38.132
87, 0.00, 28920.50, 16590.31, 10289.54, -1708.59, 15003.59, 33281.12, 0.00, 0.000, 0.000, 0.000, 13:11:38.132
88, 0.00, 28927.09, 16598.05, 10236.94, -1759.24, 15010.11, 33267.20, 0.00, 0.034, -0.032, 0.992, 13:11:38.132
89, 0.00, 28925.86, 16597.98, 10227.46, -1876.74, 15006.04, 33254.95, 0.00, 0.000, 0.000, 0.000, 13:11:38.132
90, 0.00, 28920.05, 16589.42, 10267.47, -1912.28, 14998.04, 33262.99, 0.00, 0.000, 0.000, 0.000, 13:11:38.132
91, 0.00, 28917.10, 16586.02, 10313.52, -1785.77, 14999.79, 33281.59, 0.00, 0.000, 0.000, 0.000, 13:11:38.132
92, 0.00, 28924.63, 16594.98, 10289.87, -1706.98, 15010.56, 33288.09, 0.00, 0.000, 0.000, 0.000, 13:11:38.132
93, 0.00, 28926.58, 16596.13, 10235.78, -1761.59, 15010.94, 33268.98, 0.00, 0.000, 0.000, 0.000, 13:11:38.132
94, 0.00, 28926.02, 16596.46, 10232.87, -1874.51, 15009.04, 33256.11, 0.00, 0.000, 0.000, 0.000, 13:11:38.133
95, 0.00, 28922.26, 16594.00, 10277.22, -1908.75, 15002.42, 33266.28, 0.00, 0.000, 0.000, 0.000, 13:11:38.133
96, 0.00, 28917.10, 16589.22, 10319.46, -1785.37, 15000.01, 33282.28, 0.00, 0.000, 0.000, 0.000, 13:11:38.133
97, 0.00, 28922.40, 16594.90, 10289.56, -1710.49, 15007.36, 33285.93, 0.00, 0.000, 0.000, 0.000, 13:11:38.133
98, 0.00, 28927.54, 16601.11, 10238.69, -1760.13, 15012.53, 33269.36, 0.00, 0.028, -0.036, 0.990, 13:11:38.133
99, 0.00, 28923.45, 16597.91, 10227.20, -1878.93, 15003.34, 33252.58, 0.00, 0.000, 0.000, 0.000, 13:11:38.133
100, 0.00, 28917.37, 16591.70, 10269.78, -1917.11, 14993.48, 33261.16, 0.00, 0.000, 0.000, 0.000, 13:11:38.133
101, 0.00, 28914.35, 16587.70, 10313.68, -1791.11, 14994.96, 33279.67, 0.00, 0.000, 0.000, 0.000, 13:11:38.133
102, 0.00, 28922.51, 16594.29, 10287.14, -1712.72, 15007.27, 33285.08, 0.00, 0.000, 0.000, 0.000, 13:11:38.133
103, 0.00, 28925.50, 16596.64, 10232.32, -1767.87, 15007.54, 33266.52, 0.00, 0.000, 0.000, 0.000, 13:11:38.133
104, 0.00, 28921.84, 16594.02, 10222.15, -1883.94, 15002.18, 33252.55, 0.00, 0.000, 0.000, 0.000, 13:11:38.133
105, 0.00, 28917.55, 16587.43, 10262.38, -1919.39, 14996.08, 33262.55, 0.00, 0.000, 0.000, 0.000, 13:11:38.133
106, 0.00, 28912.45, 16585.73, 10309.03, -1791.31, 14996.05, 33278.80, 0.00, 0.000, 0.000, 0.000, 13:11:38.133
107, 0.00, 28921.44, 16596.51, 10289.42, -1712.48, 15008.03, 33285.32, 0.00, 0.000, 0.000, 0.000, 13:11:38.133
108, 0.00, 28924.36, 16598.83, 10235.00, -1766.08, 15009.11, 33267.20, 0.00, 0.026, -0.034, 0.994, 13:11:38.134
109, 0.00, 28918.19, 16597.24, 10226.17, -1882.55, 15001.46, 33248.58, 0.00, 0.000, 0.000, 0.000, 13:11:38.134
110, 0.00, 28914.08, 16596.08, 10274.22, -1914.00, 14994.35, 33257.70, 0.00, 0.000, 0.000, 0.000, 13:11:38.134
111, 0.00, 28911.18, 16587.83, 10313.97, -1788.41, 14995.58, 33274.55, 0.00, 0.000, 0.000, 0.000, 13:11:38.134
112, 0.00, 28916.09, 16591.99, 10283.46, -1716.66, 15002.24, 33275.38, 0.00, 0.000, 0.000, 0.000, 13:11:38.134
113, 0.00, 28924.95, 16603.01, 10236.25, -1766.01, 15011.72, 33262.41, 0.00, 0.000, 0.000, 0.000, 13:11:38.134
114, 0.00, 28921.77, 16600.06, 10224.40, -1881.68, 15005.80, 33249.29, 0.00, 0.000, 0.000, 0.000, 13:11:38.134
115, 0.00, 28916.27, 16590.96, 10266.07, -1916.30, 14996.01, 33257.41, 0.00, 0.000, 0.000, 0.000, 13:11:38.134
116, 0.00, 28913.99, 16587.36, 10310.59, -1789.17, 14996.30, 33275.18, 0.00, 0.000, 0.000, 0.000, 13:11:38.135
117, 0.00, 28921.28, 16597.09, 10283.03, -1715.85, 15006.20, 33279.91, 0.00, 0.000, 0.000, 0.000, 13:11:38.135
118, 0.00, 28923.02, 16601.18, 10231.71, -1768.07, 15008.70, 33260.60, 0.00, 0.032, -0.036, 0.992, 13:11:38.135
119, 0.00, 28921.14, 16599.39, 10221.54, -1884.18, 15002.94, 33247.61, 0.00, 0.000, 0.000, 0.000, 13:11:38.135
120, 0.00, 28916.21, 16594.02, 10264.99, -1915.03, 14994.94, 33257.00, 0.00, 0.000, 0.000, 0.000, 13:11:38.135
121, 0.00, 28914.95, 16591.45, 10307.39, -1789.01, 14998.24, 33275.87, 0.00, 0.000, 0.000, 0.000, 13:11:38.135
122, 0.00, 28922.89, 16598.90, 10278.65, -1714.80, 15009.49, 33281.30, 0.00, 0.000, 0.000, 0.000, 13:11:38.135
123, 0.00, 28925.19, 16602.32, 10228.09, -1767.60, 15009.67, 33261.85, 0.00, 0.000, 0.000, 0.000, 13:11:38.135
124, 0.00, 28921.12, 16599.54, 10223.35, -1885.70, 14999.12, 33246.30, 0.00, 0.000, 0.000, 0.000, 13:11:38.136
125, 0.00, 28916.43, 16593.62, 10267.30, -1917.13, 14994.04, 33257.45, 0.00, 0.000, 0.000, 0.000, 13:11:38.136
126, 0.00, 28915.15, 16589.78, 10310.93, -1786.22, 14999.47, 33278.30, 0.00, 0.000, 0.000, 0.000, 13:11:38.136
127, 0.00, 28921.57, 16596.48, 10280.64, -1716.21, 15009.08, 33281.14, 0.00, 0.000, 0.000, 0.000, 13:11:38.136
128, 0.00, 28924.23, 16601.00, 10231.04, -1770.75, 15009.00, 33261.16, 0.00, 0.032, -0.032, 0.990, 13:11:38.136
129, 0.00, 28923.07, 16602.18, 10225.72, -1885.93, 15000.81, 33249.07, 0.00, 0.000, 0.000, 0.000, 13:11:38.136
130, 0.00, 28917.61, 16599.48, 10271.41, -1913.31, 14998.02, 33261.09, 0.00, 0.000, 0.000, 0.000, 13:11:38.136
131, 0.00, 28915.29, 16594.45, 10314.44, -1783.56, 15002.22, 33280.18, 0.00, 0.000, 0.000, 0.000, 13:11:38.136
132, 0.00, 28917.37, 16596.44, 10283.39, -1716.52, 15005.46, 33279.31, 0.00, 0.000, 0.000, 0.000, 13:11:38.136
133, 0.00, 28923.02, 16604.48, 10232.40, -1771.62, 15010.60, 33263.39, 0.00, 0.000, 0.000, 0.000, 13:11:38.137
134, 0.00, 28920.27, 16603.50, 10225.72, -1884.70, 15004.35, 33249.25, 0.00, 0.000, 0.000, 0.000, 13:11:38.137
135, 0.00, 28912.72, 16596.79, 10270.16, -1915.83, 14996.75, 33255.17, 0.00, 0.000, 0.000, 0.000, 13:11:38.138
136, 0.00, 28911.15, 16595.68, 10317.70, -1783.22, 15000.61, 33274.84, 0.00, 0.000, 0.000, 0.000, 13:11:38.138
137, 0.00, 28915.54, 16597.69, 10286.38, -1714.09, 15006.51, 33276.80, 0.00, 0.000, 0.000, 0.000, 13:11:38.138
138, 0.00, 28920.00, 16604.13, 10234.59, -1773.79, 15008.95, 33258.12, 0.00, 0.026, -0.034, 0.984, 13:11:38.138
139, 0.00, 28916.54, 16602.41, 10225.05, -1890.40, 15000.66, 33244.22, 0.00, 0.000, 0.000, 0.000, 13:11:38.138
140, 0.00, 28909.83, 16595.25, 10266.56, -1920.31, 14992.19, 33252.76, 0.00, 0.000, 0.000, 0.000, 13:11:38.138
141, 0.00, 28908.65, 16593.40, 10311.73, -1788.05, 14995.99, 33272.25, 0.00, 0.000, 0.000, 0.000, 13:11:38.138
142, 0.00, 28914.04, 16600.89, 10284.84, -1717.58, 15004.39, 33274.93, 0.00, 0.000, 0.000, 0.000, 13:11:38.138
143, 0.00, 28917.48, 16606.18, 10233.92, -1776.09, 15008.17, 33256.55, 0.00, 0.000, 0.000, 0.000, 13:11:38.138
144, 0.00, 28915.98, 16606.07, 10227.93, -1887.31, 15002.22, 33243.05, 0.00, 0.000, 0.000, 0.000, 13:11:38.139
145, 0.00, 28910.08, 16600.33, 10270.60, -1915.86, 14993.95, 33253.07, 0.00, 0.000, 0.000, 0.000, 13:11:38.139
146, 0.00, 28910.75, 16597.87, 10315.53, -1784.56, 14998.71, 33274.30, 0.00, 0.000, 0.000, 0.000, 13:11:38.139
147, 0.00, 28914.51, 16599.19, 10279.88, -1719.01, 15004.79, 33274.21, 0.00, 0.030, -0.026, 0.992, 13:11:38.139
148, 0.00, 28916.29, 16601.69, 10227.17, -1776.72, 15004.68, 33254.61, 0.00, 0.000, 0.000, 0.000, 13:11:38.139
149, 0.00, 28914.26, 16599.95, 10222.93, -1893.33, 14997.06, 33242.36, 0.00, 0.000, 0.000, 0.000, 13:11:38.139
150, 0.00, 28912.40, 16599.28, 10271.36, -1919.77, 14994.20, 33255.06, 0.00, 0.000, 0.000, 0.000, 13:11:38.139
151, 0.00, 28910.24, 16594.58, 10315.15, -1786.31, 14997.89, 33272.96, 0.00, 0.000, 0.000, 0.000, 13:11:38.139
152, 0.00, 28915.67, 16599.10, 10284.06, -1717.28, 15006.87, 33274.44, 0.00, 0.000, 0.000, 0.000, 13:11:38.139
153, 0.00, 28917.28, 16603.72, 10234.71, -1775.44, 15007.43, 33254.95, 0.00, 0.000, 0.000, 0.000, 13:11:38.139
154, 0.00, 28913.86, 16601.18, 10228.52, -1889.93, 14999.38, 33240.80, 0.00, 0.000, 0.000, 0.000, 13:11:38.139
155, 0.00, 28910.39, 16597.24, 10272.95, -1918.03, 14993.93, 33251.30, 0.00, 0.000, 0.000, 0.000, 13:11:38.139
156, 0.00, 28909.92, 16598.49, 10324.74, -1781.19, 15000.66, 33272.31, 0.00, 0.000, 0.000, 0.000, 13:11:38.139
157, 0.00, 28915.06, 16603.72, 10295.12, -1713.19, 15006.69, 33273.63, 0.00, 0.032, -0.030, 0.992, 13:11:38.140
158, 0.00, 28918.78, 16610.50, 10243.09, -1776.00, 15007.14, 33255.46, 0.00, 0.000, 0.000, 0.000, 13:11:38.140
159, 0.00, 28914.62, 16605.40, 10234.62, -1892.10, 14998.06, 33240.73, 0.00, 0.000, 0.000, 0.000, 13:11:38.140
160, 0.00, 28909.57, 16597.80, 10278.96, -1918.99, 14991.34, 33250.57, 0.00, 0.000, 0.000, 0.000, 13:11:38.140
161, 0.00, 28906.82, 16594.78, 10323.80, -1786.95, 14994.35, 33268.83, 0.00, 0.000, 0.000, 0.000, 13:11:38.140
162, 0.00, 28913.05, 16600.33, 10290.25, -1719.72, 15004.39, 33271.04, 0.00, 0.000, 0.000, 0.000, 13:11:38.140
163, 0.00, 28919.67, 16610.18, 10243.67, -1774.75, 15007.70, 33255.93, 0.00, 0.000, 0.000, 0.000, 13:11:38.140
164, 0.00, 28915.65, 16607.57, 10237.99, -1891.00, 14999.43, 33239.64, 0.00, 0.000, 0.000, 0.000, 13:11:38.141
165, 0.00, 28909.72, 16599.72, 10281.76, -1916.28, 14992.79, 33247.88, 0.00, 0.000, 0.000, 0.000, 13:11:38.141
166, 0.00, 28907.35, 16600.75, 10328.67, -1786.06, 14996.99, 33267.62, 0.00, 0.000, 0.000, 0.000, 13:11:38.141
167, 0.00, 28913.34, 16607.97, 10302.61, -1716.32, 15009.06, 33271.15, 0.00, 0.030, -0.030, 0.994, 13:11:38.142
168, 0.00, 28918.31, 16610.90, 10250.53, -1774.33, 15009.20, 33254.05, 0.00, 0.000, 0.000, 0.000, 13:11:38.142
169, 0.00, 28912.63, 16604.42, 10238.39, -1893.17, 15000.68, 33237.91, 0.00, 0.000, 0.000, 0.000, 13:11:38.142
170, 0.00, 28906.82, 16597.71, 10279.39, -1919.81, 14994.18, 33247.68, 0.00, 0.000, 0.000, 0.000, 13:11:38.142
171, 0.00, 28908.58, 16601.94, 10329.43, -1783.31, 15000.66, 33270.59, 0.00, 0.000, 0.000, 0.000, 13:11:38.142
172, 0.00, 28913.95, 16606.03, 10296.22, -1721.82, 15006.38, 33272.34, 0.00, 0.000, 0.000, 0.000, 13:11:38.142
173, 0.00, 28914.69, 16607.66, 10246.62, -1779.56, 15005.91, 33251.41, 0.00, 0.000, 0.000, 0.000, 13:11:38.142
174, 0.00, 28911.15, 16606.21, 10239.92, -1894.76, 14998.82, 33237.51, 0.00, 0.000, 0.000, 0.000, 13:11:38.143
175, 0.00, 28905.25, 16598.27, 10281.49, -1921.40, 14990.82, 33247.08, 0.00, 0.000, 0.000, 0.000, 13:11:38.143
176, 0.00, 28906.53, 16599.03, 10328.90, -1785.59, 14995.41, 33269.25, 0.00, 0.000, 0.000, 0.000, 13:11:38.143
177, 0.00, 28911.73, 16604.42, 10296.08, -1722.83, 15003.36, 33270.75, 0.00, 0.030, -0.030, 0.992, 13:11:38.143
178, 0.00, 28917.79, 16611.68, 10250.78, -1777.16, 15007.99, 33255.06, 0.00, 0.000, 0.000, 0.000, 13:11:38.143
179, 0.00, 28915.47, 16609.31, 10246.96, -1890.56, 15001.33, 33242.68, 0.00, 0.000, 0.000, 0.000, 13:11:38.143
180, 0.00, 28910.66, 16603.30, 10291.21, -1916.13, 14993.75, 33253.65, 0.00, 0.000, 0.000, 0.000, 13:11:38.143
181, 0.00, 28907.42, 16598.65, 10332.52, -1786.82, 14992.88, 33271.20, 0.00, 0.000, 0.000, 0.000, 13:11:38.143
182, 0.00, 28913.32, 16606.07, 10302.12, -1721.11, 15003.52, 33272.54, 0.00, 0.000, 0.000, 0.000, 13:11:38.144
183, 0.00, 28917.63, 16612.22, 10254.11, -1778.55, 15005.64, 33254.14, 0.00, 0.000, 0.000, 0.000, 13:11:38.144
184, 0.00, 28911.04, 16606.14, 10246.78, -1891.78, 14993.42, 33237.11, 0.00, 0.000, 0.000, 0.000, 13:11:38.144
185, 0.00, 28906.48, 16600.28, 10291.91, -1916.08, 14990.69, 33249.09, 0.00, 0.000, 0.000, 0.000, 13:11:38.144
186, 0.00, 28905.90, 16599.19, 10333.30, -1787.29, 14994.96, 33268.40, 0.00, 0.000, 0.000, 0.000, 13:11:38.144
187, 0.00, 28911.67, 16605.96, 10304.47, -1721.06, 15004.30, 33268.87, 0.00, 0.032, -0.032, 0.992, 13:11:38.144
188, 0.00, 28917.30, 16611.62, 10257.62, -1779.89, 15007.65, 33252.24, 0.00, 0.000, 0.000, 0.000, 13:11:38.144
189, 0.00, 28915.85, 16611.08, 10253.15, -1892.90, 15000.84, 33241.51, 0.00, 0.000, 0.000, 0.000, 13:11:38.144
190, 0.00, 28910.95, 16603.90, 10296.73, -1913.31, 14994.44, 33253.20, 0.00, 0.000, 0.000, 0.000, 13:11:38.145
191, 0.00, 28909.21, 16599.28, 10335.80, -1783.67, 14996.88, 33271.73, 0.00, 0.000, 0.000, 0.000, 13:11:38.145
192, 0.00, 28911.24, 16602.90, 10302.01, -1723.16, 15002.24, 33269.81, 0.00, 0.000, 0.000, 0.000, 13:11:38.145
193, 0.00, 28912.61, 16610.05, 10254.56, -1781.99, 15005.69, 33250.81, 0.00, 0.000, 0.000, 0.000, 13:11:38.145
194, 0.00, 28913.59, 16608.66, 10251.72, -1891.67, 15002.78, 33241.65, 0.00, 0.000, 0.000, 0.000, 13:11:38.611
195, 0.00, 28910.51, 16603.19, 10298.10, -1912.26, 14996.01, 33253.67, 0.00, 0.000, 0.000, 0.000, 13:11:38.611
196, 0.00, 28910.17, 16602.00, 10340.16, -1781.05, 14998.22, 33273.63, 0.00, 0.000, 0.000, 0.000, 13:11:38.611
197, 0.00, 28911.22, 16601.91, 10301.25, -1723.81, 15000.81, 33270.66, 0.00, 0.032, -0.028, 0.992, 13:11:38.611
198, 0.00, 28915.80, 16608.33, 10251.87, -1785.70, 15004.35, 33253.43, 0.00, 0.000, 0.000, 0.000, 13:11:38.611
199, 0.00, 28914.13, 16607.32, 10250.51, -1894.42, 15000.10, 33242.50, 0.00, 0.000, 0.000, 0.000, 13:11:38.612
200, 0.00, 28907.02, 16601.49, 10297.47, -1915.79, 14994.02, 33252.33, 0.00, 0.000, 0.000, 0.000, 13:11:38.612
201, 0.00, 28905.48, 16600.28, 10338.67, -1784.43, 14997.35, 33272.05, 0.00, 0.000, 0.000, 0.000, 13:11:38.612
202, 0.00, 28912.36, 16606.76, 10305.88, -1719.65, 15006.13, 33273.75, 0.00, 0.000, 0.000, 0.000, 13:11:38.612
203, 0.00, 28913.90, 16610.01, 10254.51, -1783.83, 15004.68, 33253.61, 0.00, 0.000, 0.000, 0.000, 13:11:38.612
204, 0.00, 28911.00, 16608.02, 10251.92, -1895.14, 14997.21, 33240.93, 0.00, 0.000, 0.000, 0.000, 13:11:38.612
205, 0.00, 28904.27, 16602.70, 10300.51, -1917.31, 14991.40, 33250.50, 0.00, 0.000, 0.000, 0.000, 13:11:38.612
206, 0.00, 28904.31, 16601.51, 10342.69, -1783.54, 14996.57, 33269.25, 0.00, 0.000, 0.000, 0.000, 13:11:38.612
207, 0.00, 28910.28, 16606.43, 10305.92, -1721.51, 15005.42, 33269.18, 0.00, 0.022, -0.030, 0.994, 13:11:38.612
208, 0.00, 28913.17, 16608.44, 10253.77, -1780.41, 15007.61, 33249.85, 0.00, 0.000, 0.000, 0.000, 13:11:38.612
209, 0.00, 28912.65, 16608.31, 10252.43, -1893.57, 14999.07, 33240.30, 0.00, 0.000, 0.000, 0.000, 13:11:38.613
210, 0.00, 28907.33, 16604.51, 10298.83, -1914.38, 14995.85, 33250.86, 0.00, 0.000, 0.000, 0.000, 13:11:38.613
211, 0.00, 28905.43, 16602.74, 10342.55, -1778.19, 15001.40, 33269.43, 0.00, 0.000, 0.000, 0.000, 13:11:38.613
212, 0.00, 28910.33, 16607.66, 10308.54, -1720.66, 15006.94, 33269.68, 0.00, 0.000, 0.000, 0.000, 13:11:38.613
213, 0.00, 28915.40, 16614.07, 10260.21, -1785.39, 15007.25, 33253.05, 0.00, 0.000, 0.000, 0.000, 13:11:38.613
214, 0.00, 28912.85, 16611.88, 10256.14, -1898.71, 15000.17, 33241.18, 0.00, 0.000, 0.000, 0.000, 13:11:38.613
215, 0.00, 28906.91, 16604.95, 10302.66, -1914.96, 14993.10, 33251.21, 0.00, 0.000, 0.000, 0.000, 13:11:38.613
216, 0.00, 28907.87, 16604.06, 10343.90, -1781.50, 14997.64, 33271.55, 0.00, 0.000, 0.000, 0.000, 13:11:38.613
217, 0.00, 28914.91, 16613.83, 10310.66, -1721.04, 15009.67, 33272.65, 0.00, 0.024, -0.026, 0.994, 13:11:38.614
218, 0.00, 28913.41, 16609.98, 10256.50, -1784.94, 15006.98, 33248.80, 0.00, 0.000, 0.000, 0.000, 13:11:38.614
219, 0.00, 28913.08, 16611.44, 10256.23, -1896.19, 15001.69, 33238.81, 0.00, 0.000, 0.000, 0.000, 13:11:38.614
220, 0.00, 28906.75, 16605.87, 10303.91, -1911.54, 14992.14, 33248.13, 0.00, 0.000, 0.000, 0.000, 13:11:38.614
221, 0.00, 28904.98, 16604.02, 10342.20, -1779.69, 14995.14, 33267.73, 0.00, 0.000, 0.000, 0.000, 13:11:38.614
222, 0.00, 28910.24, 16611.21, 10306.46, -1720.32, 15006.42, 33269.03, 0.00, 0.000, 0.000, 0.000, 13:11:38.614
223, 0.00, 28915.51, 16617.65, 10257.86, -1783.76, 15008.23, 33252.27, 0.00, 0.000, 0.000, 0.000, 13:11:38.614
224, 0.00, 28910.95, 16612.91, 10257.86, -1895.56, 14999.43, 33237.69, 0.00, 0.000, 0.000, 0.000, 13:11:38.614
225, 0.00, 28906.19, 16607.52, 10305.45, -1914.29, 14993.30, 33248.40, 0.00, 0.000, 0.000, 0.000, 13:11:38.614
226, 0.00, 28904.11, 16603.14, 10343.16, -1782.08, 14993.53, 33266.10, 0.00, 0.000, 0.000, 0.000, 13:11:38.614
227, 0.00, 28908.74, 16608.26, 10306.01, -1726.16, 15001.98, 33265.68, 0.00, 0.028, -0.026, 0.994, 13:11:38.614
228, 0.00, 28913.08, 16614.32, 10255.34, -1789.35, 15006.58, 33248.40, 0.00, 0.000, 0.000, 0.000, 13:11:38.614
229, 0.00, 28910.24, 16613.74, 10256.90, -1901.22, 14998.67, 33237.80, 0.00, 0.000, 0.000, 0.000, 13:11:38.614
230, 0.00, 28905.99, 16607.70, 10305.79, -1917.49, 14992.37, 33249.58, 0.00, 0.000, 0.000, 0.000, 13:11:38.614
231, 0.00, 28906.24, 16603.90, 10344.48, -1779.69, 14997.44, 33268.85, 0.00, 0.000, 0.000, 0.000, 13:11:38.615
232, 0.00, 28910.26, 16609.40, 10306.86, -1725.49, 15003.14, 33267.04, 0.00, 0.000, 0.000, 0.000, 13:11:38.615
233, 0.00, 28914.21, 16616.64, 10258.56, -1789.41, 15005.55, 33249.02, 0.00, 0.000, 0.000, 0.000, 13:11:38.615
234, 0.00, 28910.82, 16614.14, 10255.32, -1898.27, 15001.37, 33237.38, 0.00, 0.000, 0.000, 0.000, 13:11:38.615
235, 0.00, 28905.45, 16608.82, 10303.26, -1910.69, 14994.33, 33249.63, 0.00, 0.000, 0.000, 0.000, 13:11:38.615
236, 0.00, 28905.48, 16608.64, 10345.95, -1775.42, 15000.03, 33269.63, 0.00, 0.000, 0.000, 0.000, 13:11:38.615
237, 0.00, 28910.15, 16614.79, 10309.83, -1719.56, 15009.98, 33268.56, 0.00, 0.028, -0.028, 0.994, 13:11:38.615
238, 0.00, 28913.81, 16620.44, 10259.45, -1785.46, 15010.92, 33249.16, 0.00, 0.000, 0.000, 0.000, 13:11:38.617
239, 0.00, 28911.13, 16614.05, 10255.27, -1900.19, 14999.58, 33237.18, 0.00, 0.000, 0.000, 0.000, 13:11:38.618
240, 0.00, 28905.19, 16605.78, 10300.42, -1917.53, 14991.63, 33247.53, 0.00, 0.000, 0.000, 0.000, 13:11:38.618
241, 0.00, 28906.08, 16606.12, 10342.96, -1781.34, 14997.33, 33267.98, 0.00, 0.000, 0.000, 0.000, 13:11:38.618
242, 0.00, 28912.16, 16611.23, 10304.69, -1727.83, 15004.84, 33267.42, 0.00, 0.000, 0.000, 0.000, 13:11:38.618
243, 0.00, 28914.46, 16616.49, 10257.17, -1791.56, 15006.74, 33248.46, 0.00, 0.000, 0.000, 0.000, 13:11:38.618
244, 0.00, 28910.62, 16615.32, 10256.95, -1900.10, 14999.92, 33236.51, 0.00, 0.000, 0.000, 0.000, 13:11:38.618
245, 0.00, 28906.79, 16607.88, 10301.78, -1916.37, 14991.18, 33248.58, 0.00, 0.000, 0.000, 0.000, 13:11:38.618
246, 0.00, 28910.04, 16612.06, 10347.36, -1777.19, 14997.24, 33272.05, 0.00, 0.000, 0.000, 0.000, 13:11:38.618
247, 0.00, 28911.96, 16614.92, 10310.66, -1721.37, 15004.55, 33269.21, 0.00, 0.030, -0.034, 0.996, 13:11:38.618
248, 0.00, 28913.17, 16616.09, 10256.43, -1789.73, 15005.87, 33248.64, 0.00, 0.000, 0.000, 0.000, 13:11:38.619
249, 0.00, 28911.38, 16612.78, 10253.88, -1901.55, 15000.46, 33238.54, 0.00, 0.000, 0.000, 0.000, 13:11:38.619
250, 0.00, 28906.37, 16611.12, 10307.28, -1914.38, 14994.98, 33250.43, 0.00, 0.000, 0.000, 0.000, 13:11:38.619
251, 0.00, 28903.98, 16609.31, 10346.67, -1779.11, 14997.57, 33267.64, 0.00, 0.000, 0.000, 0.000, 13:11:38.619
252, 0.00, 28910.33, 16614.05, 10308.27, -1722.58, 15008.03, 33267.20, 0.00, 0.000, 0.000, 0.000, 13:11:38.619
253, 0.00, 28913.50, 16618.21, 10260.05, -1786.55, 15008.55, 33247.91, 0.00, 0.000, 0.000, 0.000, 13:11:38.619
254, 0.00, 28910.42, 16616.62, 10262.40, -1895.70, 15002.16, 33237.07, 0.00, 0.000, 0.000, 0.000, 13:11:38.619
255, 0.00, 28906.35, 16610.88, 10308.51, -1913.38, 14994.64, 33249.63, 0.00, 0.000, 0.000, 0.000, 13:11:38.619
0, 0.00, 28901.32, 16605.49, 10343.74, -1780.83, 14993.68, 33264.63, 0.00, 0.000, 0.000, 0.000, 13:11:38.619
1, 0.00, 28908.94, 16614.79, 10310.81, -1722.11, 15006.16, 33266.61, 0.00, 0.028, -0.034, 0.992, 13:11:38.619
2, 0.00, 28912.90, 16620.44, 10262.24, -1786.62, 15010.67, 33249.54, 0.00, 0.000, 0.000, 0.000, 13:11:38.620
3, 0.00, 28910.84, 16620.89, 10263.70, -1895.20, 15003.56, 33239.41, 0.00, 0.000, 0.000, 0.000, 13:11:38.620
4, 0.00, 28905.07, 16613.98, 10311.08, -1908.48, 14996.79, 33250.54, 0.00, 0.000, 0.000, 0.000, 13:11:38.620
5, 0.00, 28901.90, 16605.91, 10343.58, -1778.86, 14999.25, 33267.38, 0.00, 0.000, 0.000, 0.000, 13:11:38.620
6, 0.00, 28906.77, 16611.95, 10307.46, -1723.90, 15007.05, 33265.77, 0.00, 0.000, 0.000, 0.000, 13:11:38.620
7, 0.00, 28910.95, 16618.72, 10260.68, -1789.01, 15008.91, 33248.91, 0.00, 0.000, 0.000, 0.000, 13:11:38.620
8, 0.00, 28909.59, 16617.72, 10259.79, -1901.35, 15002.96, 33239.37, 0.00, 0.000, 0.000, 0.000, 13:11:38.620
9, 0.00, 28904.40, 16613.60, 10311.55, -1910.54, 14996.50, 33249.85, 0.00, 0.000, 0.000, 0.000, 13:11:38.620
10, 0.00, 28903.82, 16614.03, 10352.61, -1772.58, 15000.84, 33269.03, 0.00, 0.000, 0.000, 0.000, 13:11:38.620
11, 0.00, 28910.04, 16620.33, 10315.29, -1720.06, 15010.40, 33268.16, 0.00, 0.024, -0.034, 0.988, 13:11:38.620
12, 0.00, 28913.08, 16624.20, 10265.15, -1789.03, 15009.29, 33248.13, 0.00, 0.000, 0.000, 0.000, 13:11:38.620
13, 0.00, 28908.94, 16620.06, 10265.31, -1898.62, 15000.34, 33236.11, 0.00, 0.000, 0.000, 0.000, 13:11:38.620
14, 0.00, 28904.38, 16614.41, 10312.94, -1909.17, 14996.77, 33249.14, 0.00, 0.000, 0.000, 0.000, 13:11:38.620
15, 0.00, 28901.74, 16609.22, 10348.43, -1776.43, 14995.81, 33265.12, 0.00, 0.000, 0.000, 0.000, 13:11:38.620
16, 0.00, 28906.59, 16612.53, 10307.13, -1726.20, 15002.74, 33262.73, 0.00, 0.000, 0.000, 0.000, 13:11:38.620
17, 0.00, 28913.12, 16622.28, 10263.27, -1790.55, 15007.56, 33248.04, 0.00, 0.000, 0.000, 0.000, 13:11:38.621
18, 0.00, 28909.37, 16617.02, 10264.17, -1901.73, 14996.10, 33236.71, 0.00, 0.000, 0.000, 0.000, 13:11:38.621
19, 0.00, 28905.52, 16613.71, 10313.12, -1913.11, 14994.20, 33248.44, 0.00, 0.000, 0.000, 0.000, 13:11:38.621
20, 0.00, 28902.84, 16611.21, 10350.71, -1777.63, 14997.24, 33264.34, 0.00, 0.000, 0.000, 0.000, 13:11:38.621
21, 0.00, 28906.37, 16614.90, 10309.23, -1728.44, 15003.67, 33263.08, 0.00, 0.024, -0.038, 0.996, 13:11:38.621
22, 0.00, 28910.26, 16620.73, 10262.31, -1795.52, 15006.83, 33245.74, 0.00, 0.000, 0.000, 0.000, 13:11:38.621
23, 0.00, 28906.88, 16619.73, 10263.76, -1901.24, 15000.66, 33234.79, 0.00, 0.000, 0.000, 0.000, 13:11:38.621
24, 0.00, 28905.39, 16618.03, 10313.72, -1909.89, 14996.25, 33250.21, 0.00, 0.000, 0.000, 0.000, 13:11:38.621
25, 0.00, 28904.40, 16611.97, 10349.95, -1774.97, 14998.13, 33267.29, 0.00, 0.000, 0.000, 0.000, 13:11:38.621
26, 0.00, 28911.98, 16618.83, 10313.72, -1718.65, 15008.35, 33267.33, 0.00, 0.000, 0.000, 0.000, 13:11:38.621
27, 0.00, 28914.86, 16623.01, 10265.58, -1790.24, 15007.85, 33247.82, 0.00, 0.000, 0.000, 0.000, 13:11:38.621
28, 0.00, 28911.18, 16619.51, 10261.80, -1905.51, 14998.67, 33235.88, 0.00, 0.000, 0.000, 0.000, 13:11:38.622
29, 0.00, 28906.41, 16615.68, 10310.57, -1912.08, 14994.85, 33248.09, 0.00, 0.000, 0.000, 0.000, 13:11:38.622
30, 0.00, 28904.58, 16614.50, 10350.24, -1772.78, 14999.38, 33266.05, 0.00, 0.000, 0.000, 0.000, 13:11:38.622
31, 0.00, 28908.31, 16618.95, 10311.37, -1722.67, 15004.57, 33263.20, 0.00, 0.022, -0.036, 0.990, 13:11:38.622
32, 0.00, 28912.81, 16624.20, 10262.31, -1791.63, 15007.94, 33245.98, 0.00, 0.000, 0.000, 0.000, 13:11:38.622
33, 0.00, 28911.06, 16622.59, 10262.56, -1900.70, 15002.89, 33237.11, 0.00, 0.000, 0.000, 0.000, 13:11:38.622
34, 0.00, 28905.34, 16615.73, 10309.74, -1911.50, 14993.24, 33247.73, 0.00, 0.000, 0.000, 0.000, 13:11:38.622
35, 0.00, 28903.64, 16612.75, 10344.07, -1778.33, 14994.53, 33264.91, 0.00, 0.000, 0.000, 0.000, 13:11:38.622
36, 0.00, 28912.00, 16622.63, 10308.58, -1724.50, 15006.09, 33267.06, 0.00, 0.000, 0.000, 0.000, 13:11:38.622
37, 0.00, 28913.93, 16626.66, 10262.00, -1794.33, 15006.20, 33245.74, 0.00, 0.000, 0.000, 0.000, 13:11:38.622
38, 0.00, 28911.36, 16623.46, 10262.92, -1904.32, 14998.27, 33235.50, 0.00, 0.000, 0.000, 0.000, 13:11:38.622
39, 0.00, 28906.04, 16617.16, 10311.75, -1909.76, 14993.97, 33248.62, 0.00, 0.000, 0.000, 0.000, 13:11:38.622
40, 0.00, 28905.72, 16615.64, 10348.16, -1775.94, 15000.32, 33266.91, 0.00, 0.000, 0.000, 0.000, 13:11:38.623
41, 0.00, 28910.93, 16622.86, 10310.12, -1724.82, 15008.59, 33265.52, 0.00, 0.028, -0.036, 0.996, 13:11:38.623
42, 0.00, 28912.72, 16625.05, 10259.76, -1796.57, 15007.25, 33245.49, 0.00, 0.000, 0.000, 0.000, 13:11:38.623
43, 0.00, 28909.83, 16626.30, 10263.14, -1906.87, 14999.58, 33234.25, 0.00, 0.000, 0.000, 0.000, 13:11:38.623
44, 0.00, 28903.64, 16620.06, 10316.02, -1910.07, 14993.86, 33247.13, 0.00, 0.000, 0.000, 0.000, 13:11:38.623
45, 0.00, 28899.31, 16612.15, 10348.21, -1776.78, 14994.29, 33261.77, 0.00, 0.000, 0.000, 0.000, 13:11:38.623
46, 0.00, 28908.72, 16622.43, 10310.08, -1726.69, 15004.99, 33263.13, 0.00, 0.000, 0.000, 0.000, 13:11:38.623
47, 0.00, 28911.69, 16627.08, 10261.33, -1798.00, 15005.62, 33243.43, 0.00, 0.000, 0.000, 0.000, 13:11:38.623
48, 0.00, 28909.14, 16624.62, 10262.74, -1907.63, 14998.67, 33234.16, 0.00, 0.000, 0.000, 0.000, 13:11:38.623
