%OpenBCI Raw EEG Data
%
%Sample Rate = 250.0 Hz
%First Column = SampleIndex
%Last Column = Timestamp 
%Other Columns = EEG data in microvolts followed by Accel Data (in G) interleaved with Aux Data
0, 0.00, 0.00, 0.00, 0.00, 0.00, 0.00, 0.00, 0.00, 0.000, 0.000, 0.000, 13:16:18.664
1, 0.00, 25983.61, 13670.21, 5521.57, -5434.36, 11839.12, 30280.62, 0.00, 0.036, -0.036, 1.012, 13:16:19.149
2, 0.00, 25977.84, 13666.15, 5581.90, -5460.62, 11833.64, 30290.55, 0.00, 0.000, 0.000, 0.000, 13:16:19.149
3, 0.00, 25976.95, 13664.43, 5614.87, -5236.14, 11836.46, 30295.75, 0.00, 0.000, 0.000, 0.000, 13:16:19.149
4, 0.00, 25982.58, 13670.95, 5564.98, -5121.01, 11842.98, 30288.45, 0.00, 0.000, 0.000, 0.000, 13:16:19.150
5, 0.00, 25986.76, 13677.01, 5512.52, -5232.88, 11843.65, 30280.98, 0.00, 0.000, 0.000, 0.000, 13:16:19.150
6, 0.00, 25985.78, 13676.92, 5523.67, -5437.33, 11838.02, 30285.94, 0.00, 0.000, 0.000, 0.000, 13:16:19.150
7, 0.00, 25981.96, 13668.45, 5583.20, -5460.84, 11832.45, 30297.19, 0.00, 0.000, 0.000, 0.000, 13:16:19.150
8, 0.00, 25981.64, 13667.38, 5614.78, -5240.57, 11835.83, 30300.25, 0.00, 0.034, -0.036, 1.000, 13:16:19.151
9, 0.00, 25985.22, 13673.95, 5565.90, -5125.39, 11844.77, 30291.60, 0.00, 0.000, 0.000, 0.000, 13:16:19.151
10, 0.00, 25988.46, 13678.78, 5515.94, -5235.63, 11844.77, 30283.95, 0.00, 0.000, 0.000, 0.000, 13:16:19.151
11, 0.00, 25986.49, 13676.79, 5528.46, -5438.47, 11838.76, 30286.05, 0.00, 0.000, 0.000, 0.000, 13:16:19.151
12, 0.00, 25980.24, 13668.94, 5587.22, -5460.26, 11832.90, 30294.86, 0.00, 0.000, 0.000, 0.000, 13:16:19.152
13, 0.00, 25981.46, 13667.91, 5616.35, -5239.18, 11836.83, 30299.87, 0.00, 0.000, 0.000, 0.000, 13:16:19.152
14, 0.00, 25987.61, 13676.00, 5569.81, -5120.94, 11845.44, 30291.93, 0.00, 0.000, 0.000, 0.000, 13:16:19.152
15, 0.00, 25989.63, 13679.96, 5517.10, -5234.20, 11844.97, 30281.27, 0.00, 0.000, 0.000, 0.000, 13:16:19.152
16, 0.00, 25987.10, 13678.22, 5528.23, -5436.26, 11837.62, 30283.51, 0.00, 0.000, 0.000, 0.000, 13:16:19.152
17, 0.00, 25982.25, 13676.23, 5593.01, -5458.25, 11835.85, 30296.09, 0.00, 0.000, 0.000, 0.000, 13:16:19.153
18, 0.00, 25982.20, 13679.87, 5630.99, -5230.91, 11841.19, 30300.27, 0.00, 0.038, -0.032, 0.996, 13:16:19.153
19, 0.00, 25985.36, 13682.35, 5577.23, -5118.28, 11845.22, 30290.93, 0.00, 0.000, 0.000, 0.000, 13:16:19.153
20, 0.00, 25989.22, 13682.87, 5520.48, -5233.46, 11847.03, 30283.28, 0.00, 0.000, 0.000, 0.000, 13:16:19.153
21, 0.00, 25986.23, 13679.63, 5528.57, -5438.96, 11839.81, 30285.21, 0.00, 0.000, 0.000, 0.000, 13:16:19.154
22, 0.00, 25981.15, 13674.86, 5591.53, -5456.08, 11835.23, 30295.24, 0.00, 0.000, 0.000, 0.000, 13:16:19.154
23, 0.00, 25983.07, 13676.03, 5624.97, -5231.65, 11841.80, 30301.39, 0.00, 0.000, 0.000, 0.000, 13:16:19.154
24, 0.00, 25987.21, 13680.09, 5571.46, -5121.34, 11846.78, 30293.18, 0.00, 0.000, 0.000, 0.000, 13:16:19.154
25, 0.00, 25990.21, 13682.60, 5517.60, -5232.86, 11845.28, 30284.91, 0.00, 0.000, 0.000, 0.000, 13:16:19.154
26, 0.00, 25986.29, 13679.80, 5528.26, -5436.99, 11837.06, 30286.43, 0.00, 0.000, 0.000, 0.000, 13:16:19.155
27, 0.00, 25981.76, 13676.00, 5591.78, -5455.03, 11833.01, 30295.91, 0.00, 0.000, 0.000, 0.000, 13:16:19.155
28, 0.00, 25981.69, 13673.43, 5619.23, -5235.36, 11838.47, 30299.38, 0.00, 0.034, -0.032, 0.994, 13:16:19.155
29, 0.00, 25985.78, 13678.87, 5566.12, -5125.23, 11844.88, 30290.10, 0.00, 0.000, 0.000, 0.000, 13:16:19.155
30, 0.00, 25987.63, 13685.15, 5517.42, -5233.75, 11845.08, 30280.31, 0.00, 0.000, 0.000, 0.000, 13:16:19.156
31, 0.00, 25983.41, 13679.42, 5526.92, -5437.37, 11836.83, 30281.96, 0.00, 0.000, 0.000, 0.000, 13:16:19.156
32, 0.00, 25979.01, 13674.26, 5585.01, -5461.04, 11833.42, 30293.12, 0.00, 0.000, 0.000, 0.000, 13:16:19.156
33, 0.00, 25979.50, 13676.16, 5620.86, -5237.26, 11839.58, 30297.79, 0.00, 0.000, 0.000, 0.000, 13:16:19.156
34, 0.00, 25983.41, 13683.11, 5577.45, -5121.03, 11846.38, 30290.55, 0.00, 0.000, 0.000, 0.000, 13:16:19.156
35, 0.00, 25985.15, 13684.52, 5523.43, -5234.49, 11844.52, 30278.99, 0.00, 0.000, 0.000, 0.000, 13:16:19.157
36, 0.00, 25983.07, 13682.91, 5536.37, -5437.24, 11837.17, 30280.96, 0.00, 0.000, 0.000, 0.000, 13:16:19.157
37, 0.00, 25979.12, 13678.15, 5599.40, -5456.19, 11835.25, 30291.33, 0.00, 0.000, 0.000, 0.000, 13:16:19.157
38, 0.00, 25977.17, 13673.37, 5629.09, -5234.09, 11835.90, 30293.29, 0.00, 0.034, -0.034, 0.998, 13:16:19.157
39, 0.00, 25984.82, 13680.47, 5577.99, -5121.99, 11845.15, 30288.20, 0.00, 0.000, 0.000, 0.000, 13:16:19.158
40, 0.00, 25984.75, 13681.68, 5524.77, -5234.85, 11843.32, 30277.18, 0.00, 0.000, 0.000, 0.000, 13:16:19.158
41, 0.00, 25981.51, 13680.47, 5534.65, -5440.64, 11836.05, 30279.62, 0.00, 0.000, 0.000, 0.000, 13:16:19.158
42, 0.00, 25977.84, 13680.14, 5600.39, -5458.65, 11833.17, 30290.55, 0.00, 0.000, 0.000, 0.000, 13:16:19.158
43, 0.00, 25977.55, 13677.59, 5632.44, -5236.16, 11838.40, 30293.65, 0.00, 0.000, 0.000, 0.000, 13:16:19.158
44, 0.00, 25981.24, 13682.93, 5583.76, -5120.38, 11845.78, 30284.36, 0.00, 0.000, 0.000, 0.000, 13:16:19.159
45, 0.00, 25983.37, 13686.40, 5530.96, -5234.85, 11846.20, 30276.17, 0.00, 0.000, 0.000, 0.000, 13:16:19.159
46, 0.00, 25981.24, 13683.85, 5543.25, -5437.20, 11839.34, 30278.57, 0.00, 0.000, 0.000, 0.000, 13:16:19.159
47, 0.00, 25976.53, 13677.43, 5604.52, -5453.96, 11832.48, 30289.23, 0.00, 0.000, 0.000, 0.000, 13:16:19.159
48, 0.00, 25976.26, 13675.80, 5633.02, -5231.63, 11838.15, 30293.36, 0.00, 0.028, -0.032, 0.994, 13:16:19.160
49, 0.00, 25980.91, 13678.69, 5576.94, -5125.59, 11842.92, 30283.66, 0.00, 0.000, 0.000, 0.000, 13:16:19.160
50, 0.00, 25984.84, 13682.96, 5524.39, -5242.87, 11842.27, 30276.29, 0.00, 0.000, 0.000, 0.000, 13:16:19.160
51, 0.00, 25984.26, 13685.24, 5543.72, -5443.19, 11836.66, 30280.00, 0.00, 0.000, 0.000, 0.000, 13:16:19.160
52, 0.00, 25978.87, 13679.13, 5607.05, -5459.46, 11831.72, 30289.36, 0.00, 0.000, 0.000, 0.000, 13:16:19.160
53, 0.00, 25979.95, 13679.07, 5639.21, -5230.84, 11836.32, 30295.20, 0.00, 0.000, 0.000, 0.000, 13:16:19.161
54, 0.00, 25983.54, 13682.69, 5582.66, -5120.14, 11839.67, 30286.46, 0.00, 0.000, 0.000, 0.000, 13:16:19.161
55, 0.00, 25986.05, 13682.78, 5525.13, -5240.93, 11838.74, 30277.58, 0.00, 0.000, 0.000, 0.000, 13:16:19.161
56, 0.00, 25984.68, 13682.67, 5540.53, -5439.65, 11834.47, 30282.16, 0.00, 0.000, 0.000, 0.000, 13:16:19.161
57, 0.00, 25980.35, 13679.67, 5602.60, -5453.53, 11835.34, 30293.79, 0.00, 0.000, 0.000, 0.000, 13:16:19.162
58, 0.00, 25980.68, 13678.82, 5630.85, -5232.86, 11841.17, 30297.36, 0.00, 0.024, -0.032, 1.000, 13:16:19.162
59, 0.00, 25983.32, 13679.60, 5573.74, -5122.28, 11844.46, 30286.05, 0.00, 0.000, 0.000, 0.000, 13:16:19.162
60, 0.00, 25986.05, 13685.06, 5521.93, -5238.27, 11843.92, 30276.51, 0.00, 0.000, 0.000, 0.000, 13:16:19.162
61, 0.00, 25983.79, 13684.59, 5535.95, -5440.21, 11836.43, 30279.19, 0.00, 0.000, 0.000, 0.000, 13:16:19.163
62, 0.00, 25979.01, 13678.13, 5598.17, -5454.03, 11832.28, 30290.97, 0.00, 0.000, 0.000, 0.000, 13:16:19.163
63, 0.00, 25978.27, 13676.67, 5626.36, -5232.68, 11836.05, 30294.66, 0.00, 0.000, 0.000, 0.000, 13:16:19.163
64, 0.00, 25982.74, 13681.55, 5570.64, -5124.07, 11842.76, 30285.25, 0.00, 0.000, 0.000, 0.000, 13:16:19.163
65, 0.00, 25986.49, 13687.27, 5519.16, -5239.61, 11842.98, 30278.43, 0.00, 0.000, 0.000, 0.000, 13:16:19.163
66, 0.00, 25982.81, 13684.01, 5530.29, -5441.58, 11836.03, 30281.34, 0.00, 0.000, 0.000, 0.000, 13:16:19.164
67, 0.00, 25977.55, 13680.59, 5591.58, -5457.65, 11830.62, 30290.30, 0.00, 0.000, 0.000, 0.000, 13:16:19.164
68, 0.00, 25978.07, 13676.29, 5621.84, -5234.20, 11834.89, 30292.96, 0.00, 0.028, -0.032, 0.994, 13:16:19.164
69, 0.00, 25982.65, 13680.90, 5568.80, -5124.90, 11841.37, 30285.03, 0.00, 0.000, 0.000, 0.000, 13:16:19.164
70, 0.00, 25986.34, 13686.67, 5519.20, -5240.34, 11841.75, 30276.26, 0.00, 0.000, 0.000, 0.000, 13:16:19.164
71, 0.00, 25983.41, 13683.13, 5529.42, -5443.32, 11834.13, 30278.32, 0.00, 0.000, 0.000, 0.000, 13:16:19.165
72, 0.00, 25978.36, 13679.18, 5590.64, -5459.35, 11830.91, 30290.17, 0.00, 0.000, 0.000, 0.000, 13:16:19.165
73, 0.00, 25979.63, 13681.35, 5623.21, -5234.02, 11836.19, 30295.42, 0.00, 0.000, 0.000, 0.000, 13:16:19.165
74, 0.00, 25983.07, 13685.41, 5572.29, -5119.24, 11840.19, 30285.47, 0.00, 0.000, 0.000, 0.000, 13:16:19.165
75, 0.00, 25985.11, 13688.34, 5519.56, -5236.61, 11838.09, 30276.06, 0.00, 0.000, 0.000, 0.000, 13:16:19.169
76, 0.00, 25983.95, 13685.28, 5534.18, -5442.78, 11831.40, 30279.53, 0.00, 0.000, 0.000, 0.000, 13:16:19.169
77, 0.00, 25979.50, 13678.44, 5594.71, -5460.40, 11826.06, 30289.09, 0.00, 0.000, 0.000, 0.000, 13:16:19.169
78, 0.00, 25980.55, 13679.69, 5627.45, -5236.68, 11831.38, 30293.21, 0.00, 0.032, -0.032, 0.996, 13:16:19.170
79, 0.00, 25985.64, 13685.48, 5578.50, -5127.58, 11839.07, 30285.21, 0.00, 0.000, 0.000, 0.000, 13:16:19.170
80, 0.00, 25988.55, 13690.02, 5526.38, -5243.52, 11839.14, 30277.43, 0.00, 0.000, 0.000, 0.000, 13:16:19.170
81, 0.00, 25983.30, 13681.32, 5534.54, -5449.15, 11829.35, 30277.52, 0.00, 0.000, 0.000, 0.000, 13:16:19.171
82, 0.00, 25980.21, 13678.04, 5599.38, -5463.08, 11826.51, 30289.83, 0.00, 0.000, 0.000, 0.000, 13:16:19.171
83, 0.00, 25978.49, 13675.98, 5628.35, -5241.80, 11828.52, 30292.78, 0.00, 0.000, 0.000, 0.000, 13:16:19.171
84, 0.00, 25982.85, 13679.85, 5573.25, -5132.85, 11835.54, 30284.47, 0.00, 0.000, 0.000, 0.000, 13:16:19.171
85, 0.00, 25985.04, 13684.01, 5523.00, -5242.83, 11836.10, 30276.09, 0.00, 0.000, 0.000, 0.000, 13:16:19.171
86, 0.00, 25983.10, 13686.60, 5540.77, -5443.86, 11831.90, 30280.09, 0.00, 0.000, 0.000, 0.000, 13:16:19.172
87, 0.00, 25978.92, 13682.75, 5606.33, -5457.65, 11829.46, 30291.15, 0.00, 0.000, 0.000, 0.000, 13:16:19.172
88, 0.00, 25979.92, 13681.44, 5633.49, -5229.68, 11834.33, 30295.17, 0.00, 0.034, -0.030, 1.000, 13:16:19.172
89, 0.00, 25985.31, 13686.00, 5575.84, -5120.63, 11839.85, 30286.39, 0.00, 0.000, 0.000, 0.000, 13:16:19.172
90, 0.00, 25986.49, 13688.79, 5521.55, -5238.71, 11840.61, 30277.09, 0.00, 0.000, 0.000, 0.000, 13:16:19.173
91, 0.00, 25983.14, 13686.08, 5532.28, -5442.20, 11834.53, 30279.75, 0.00, 0.000, 0.000, 0.000, 13:16:19.173
92, 0.00, 25979.28, 13682.35, 5593.43, -5454.92, 11831.43, 30290.81, 0.00, 0.000, 0.000, 0.000, 13:16:19.173
93, 0.00, 25980.88, 13683.92, 5625.42, -5230.06, 11834.40, 30296.71, 0.00, 0.000, 0.000, 0.000, 13:16:19.174
94, 0.00, 25986.12, 13690.13, 5576.18, -5114.97, 11840.70, 30289.38, 0.00, 0.000, 0.000, 0.000, 13:16:19.174
95, 0.00, 25987.72, 13688.61, 5516.81, -5240.41, 11838.80, 30278.14, 0.00, 0.000, 0.000, 0.000, 13:16:19.174
96, 0.00, 25985.94, 13685.39, 5528.06, -5444.10, 11832.95, 30281.49, 0.00, 0.000, 0.000, 0.000, 13:16:19.174
97, 0.00, 25982.00, 13682.91, 5592.58, -5455.55, 11830.26, 30293.12, 0.00, 0.034, -0.032, 0.992, 13:16:19.174
98, 0.00, 25981.02, 13682.02, 5618.54, -5232.10, 11832.07, 30295.26, 0.00, 0.000, 0.000, 0.000, 13:16:19.174
99, 0.00, 25986.43, 13688.63, 5564.20, -5123.51, 11837.93, 30286.28, 0.00, 0.000, 0.000, 0.000, 13:16:19.174
100, 0.00, 25988.60, 13690.73, 5508.03, -5242.18, 11838.91, 30278.32, 0.00, 0.000, 0.000, 0.000, 13:16:19.175
101, 0.00, 25984.73, 13687.58, 5517.26, -5444.93, 11832.21, 30280.62, 0.00, 0.000, 0.000, 0.000, 13:16:19.175
102, 0.00, 25981.09, 13684.47, 5579.69, -5455.77, 11828.19, 30292.00, 0.00, 0.000, 0.000, 0.000, 13:16:19.175
103, 0.00, 25981.53, 13682.49, 5605.57, -5233.55, 11830.80, 30295.96, 0.00, 0.000, 0.000, 0.000, 13:16:19.175
104, 0.00, 25985.56, 13687.05, 5551.15, -5127.07, 11835.61, 30287.39, 0.00, 0.000, 0.000, 0.000, 13:16:19.175
105, 0.00, 25987.43, 13690.85, 5501.46, -5244.43, 11835.09, 30279.46, 0.00, 0.000, 0.000, 0.000, 13:16:19.175
106, 0.00, 25985.82, 13689.84, 5516.72, -5447.25, 11829.66, 30283.62, 0.00, 0.000, 0.000, 0.000, 13:16:19.176
107, 0.00, 25981.40, 13687.11, 5584.20, -5456.93, 11828.23, 30293.63, 0.00, 0.034, -0.030, 0.996, 13:16:19.176
108, 0.00, 25982.85, 13687.18, 5610.31, -5234.35, 11832.48, 30297.90, 0.00, 0.000, 0.000, 0.000, 13:16:19.176
109, 0.00, 25987.30, 13687.25, 5553.80, -5125.34, 11836.46, 30289.54, 0.00, 0.000, 0.000, 0.000, 13:16:19.181
110, 0.00, 25991.35, 13692.88, 5504.39, -5242.76, 11838.15, 30282.68, 0.00, 0.000, 0.000, 0.000, 13:16:19.181
111, 0.00, 25988.42, 13692.59, 5518.02, -5448.08, 11834.87, 30284.71, 0.00, 0.000, 0.000, 0.000, 13:16:19.181
112, 0.00, 25983.28, 13688.23, 5585.28, -5454.07, 11831.54, 30295.91, 0.00, 0.000, 0.000, 0.000, 13:16:19.181
113, 0.00, 25982.99, 13687.69, 5614.15, -5229.44, 11835.14, 30298.88, 0.00, 0.000, 0.000, 0.000, 13:16:19.181
114, 0.00, 25987.34, 13693.44, 5567.19, -5118.46, 11841.24, 30289.72, 0.00, 0.000, 0.000, 0.000, 13:16:19.181
115, 0.00, 25989.04, 13695.32, 5514.42, -5238.51, 11839.63, 30280.91, 0.00, 0.000, 0.000, 0.000, 13:16:19.181
116, 0.00, 25987.01, 13692.70, 5523.59, -5449.22, 11832.50, 30284.69, 0.00, 0.000, 0.000, 0.000, 13:16:19.182
117, 0.00, 25982.38, 13688.01, 5587.06, -5458.81, 11829.91, 30295.06, 0.00, 0.040, -0.034, 0.994, 13:16:19.182
118, 0.00, 25982.52, 13688.39, 5616.79, -5228.70, 11834.35, 30298.41, 0.00, 0.000, 0.000, 0.000, 13:16:19.182
119, 0.00, 25987.28, 13695.54, 5564.24, -5118.26, 11840.59, 30290.12, 0.00, 0.000, 0.000, 0.000, 13:16:19.182
120, 0.00, 25989.65, 13696.63, 5509.01, -5241.95, 11842.27, 30280.69, 0.00, 0.000, 0.000, 0.000, 13:16:19.182
121, 0.00, 25984.75, 13692.88, 5518.00, -5450.47, 11833.35, 30280.67, 0.00, 0.000, 0.000, 0.000, 13:16:19.627
122, 0.00, 25979.30, 13688.43, 5583.62, -5455.48, 11829.91, 30290.21, 0.00, 0.000, 0.000, 0.000, 13:16:19.627
123, 0.00, 25980.30, 13689.53, 5611.74, -5228.99, 11836.34, 30294.88, 0.00, 0.000, 0.000, 0.000, 13:16:19.627
124, 0.00, 25983.52, 13692.43, 5553.56, -5125.52, 11840.25, 30284.69, 0.00, 0.000, 0.000, 0.000, 13:16:19.627
125, 0.00, 25985.69, 13695.76, 5502.62, -5242.94, 11839.12, 30277.11, 0.00, 0.000, 0.000, 0.000, 13:16:19.628
126, 0.00, 25982.76, 13693.33, 5513.86, -5447.63, 11831.99, 30279.75, 0.00, 0.000, 0.000, 0.000, 13:16:19.628
127, 0.00, 25979.95, 13689.19, 5574.93, -5457.78, 11829.75, 30289.94, 0.00, 0.036, -0.026, 0.990, 13:16:19.628
128, 0.00, 25980.62, 13690.02, 5604.77, -5227.87, 11834.49, 30293.77, 0.00, 0.000, 0.000, 0.000, 13:16:19.629
129, 0.00, 25986.05, 13695.00, 5549.83, -5120.58, 11839.34, 30286.08, 0.00, 0.000, 0.000, 0.000, 13:16:19.629
130, 0.00, 25988.55, 13698.00, 5498.35, -5243.41, 11836.81, 30276.62, 0.00, 0.000, 0.000, 0.000, 13:16:19.630
131, 0.00, 25986.63, 13696.75, 5510.82, -5448.82, 11831.96, 30280.51, 0.00, 0.000, 0.000, 0.000, 13:16:19.630
132, 0.00, 25982.70, 13695.67, 5574.93, -5457.54, 11830.35, 30292.96, 0.00, 0.000, 0.000, 0.000, 13:16:19.630
133, 0.00, 25982.25, 13691.69, 5599.65, -5231.11, 11834.35, 30295.82, 0.00, 0.000, 0.000, 0.000, 13:16:19.630
134, 0.00, 25986.41, 13691.87, 5542.32, -5125.95, 11837.66, 30286.08, 0.00, 0.000, 0.000, 0.000, 13:16:19.631
135, 0.00, 25989.56, 13696.17, 5490.30, -5247.00, 11838.13, 30278.59, 0.00, 0.000, 0.000, 0.000, 13:16:19.631
136, 0.00, 25987.12, 13696.23, 5503.58, -5451.19, 11831.83, 30281.88, 0.00, 0.000, 0.000, 0.000, 13:16:19.632
137, 0.00, 25982.34, 13691.76, 5569.79, -5455.88, 11827.76, 30292.92, 0.00, 0.034, -0.024, 0.990, 13:16:19.632
138, 0.00, 25983.70, 13690.87, 5597.52, -5230.40, 11831.74, 30298.19, 0.00, 0.000, 0.000, 0.000, 13:16:19.632
139, 0.00, 25987.77, 13695.38, 5545.65, -5121.61, 11838.56, 30289.16, 0.00, 0.000, 0.000, 0.000, 13:16:19.632
140, 0.00, 25989.80, 13697.55, 5492.23, -5243.18, 11839.61, 30280.18, 0.00, 0.000, 0.000, 0.000, 13:16:19.632
141, 0.00, 25988.44, 13696.59, 5506.22, -5446.94, 11833.15, 30283.75, 0.00, 0.000, 0.000, 0.000, 13:16:19.632
142, 0.00, 25983.57, 13693.15, 5572.31, -5453.15, 11828.92, 30294.84, 0.00, 0.000, 0.000, 0.000, 13:16:19.633
143, 0.00, 25983.70, 13693.01, 5600.05, -5227.89, 11835.96, 30297.86, 0.00, 0.000, 0.000, 0.000, 13:16:19.633
144, 0.00, 25989.20, 13699.00, 5547.79, -5122.51, 11842.58, 30290.10, 0.00, 0.000, 0.000, 0.000, 13:16:19.633
145, 0.00, 25990.14, 13703.43, 5497.39, -5246.16, 11842.65, 30281.20, 0.00, 0.000, 0.000, 0.000, 13:16:19.633
146, 0.00, 25986.05, 13700.64, 5510.29, -5451.84, 11836.66, 30282.54, 0.00, 0.000, 0.000, 0.000, 13:16:19.633
147, 0.00, 25980.08, 13697.15, 5575.44, -5453.07, 11832.54, 30291.35, 0.00, 0.036, -0.028, 0.992, 13:16:19.633
148, 0.00, 25978.27, 13691.96, 5602.38, -5226.28, 11834.24, 30292.20, 0.00, 0.000, 0.000, 0.000, 13:16:19.634
149, 0.00, 25982.25, 13694.62, 5548.62, -5120.85, 11839.29, 30283.10, 0.00, 0.000, 0.000, 0.000, 13:16:19.634
150, 0.00, 25985.58, 13697.84, 5495.47, -5245.42, 11838.13, 30274.70, 0.00, 0.000, 0.000, 0.000, 13:16:19.634
151, 0.00, 25984.21, 13695.09, 5509.37, -5447.66, 11830.96, 30279.08, 0.00, 0.000, 0.000, 0.000, 13:16:19.635
152, 0.00, 25980.30, 13690.58, 5570.99, -5457.85, 11826.82, 30291.04, 0.00, 0.000, 0.000, 0.000, 13:16:19.635
153, 0.00, 25981.24, 13689.97, 5596.68, -5235.05, 11829.01, 30295.89, 0.00, 0.000, 0.000, 0.000, 13:16:19.635
154, 0.00, 25985.09, 13694.78, 5544.33, -5127.76, 11835.54, 30286.79, 0.00, 0.000, 0.000, 0.000, 13:16:19.635
155, 0.00, 25988.39, 13697.95, 5492.76, -5250.94, 11834.82, 30279.75, 0.00, 0.000, 0.000, 0.000, 13:16:19.636
156, 0.00, 25986.09, 13697.35, 5509.68, -5448.75, 11830.49, 30283.30, 0.00, 0.000, 0.000, 0.000, 13:16:19.636
157, 0.00, 25983.10, 13694.31, 5573.68, -5454.36, 11829.06, 30294.19, 0.00, 0.034, -0.036, 0.990, 13:16:19.636
158, 0.00, 25982.03, 13691.11, 5596.14, -5233.12, 11831.54, 30296.74, 0.00, 0.000, 0.000, 0.000, 13:16:19.636
159, 0.00, 25984.64, 13698.80, 5545.53, -5122.66, 11836.77, 30288.58, 0.00, 0.000, 0.000, 0.000, 13:16:19.636
160, 0.00, 25987.08, 13699.45, 5493.23, -5247.99, 11836.52, 30280.06, 0.00, 0.000, 0.000, 0.000, 13:16:19.637
161, 0.00, 25985.20, 13694.76, 5505.15, -5448.77, 11830.89, 30282.25, 0.00, 0.000, 0.000, 0.000, 13:16:19.637
162, 0.00, 25980.04, 13690.13, 5563.08, -5456.37, 11827.16, 30293.86, 0.00, 0.000, 0.000, 0.000, 13:16:19.637
163, 0.00, 25977.55, 13688.27, 5584.34, -5233.08, 11829.01, 30294.93, 0.00, 0.000, 0.000, 0.000, 13:16:19.637
164, 0.00, 25983.86, 13698.09, 5536.19, -5124.96, 11836.43, 30287.57, 0.00, 0.000, 0.000, 0.000, 13:16:19.638
165, 0.00, 25988.33, 13704.64, 5489.39, -5249.17, 11838.42, 30280.91, 0.00, 0.000, 0.000, 0.000, 13:16:19.638
166, 0.00, 25984.55, 13700.86, 5502.82, -5451.21, 11830.31, 30282.37, 0.00, 0.000, 0.000, 0.000, 13:16:19.638
167, 0.00, 25979.65, 13697.22, 5565.38, -5454.38, 11829.75, 30292.69, 0.00, 0.036, -0.038, 0.998, 13:16:19.639
168, 0.00, 25979.52, 13696.19, 5589.88, -5231.58, 11834.49, 30294.95, 0.00, 0.000, 0.000, 0.000, 13:16:19.639
169, 0.00, 25983.52, 13699.12, 5536.97, -5122.86, 11839.05, 30284.56, 0.00, 0.000, 0.000, 0.000, 13:16:19.639
170, 0.00, 25985.78, 13700.70, 5483.13, -5249.73, 11837.28, 30275.46, 0.00, 0.000, 0.000, 0.000, 13:16:19.639
171, 0.00, 25982.85, 13698.40, 5495.56, -5451.41, 11830.82, 30279.30, 0.00, 0.000, 0.000, 0.000, 13:16:19.639
172, 0.00, 25979.97, 13696.17, 5559.12, -5453.07, 11827.29, 30291.71, 0.00, 0.000, 0.000, 0.000, 13:16:19.639
173, 0.00, 25979.83, 13691.65, 5583.11, -5227.38, 11829.19, 30294.28, 0.00, 0.000, 0.000, 0.000, 13:16:19.639
174, 0.00, 25984.13, 13696.14, 5523.83, -5129.35, 11833.77, 30284.69, 0.00, 0.000, 0.000, 0.000, 13:16:19.640
175, 0.00, 25987.43, 13700.14, 5473.56, -5253.13, 11832.92, 30277.20, 0.00, 0.000, 0.000, 0.000, 13:16:19.641
176, 0.00, 25984.46, 13698.20, 5488.54, -5455.75, 11825.59, 30281.09, 0.00, 0.000, 0.000, 0.000, 13:16:19.641
177, 0.00, 25979.52, 13693.08, 5551.79, -5459.66, 11821.35, 30290.93, 0.00, 0.038, -0.034, 0.996, 13:16:19.641
178, 0.00, 25978.78, 13692.21, 5580.63, -5231.58, 11825.66, 30291.75, 0.00, 0.000, 0.000, 0.000, 13:16:19.641
179, 0.00, 25984.08, 13697.08, 5526.45, -5129.14, 11830.51, 30283.06, 0.00, 0.000, 0.000, 0.000, 13:16:19.641
180, 0.00, 25986.03, 13698.80, 5475.89, -5255.21, 11829.77, 30274.83, 0.00, 0.000, 0.000, 0.000, 13:16:19.642
181, 0.00, 25984.55, 13697.42, 5492.18, -5455.64, 11823.74, 30278.63, 0.00, 0.000, 0.000, 0.000, 13:16:19.642
182, 0.00, 25980.62, 13693.64, 5556.29, -5456.98, 11823.20, 30290.68, 0.00, 0.000, 0.000, 0.000, 13:16:19.642
183, 0.00, 25981.49, 13692.21, 5580.05, -5231.54, 11827.63, 30295.02, 0.00, 0.000, 0.000, 0.000, 13:16:19.642
184, 0.00, 25985.69, 13697.10, 5523.92, -5130.26, 11833.77, 30285.49, 0.00, 0.000, 0.000, 0.000, 13:16:19.642
185, 0.00, 25988.78, 13702.85, 5475.73, -5253.20, 11834.44, 30278.63, 0.00, 0.000, 0.000, 0.000, 13:16:19.643
186, 0.00, 25985.71, 13700.43, 5492.56, -5451.63, 11827.22, 30281.25, 0.00, 0.000, 0.000, 0.000, 13:16:19.643
187, 0.00, 25981.96, 13699.23, 5556.69, -5453.62, 11826.29, 30293.18, 0.00, 0.038, -0.030, 0.994, 13:16:19.643
188, 0.00, 25981.91, 13694.40, 5579.64, -5230.84, 11829.91, 30295.02, 0.00, 0.000, 0.000, 0.000, 13:16:19.643
189, 0.00, 25986.16, 13699.88, 5528.17, -5123.56, 11835.94, 30285.99, 0.00, 0.000, 0.000, 0.000, 13:16:19.643
190, 0.00, 25986.70, 13702.83, 5480.78, -5246.22, 11833.26, 30276.31, 0.00, 0.000, 0.000, 0.000, 13:16:19.643
191, 0.00, 25983.54, 13699.05, 5493.10, -5453.31, 11827.89, 30279.64, 0.00, 0.000, 0.000, 0.000, 13:16:19.644
192, 0.00, 25980.48, 13693.95, 5554.92, -5458.39, 11825.82, 30291.75, 0.00, 0.000, 0.000, 0.000, 13:16:19.644
193, 0.00, 25982.74, 13695.07, 5582.12, -5228.72, 11830.58, 30297.65, 0.00, 0.000, 0.000, 0.000, 13:16:19.644
194, 0.00, 25988.02, 13701.40, 5530.58, -5125.57, 11836.66, 30288.20, 0.00, 0.000, 0.000, 0.000, 13:16:19.644
195, 0.00, 25988.04, 13701.86, 5477.09, -5253.49, 11834.85, 30277.49, 0.00, 0.000, 0.000, 0.000, 13:16:19.644
196, 0.00, 25986.32, 13700.01, 5491.80, -5452.86, 11829.95, 30281.34, 0.00, 0.000, 0.000, 0.000, 13:16:19.645
197, 0.00, 25983.30, 13696.57, 5555.15, -5456.40, 11825.48, 30292.27, 0.00, 0.038, -0.030, 0.998, 13:16:19.645
198, 0.00, 25984.10, 13696.57, 5583.73, -5228.21, 11828.72, 30295.24, 0.00, 0.000, 0.000, 0.000, 13:16:19.645
199, 0.00, 25988.04, 13701.69, 5529.33, -5127.24, 11834.00, 30285.49, 0.00, 0.000, 0.000, 0.000, 13:16:19.646
200, 0.00, 25988.62, 13704.28, 5478.95, -5252.75, 11832.79, 30276.80, 0.00, 0.000, 0.000, 0.000, 13:16:19.646
201, 0.00, 25986.14, 13702.45, 5493.30, -5454.43, 11828.23, 30282.57, 0.00, 0.000, 0.000, 0.000, 13:16:19.646
202, 0.00, 25982.16, 13698.80, 5554.01, -5458.70, 11825.86, 30292.51, 0.00, 0.000, 0.000, 0.000, 13:16:19.647
203, 0.00, 25980.50, 13696.39, 5577.72, -5231.47, 11827.42, 30293.23, 0.00, 0.000, 0.000, 0.000, 13:16:19.647
204, 0.00, 25984.44, 13698.47, 5524.70, -5128.47, 11833.64, 30283.71, 0.00, 0.000, 0.000, 0.000, 13:16:19.647
205, 0.00, 25987.39, 13702.22, 5476.87, -5252.86, 11834.22, 30275.30, 0.00, 0.000, 0.000, 0.000, 13:16:19.647
206, 0.00, 25986.16, 13701.75, 5492.14, -5456.84, 11828.61, 30280.96, 0.00, 0.000, 0.000, 0.000, 13:16:19.647
207, 0.00, 25980.68, 13697.08, 5556.40, -5458.36, 11823.36, 30290.81, 0.00, 0.030, -0.030, 1.002, 13:16:19.648
208, 0.00, 25980.44, 13696.01, 5582.44, -5230.73, 11826.89, 30293.50, 0.00, 0.000, 0.000, 0.000, 13:16:19.648
209, 0.00, 25984.93, 13700.34, 5530.80, -5124.45, 11834.18, 30284.40, 0.00, 0.000, 0.000, 0.000, 13:16:19.648
210, 0.00, 25987.57, 13704.01, 5479.11, -5251.03, 11834.76, 30276.49, 0.00, 0.000, 0.000, 0.000, 13:16:19.648
211, 0.00, 25984.01, 13699.74, 5488.98, -5459.01, 11825.91, 30278.81, 0.00, 0.000, 0.000, 0.000, 13:16:19.649
212, 0.00, 25979.92, 13697.66, 5555.70, -5457.54, 11823.96, 30290.26, 0.00, 0.000, 0.000, 0.000, 13:16:19.649
213, 0.00, 25980.39, 13699.27, 5584.54, -5226.53, 11829.64, 30294.37, 0.00, 0.000, 0.000, 0.000, 13:16:19.649
214, 0.00, 25983.81, 13703.63, 5529.69, -5124.90, 11835.61, 30285.45, 0.00, 0.000, 0.000, 0.000, 13:16:19.649
215, 0.00, 25984.53, 13704.61, 5476.27, -5251.74, 11832.34, 30275.53, 0.00, 0.000, 0.000, 0.000, 13:16:19.649
216, 0.00, 25981.40, 13703.25, 5489.57, -5457.02, 11823.65, 30278.68, 0.00, 0.000, 0.000, 0.000, 13:16:19.650
217, 0.00, 25976.19, 13700.77, 5555.19, -5453.24, 11822.31, 30288.38, 0.00, 0.034, -0.036, 1.002, 13:16:19.650
218, 0.00, 25978.36, 13702.00, 5579.84, -5229.28, 11828.34, 30292.85, 0.00, 0.000, 0.000, 0.000, 13:16:19.650
219, 0.00, 25983.97, 13701.55, 5522.62, -5128.45, 11831.99, 30284.11, 0.00, 0.000, 0.000, 0.000, 13:16:19.650
220, 0.00, 25986.79, 13704.82, 5472.18, -5256.68, 11832.43, 30275.71, 0.00, 0.000, 0.000, 0.000, 13:16:19.650
221, 0.00, 25982.96, 13700.75, 5484.13, -5461.60, 11826.22, 30278.28, 0.00, 0.000, 0.000, 0.000, 13:16:19.651
222, 0.00, 25979.52, 13701.82, 5555.62, -5457.22, 11823.76, 30289.47, 0.00, 0.000, 0.000, 0.000, 13:16:19.652
223, 0.00, 25979.30, 13701.64, 5584.11, -5229.03, 11825.82, 30291.51, 0.00, 0.000, 0.000, 0.000, 13:16:19.652
224, 0.00, 25983.30, 13704.64, 5528.12, -5126.66, 11831.31, 30281.76, 0.00, 0.000, 0.000, 0.000, 13:16:19.652
225, 0.00, 25985.20, 13708.53, 5478.48, -5253.49, 11831.96, 30274.52, 0.00, 0.000, 0.000, 0.000, 13:16:19.652
226, 0.00, 25981.85, 13707.07, 5494.19, -5457.13, 11825.64, 30278.52, 0.00, 0.000, 0.000, 0.000, 13:16:19.652
227, 0.00, 25977.44, 13702.20, 5557.05, -5457.85, 11822.04, 30287.44, 0.00, 0.034, -0.040, 0.998, 13:16:19.653
228, 0.00, 25977.67, 13700.23, 5581.10, -5228.83, 11825.77, 30290.21, 0.00, 0.000, 0.000, 0.000, 13:16:19.653
229, 0.00, 25981.80, 13702.58, 5521.28, -5133.08, 11830.58, 30281.16, 0.00, 0.000, 0.000, 0.000, 13:16:19.653
230, 0.00, 25984.95, 13707.12, 5473.92, -5258.87, 11829.10, 30272.67, 0.00, 0.000, 0.000, 0.000, 13:16:19.653
231, 0.00, 25984.48, 13708.01, 5495.47, -5454.88, 11823.09, 30278.23, 0.00, 0.000, 0.000, 0.000, 13:16:19.653
232, 0.00, 25979.61, 13702.13, 5559.42, -5451.39, 11822.82, 30289.99, 0.00, 0.000, 0.000, 0.000, 13:16:19.653
233, 0.00, 25981.06, 13702.94, 5582.86, -5229.17, 11827.56, 30293.94, 0.00, 0.000, 0.000, 0.000, 13:16:19.653
234, 0.00, 25985.31, 13707.94, 5531.12, -5124.99, 11833.50, 30283.69, 0.00, 0.000, 0.000, 0.000, 13:16:19.654
235, 0.00, 25985.56, 13705.11, 5478.48, -5255.95, 11830.62, 30273.51, 0.00, 0.000, 0.000, 0.000, 13:16:19.654
236, 0.00, 25982.81, 13703.54, 5491.85, -5461.74, 11823.33, 30277.67, 0.00, 0.000, 0.000, 0.000, 13:16:19.654
237, 0.00, 25979.83, 13700.34, 5556.84, -5457.98, 11820.25, 30289.72, 0.00, 0.030, -0.042, 0.994, 13:16:19.654
238, 0.00, 25981.71, 13700.64, 5581.05, -5233.42, 11824.18, 30293.29, 0.00, 0.000, 0.000, 0.000, 13:16:19.655
239, 0.00, 25984.46, 13704.66, 5527.09, -5131.42, 11829.19, 30281.49, 0.00, 0.000, 0.000, 0.000, 13:16:19.655
240, 0.00, 25986.09, 13706.63, 5473.23, -5260.86, 11827.47, 30271.50, 0.00, 0.000, 0.000, 0.000, 13:16:19.655
241, 0.00, 25985.67, 13703.94, 5484.09, -5467.91, 11821.01, 30278.79, 0.00, 0.000, 0.000, 0.000, 13:16:20.108
242, 0.00, 25981.53, 13700.77, 5549.74, -5461.04, 11819.56, 30290.88, 0.00, 0.000, 0.000, 0.000, 13:16:20.108
243, 0.00, 25978.54, 13701.08, 5577.05, -5230.82, 11822.73, 30289.70, 0.00, 0.000, 0.000, 0.000, 13:16:20.108
244, 0.00, 25981.94, 13703.38, 5519.29, -5132.94, 11826.15, 30278.83, 0.00, 0.000, 0.000, 0.000, 13:16:20.108
245, 0.00, 25984.97, 13704.30, 5464.35, -5261.38, 11823.96, 30272.15, 0.00, 0.000, 0.000, 0.000, 13:16:20.108
246, 0.00, 25982.83, 13704.55, 5480.51, -5464.44, 11819.04, 30277.45, 0.00, 0.000, 0.000, 0.000, 13:16:20.109
247, 0.00, 25978.56, 13700.77, 5549.45, -5457.38, 11818.28, 30287.60, 0.00, 0.036, -0.042, 0.998, 13:16:20.109
248, 0.00, 25979.74, 13700.50, 5571.28, -5231.67, 11822.44, 30290.26, 0.00, 0.000, 0.000, 0.000, 13:16:20.109
249, 0.00, 25984.30, 13706.40, 5519.56, -5129.03, 11828.03, 30281.65, 0.00, 0.000, 0.000, 0.000, 13:16:20.109
250, 0.00, 25988.17, 13708.17, 5469.49, -5261.78, 11827.94, 30274.45, 0.00, 0.000, 0.000, 0.000, 13:16:20.109
251, 0.00, 25986.16, 13707.50, 5486.12, -5464.40, 11823.16, 30278.19, 0.00, 0.000, 0.000, 0.000, 13:16:20.110
252, 0.00, 25980.50, 13700.41, 5547.32, -5457.60, 11818.57, 30289.29, 0.00, 0.000, 0.000, 0.000, 13:16:20.110
253, 0.00, 25979.25, 13698.49, 5570.50, -5233.04, 11820.72, 30291.66, 0.00, 0.000, 0.000, 0.000, 13:16:20.110
254, 0.00, 25984.82, 13706.16, 5520.39, -5134.13, 11828.01, 30281.83, 0.00, 0.000, 0.000, 0.000, 13:16:20.110
255, 0.00, 25986.63, 13707.94, 5471.62, -5263.37, 11826.51, 30273.76, 0.00, 0.000, 0.000, 0.000, 13:16:20.111
0, 0.00, 25983.92, 13703.41, 5484.65, -5467.88, 11818.46, 30278.30, 0.00, 0.000, 0.000, 0.000, 13:16:20.112
1, 0.00, 25981.00, 13700.26, 5549.36, -5461.47, 11816.47, 30290.23, 0.00, 0.034, -0.042, 0.998, 13:16:20.112
2, 0.00, 25981.96, 13701.28, 5575.84, -5232.79, 11821.75, 30292.96, 0.00, 0.000, 0.000, 0.000, 13:16:20.112
3, 0.00, 25985.67, 13705.93, 5519.27, -5134.91, 11827.18, 30282.32, 0.00, 0.000, 0.000, 0.000, 13:16:20.112
4, 0.00, 25988.75, 13709.29, 5469.49, -5262.81, 11826.82, 30274.68, 0.00, 0.000, 0.000, 0.000, 13:16:20.112
5, 0.00, 25985.82, 13707.27, 5482.97, -5465.02, 11820.97, 30277.92, 0.00, 0.000, 0.000, 0.000, 13:16:20.113
6, 0.00, 25980.50, 13703.72, 5547.73, -5459.88, 11816.81, 30287.91, 0.00, 0.000, 0.000, 0.000, 13:16:20.113
7, 0.00, 25980.79, 13702.42, 5573.77, -5230.75, 11822.62, 30289.83, 0.00, 0.000, 0.000, 0.000, 13:16:20.113
8, 0.00, 25985.02, 13706.22, 5518.29, -5133.61, 11828.07, 30279.71, 0.00, 0.000, 0.000, 0.000, 13:16:20.114
9, 0.00, 25988.04, 13711.57, 5470.21, -5262.54, 11828.43, 30272.15, 0.00, 0.000, 0.000, 0.000, 13:16:20.114
10, 0.00, 25986.38, 13708.08, 5483.96, -5468.26, 11822.06, 30275.95, 0.00, 0.000, 0.000, 0.000, 13:16:20.114
11, 0.00, 25980.88, 13699.07, 5546.70, -5459.55, 11817.61, 30285.94, 0.00, 0.038, -0.036, 0.992, 13:16:20.114
12, 0.00, 25978.52, 13698.85, 5568.58, -5234.38, 11820.99, 30288.58, 0.00, 0.000, 0.000, 0.000, 13:16:20.114
13, 0.00, 25983.14, 13702.78, 5514.09, -5134.02, 11827.04, 30278.14, 0.00, 0.000, 0.000, 0.000, 13:16:20.115
14, 0.00, 25986.43, 13708.88, 5466.66, -5263.86, 11826.38, 30270.18, 0.00, 0.000, 0.000, 0.000, 13:16:20.115
15, 0.00, 25983.07, 13708.95, 5485.03, -5465.14, 11821.12, 30275.15, 0.00, 0.000, 0.000, 0.000, 13:16:20.115
16, 0.00, 25978.94, 13705.42, 5549.54, -5457.67, 11820.16, 30287.46, 0.00, 0.000, 0.000, 0.000, 13:16:20.115
17, 0.00, 25977.78, 13705.64, 5573.83, -5229.62, 11824.32, 30289.92, 0.00, 0.000, 0.000, 0.000, 13:16:20.116
18, 0.00, 25982.47, 13708.30, 5517.10, -5129.75, 11828.41, 30280.35, 0.00, 0.000, 0.000, 0.000, 13:16:20.116
19, 0.00, 25986.29, 13711.92, 5466.36, -5262.49, 11826.93, 30272.44, 0.00, 0.000, 0.000, 0.000, 13:16:20.116
20, 0.00, 25983.66, 13710.16, 5483.96, -5466.59, 11819.85, 30275.55, 0.00, 0.000, 0.000, 0.000, 13:16:20.116
21, 0.00, 25979.97, 13705.17, 5550.41, -5456.80, 11815.47, 30287.53, 0.00, 0.034, -0.036, 0.992, 13:16:20.116
22, 0.00, 25979.95, 13704.03, 5574.21, -5233.15, 11818.51, 30290.03, 0.00, 0.000, 0.000, 0.000, 13:16:20.117
23, 0.00, 25984.42, 13709.80, 5522.89, -5136.25, 11826.82, 30280.82, 0.00, 0.000, 0.000, 0.000, 13:16:20.117
24, 0.00, 25986.81, 13712.55, 5473.58, -5266.72, 11826.96, 30273.40, 0.00, 0.000, 0.000, 0.000, 13:16:20.117
25, 0.00, 25983.75, 13709.84, 5487.96, -5466.43, 11821.43, 30277.20, 0.00, 0.000, 0.000, 0.000, 13:16:20.117
26, 0.00, 25980.21, 13708.08, 5553.11, -5456.82, 11818.64, 30288.18, 0.00, 0.000, 0.000, 0.000, 13:16:20.117
27, 0.00, 25980.42, 13712.12, 5582.59, -5228.85, 11823.92, 30291.62, 0.00, 0.000, 0.000, 0.000, 13:16:20.118
28, 0.00, 25981.67, 13709.64, 5524.59, -5132.88, 11826.87, 30279.97, 0.00, 0.000, 0.000, 0.000, 13:16:20.118
29, 0.00, 25984.71, 13711.41, 5469.27, -5266.18, 11825.88, 30271.95, 0.00, 0.000, 0.000, 0.000, 13:16:20.118
30, 0.00, 25982.20, 13710.69, 5486.71, -5467.17, 11819.33, 30275.55, 0.00, 0.000, 0.000, 0.000, 13:16:20.118
31, 0.00, 25977.78, 13706.22, 5551.52, -5458.47, 11817.14, 30286.39, 0.00, 0.032, -0.030, 0.992, 13:16:20.119
32, 0.00, 25977.53, 13704.03, 5571.71, -5231.29, 11820.25, 30289.03, 0.00, 0.000, 0.000, 0.000, 13:16:20.119
33, 0.00, 25984.26, 13711.70, 5519.67, -5133.35, 11828.36, 30282.77, 0.00, 0.000, 0.000, 0.000, 13:16:20.119
34, 0.00, 25986.43, 13716.04, 5473.32, -5263.10, 11828.90, 30274.45, 0.00, 0.000, 0.000, 0.000, 13:16:20.119
35, 0.00, 25984.53, 13715.01, 5491.00, -5464.58, 11824.99, 30278.77, 0.00, 0.000, 0.000, 0.000, 13:16:20.120
36, 0.00, 25978.89, 13709.38, 5556.58, -5454.32, 11818.84, 30286.77, 0.00, 0.000, 0.000, 0.000, 13:16:20.120
37, 0.00, 25978.43, 13708.93, 5578.68, -5229.39, 11822.08, 30288.13, 0.00, 0.000, 0.000, 0.000, 13:16:20.120
38, 0.00, 25981.82, 13713.13, 5523.76, -5133.61, 11828.52, 30277.89, 0.00, 0.000, 0.000, 0.000, 13:16:20.120
39, 0.00, 25985.71, 13717.73, 5478.95, -5264.93, 11827.63, 30271.01, 0.00, 0.000, 0.000, 0.000, 13:16:20.121
40, 0.00, 25983.86, 13714.69, 5501.97, -5462.97, 11820.79, 30275.35, 0.00, 0.000, 0.000, 0.000, 13:16:20.121
41, 0.00, 25979.23, 13711.01, 5566.17, -5456.87, 11819.24, 30286.90, 0.00, 0.034, -0.032, 0.990, 13:16:20.121
42, 0.00, 25980.28, 13713.46, 5591.91, -5231.11, 11824.54, 30290.30, 0.00, 0.000, 0.000, 0.000, 13:16:20.122
43, 0.00, 25985.38, 13713.44, 5537.04, -5134.15, 11828.97, 30281.43, 0.00, 0.000, 0.000, 0.000, 13:16:20.122
44, 0.00, 25988.04, 13716.39, 5489.39, -5264.66, 11828.07, 30273.83, 0.00, 0.000, 0.000, 0.000, 13:16:20.122
45, 0.00, 25985.11, 13714.76, 5506.82, -5463.57, 11822.42, 30277.20, 0.00, 0.000, 0.000, 0.000, 13:16:20.122
46, 0.00, 25980.28, 13708.97, 5571.42, -5449.20, 11819.51, 30287.57, 0.00, 0.000, 0.000, 0.000, 13:16:20.122
47, 0.00, 25981.67, 13709.51, 5591.27, -5224.70, 11824.54, 30290.48, 0.00, 0.000, 0.000, 0.000, 13:16:20.123
48, 0.00, 25985.62, 13714.49, 5535.54, -5130.66, 11830.73, 30280.24, 0.00, 0.000, 0.000, 0.000, 13:16:20.123
49, 0.00, 25986.27, 13717.02, 5486.86, -5261.98, 11830.24, 30272.62, 0.00, 0.000, 0.000, 0.000, 13:16:20.123
50, 0.00, 25983.59, 13714.47, 5504.16, -5461.60, 11824.45, 30277.54, 0.00, 0.000, 0.000, 0.000, 13:16:20.123
51, 0.00, 25978.36, 13709.75, 5570.61, -5450.50, 11820.23, 30286.41, 0.00, 0.028, -0.036, 0.994, 13:16:20.123
52, 0.00, 25979.07, 13710.13, 5593.66, -5226.13, 11823.42, 30288.98, 0.00, 0.000, 0.000, 0.000, 13:16:20.124
53, 0.00, 25981.33, 13714.43, 5540.26, -5130.15, 11830.82, 30279.75, 0.00, 0.000, 0.000, 0.000, 13:16:20.124
54, 0.00, 25981.82, 13718.09, 5493.61, -5263.54, 11828.99, 30271.06, 0.00, 0.000, 0.000, 0.000, 13:16:20.124
55, 0.00, 25979.34, 13718.70, 5515.92, -5463.30, 11823.56, 30272.55, 0.00, 0.000, 0.000, 0.000, 13:16:20.124
56, 0.00, 25975.63, 13714.29, 5577.90, -5455.01, 11820.36, 30283.46, 0.00, 0.000, 0.000, 0.000, 13:16:20.124
57, 0.00, 25975.92, 13713.64, 5598.42, -5228.45, 11822.93, 30286.34, 0.00, 0.000, 0.000, 0.000, 13:16:20.125
58, 0.00, 25982.03, 13718.45, 5543.84, -5131.11, 11828.61, 30279.24, 0.00, 0.000, 0.000, 0.000, 13:16:20.125
59, 0.00, 25985.42, 13719.84, 5496.50, -5266.79, 11827.63, 30271.66, 0.00, 0.000, 0.000, 0.000, 13:16:20.125
60, 0.00, 25982.14, 13718.41, 5518.27, -5467.42, 11822.58, 30275.19, 0.00, 0.000, 0.000, 0.000, 13:16:20.125
61, 0.00, 25976.41, 13712.26, 5583.20, -5457.07, 11817.46, 30283.97, 0.00, 0.028, -0.030, 0.994, 13:16:20.126
62, 0.00, 25977.84, 13711.95, 5605.17, -5231.78, 11822.04, 30286.77, 0.00, 0.000, 0.000, 0.000, 13:16:20.126
63, 0.00, 25981.78, 13718.05, 5551.21, -5135.51, 11828.61, 30277.65, 0.00, 0.000, 0.000, 0.000, 13:16:20.126
64, 0.00, 25982.83, 13720.73, 5500.81, -5267.52, 11827.18, 30269.60, 0.00, 0.000, 0.000, 0.000, 13:16:20.126
65, 0.00, 25980.08, 13718.41, 5518.04, -5463.97, 11822.11, 30273.71, 0.00, 0.000, 0.000, 0.000, 13:16:20.126
66, 0.00, 25974.43, 13713.67, 5582.39, -5453.65, 11818.37, 30284.02, 0.00, 0.000, 0.000, 0.000, 13:16:20.127
67, 0.00, 25977.00, 13715.72, 5606.58, -5230.33, 11825.59, 30286.77, 0.00, 0.000, 0.000, 0.000, 13:16:20.127
68, 0.00, 25981.98, 13718.92, 5550.36, -5138.06, 11830.58, 30278.48, 0.00, 0.000, 0.000, 0.000, 13:16:20.127
69, 0.00, 25983.23, 13722.36, 5504.03, -5267.81, 11828.68, 30270.34, 0.00, 0.000, 0.000, 0.000, 13:16:20.128
70, 0.00, 25980.15, 13718.99, 5522.18, -5463.35, 11822.06, 30273.51, 0.00, 0.000, 0.000, 0.000, 13:16:20.128
71, 0.00, 25975.83, 13716.84, 5586.28, -5452.19, 11819.69, 30283.88, 0.00, 0.030, -0.032, 0.998, 13:16:20.128
72, 0.00, 25977.20, 13715.92, 5606.29, -5229.15, 11823.13, 30286.17, 0.00, 0.000, 0.000, 0.000, 13:16:20.129
73, 0.00, 25980.13, 13718.25, 5551.41, -5132.56, 11828.07, 30275.46, 0.00, 0.000, 0.000, 0.000, 13:16:20.129
74, 0.00, 25982.03, 13722.43, 5500.00, -5266.43, 11827.74, 30267.08, 0.00, 0.000, 0.000, 0.000, 13:16:20.129
75, 0.00, 25980.15, 13720.08, 5514.53, -5470.16, 11818.19, 30272.93, 0.00, 0.000, 0.000, 0.000, 13:16:20.129
76, 0.00, 25973.60, 13713.80, 5576.67, -5459.82, 11814.53, 30283.13, 0.00, 0.000, 0.000, 0.000, 13:16:20.130
77, 0.00, 25972.90, 13713.24, 5598.20, -5233.73, 11820.41, 30282.59, 0.00, 0.000, 0.000, 0.000, 13:16:20.130
78, 0.00, 25977.91, 13718.79, 5545.09, -5136.01, 11826.62, 30273.85, 0.00, 0.000, 0.000, 0.000, 13:16:20.130
79, 0.00, 25979.34, 13722.36, 5498.33, -5266.45, 11825.15, 30266.70, 0.00, 0.000, 0.000, 0.000, 13:16:20.131
80, 0.00, 25977.73, 13722.03, 5518.38, -5469.67, 11820.32, 30271.17, 0.00, 0.000, 0.000, 0.000, 13:16:20.131
81, 0.00, 25971.81, 13715.72, 5583.62, -5458.39, 11815.67, 30280.64, 0.00, 0.028, -0.026, 0.996, 13:16:20.131
82, 0.00, 25972.75, 13715.45, 5605.06, -5232.01, 11819.85, 30283.08, 0.00, 0.000, 0.000, 0.000, 13:16:20.131
83, 0.00, 25978.07, 13721.69, 5553.04, -5136.41, 11826.84, 30274.32, 0.00, 0.000, 0.000, 0.000, 13:16:20.132
84, 0.00, 25981.35, 13725.51, 5509.03, -5270.59, 11826.49, 30268.42, 0.00, 0.000, 0.000, 0.000, 13:16:20.132
85, 0.00, 25977.51, 13723.57, 5532.68, -5468.09, 11819.11, 30272.17, 0.00, 0.000, 0.000, 0.000, 13:16:20.132
86, 0.00, 25972.37, 13719.08, 5595.71, -5457.60, 11816.20, 30280.51, 0.00, 0.000, 0.000, 0.000, 13:16:20.132
87, 0.00, 25976.06, 13723.84, 5621.08, -5231.83, 11823.65, 30286.41, 0.00, 0.000, 0.000, 0.000, 13:16:20.133
88, 0.00, 25979.74, 13727.86, 5567.01, -5136.94, 11828.57, 30277.49, 0.00, 0.000, 0.000, 0.000, 13:16:20.133
89, 0.00, 25980.57, 13726.97, 5519.72, -5268.22, 11825.44, 30268.84, 0.00, 0.000, 0.000, 0.000, 13:16:20.133
90, 0.00, 25978.11, 13724.15, 5535.81, -5468.60, 11821.46, 30273.11, 0.00, 0.000, 0.000, 0.000, 13:16:20.133
91, 0.00, 25973.93, 13717.51, 5600.88, -5456.91, 11817.39, 30283.17, 0.00, 0.040, -0.026, 0.992, 13:16:20.133
92, 0.00, 25974.67, 13717.38, 5620.99, -5231.60, 11821.73, 30286.14, 0.00, 0.000, 0.000, 0.000, 13:16:20.134
93, 0.00, 25979.30, 13722.14, 5569.34, -5136.81, 11826.73, 30276.69, 0.00, 0.000, 0.000, 0.000, 13:16:20.134
94, 0.00, 25982.18, 13726.97, 5529.40, -5268.19, 11826.26, 30268.33, 0.00, 0.000, 0.000, 0.000, 13:16:20.134
95, 0.00, 25980.26, 13724.95, 5545.45, -5472.13, 11819.18, 30272.78, 0.00, 0.000, 0.000, 0.000, 13:16:20.134
96, 0.00, 25975.01, 13719.52, 5608.34, -5461.54, 11814.75, 30282.61, 0.00, 0.000, 0.000, 0.000, 13:16:20.134
97, 0.00, 25975.21, 13718.65, 5629.69, -5234.94, 11819.87, 30285.47, 0.00, 0.000, 0.000, 0.000, 13:16:20.135
98, 0.00, 25979.48, 13722.36, 5571.53, -5140.77, 11825.26, 30277.09, 0.00, 0.000, 0.000, 0.000, 13:16:20.135
99, 0.00, 25981.35, 13725.07, 5520.39, -5273.85, 11823.47, 30267.86, 0.00, 0.000, 0.000, 0.000, 13:16:20.135
100, 0.00, 25979.34, 13723.21, 5539.28, -5472.58, 11816.58, 30270.09, 0.00, 0.000, 0.000, 0.000, 13:16:20.135
101, 0.00, 25974.31, 13718.36, 5604.05, -5457.89, 11814.10, 30281.09, 0.00, 0.032, -0.026, 0.990, 13:16:20.135
102, 0.00, 25973.35, 13720.95, 5626.54, -5230.75, 11820.97, 30284.02, 0.00, 0.000, 0.000, 0.000, 13:16:20.135
103, 0.00, 25978.67, 13727.37, 5575.06, -5133.21, 11829.62, 30275.30, 0.00, 0.000, 0.000, 0.000, 13:16:20.136
104, 0.00, 25982.38, 13733.00, 5525.08, -5257.85, 11829.17, 30268.78, 0.00, 0.000, 0.000, 0.000, 13:16:20.136
105, 0.00, 25978.18, 13726.85, 5538.43, -5445.06, 11820.97, 30272.02, 0.00, 0.000, 0.000, 0.000, 13:16:20.587
106, 0.00, 25972.64, 13718.61, 5596.74, -5427.34, 11816.63, 30280.64, 0.00, 0.000, 0.000, 0.000, 13:16:20.587
107, 0.00, 25973.82, 13718.34, 5612.37, -5201.30, 11820.38, 30283.53, 0.00, 0.000, 0.000, 0.000, 13:16:20.587
108, 0.00, 25979.34, 13726.23, 5563.59, -5102.72, 11827.54, 30276.17, 0.00, 0.000, 0.000, 0.000, 13:16:20.587
109, 0.00, 25982.81, 13730.43, 5520.03, -5233.79, 11825.93, 30269.71, 0.00, 0.000, 0.000, 0.000, 13:16:20.587
110, 0.00, 25981.24, 13728.28, 5534.20, -5434.36, 11818.48, 30274.43, 0.00, 0.000, 0.000, 0.000, 13:16:20.587
111, 0.00, 25975.52, 13724.84, 5596.14, -5418.96, 11816.85, 30282.39, 0.00, 0.032, -0.034, 0.988, 13:16:20.588
112, 0.00, 25976.35, 13723.95, 5613.37, -5193.29, 11821.17, 30284.71, 0.00, 0.000, 0.000, 0.000, 13:16:20.588
113, 0.00, 25980.30, 13726.34, 5552.82, -5101.32, 11825.21, 30275.21, 0.00, 0.000, 0.000, 0.000, 13:16:20.588
114, 0.00, 25982.18, 13727.97, 5502.40, -5232.48, 11821.70, 30268.15, 0.00, 0.000, 0.000, 0.000, 13:16:20.588
115, 0.00, 25978.49, 13724.48, 5515.76, -5429.84, 11817.75, 30271.93, 0.00, 0.000, 0.000, 0.000, 13:16:20.588
116, 0.00, 25975.25, 13721.56, 5575.15, -5419.60, 11817.23, 30283.62, 0.00, 0.000, 0.000, 0.000, 13:16:20.588
117, 0.00, 25976.10, 13724.35, 5597.01, -5193.36, 11822.13, 30286.61, 0.00, 0.000, 0.000, 0.000, 13:16:20.588
118, 0.00, 25979.32, 13728.51, 5538.27, -5102.21, 11825.12, 30276.20, 0.00, 0.000, 0.000, 0.000, 13:16:20.589
119, 0.00, 25982.18, 13732.62, 5489.74, -5237.97, 11824.39, 30268.53, 0.00, 0.000, 0.000, 0.000, 13:16:20.589
120, 0.00, 25979.92, 13726.32, 5505.86, -5437.22, 11817.52, 30273.51, 0.00, 0.000, 0.000, 0.000, 13:16:20.589
121, 0.00, 25975.56, 13722.27, 5571.73, -5415.81, 11815.15, 30284.73, 0.00, 0.030, -0.030, 0.990, 13:16:20.589
122, 0.00, 25975.65, 13723.05, 5587.80, -5188.98, 11819.62, 30285.90, 0.00, 0.000, 0.000, 0.000, 13:16:20.589
123, 0.00, 25980.08, 13731.91, 5534.83, -5099.73, 11825.59, 30276.02, 0.00, 0.000, 0.000, 0.000, 13:16:20.589
124, 0.00, 25982.54, 13734.43, 5495.33, -5234.91, 11824.61, 30268.08, 0.00, 0.000, 0.000, 0.000, 13:16:20.589
125, 0.00, 25979.88, 13728.55, 5516.57, -5436.30, 11816.65, 30272.15, 0.00, 0.000, 0.000, 0.000, 13:16:20.590
126, 0.00, 25974.63, 13721.69, 5578.75, -5420.21, 11811.62, 30282.10, 0.00, 0.000, 0.000, 0.000, 13:16:20.590
127, 0.00, 25976.73, 13723.61, 5598.96, -5198.32, 11817.10, 30286.12, 0.00, 0.000, 0.000, 0.000, 13:16:20.590
128, 0.00, 25984.46, 13730.63, 5549.40, -5109.99, 11825.93, 30280.89, 0.00, 0.000, 0.000, 0.000, 13:16:20.590
129, 0.00, 25986.00, 13729.54, 5501.88, -5251.14, 11821.70, 30274.88, 0.00, 0.000, 0.000, 0.000, 13:16:20.590
130, 0.00, 25983.43, 13729.71, 5524.73, -5450.29, 11814.91, 30277.18, 0.00, 0.000, 0.000, 0.000, 13:16:20.590
131, 0.00, 25979.25, 13723.19, 5589.17, -5434.47, 11812.36, 30285.52, 0.00, 0.034, -0.034, 0.996, 13:16:20.590
132, 0.00, 25979.48, 13722.25, 5607.56, -5206.15, 11818.60, 30287.35, 0.00, 0.000, 0.000, 0.000, 13:16:20.590
133, 0.00, 25982.99, 13729.85, 5552.78, -5117.05, 11826.29, 30278.59, 0.00, 0.000, 0.000, 0.000, 13:16:20.591
134, 0.00, 25985.15, 13732.64, 5502.95, -5254.13, 11826.87, 30271.68, 0.00, 0.000, 0.000, 0.000, 13:16:20.591
135, 0.00, 25982.85, 13730.81, 5517.77, -5451.19, 11820.92, 30276.29, 0.00, 0.000, 0.000, 0.000, 13:16:20.591
136, 0.00, 25977.11, 13726.90, 5583.53, -5432.61, 11818.69, 30285.29, 0.00, 0.000, 0.000, 0.000, 13:16:20.591
137, 0.00, 25976.66, 13726.05, 5603.67, -5207.31, 11822.31, 30286.30, 0.00, 0.000, 0.000, 0.000, 13:16:20.591
138, 0.00, 25981.22, 13729.36, 5546.94, -5116.56, 11823.83, 30276.64, 0.00, 0.000, 0.000, 0.000, 13:16:20.591
139, 0.00, 25983.14, 13730.77, 5493.48, -5259.86, 11824.21, 30268.89, 0.00, 0.000, 0.000, 0.000, 13:16:20.592
140, 0.00, 25980.88, 13729.31, 5514.33, -5457.51, 11818.93, 30274.05, 0.00, 0.000, 0.000, 0.000, 13:16:20.592
141, 0.00, 25976.68, 13724.19, 5581.12, -5435.97, 11814.77, 30284.33, 0.00, 0.032, -0.036, 0.992, 13:16:20.592
142, 0.00, 25978.78, 13726.16, 5605.73, -5210.91, 11819.07, 30287.69, 0.00, 0.000, 0.000, 0.000, 13:16:20.592
143, 0.00, 25983.37, 13731.41, 5551.46, -5123.29, 11823.87, 30278.81, 0.00, 0.000, 0.000, 0.000, 13:16:20.592
144, 0.00, 25985.33, 13736.33, 5506.96, -5258.34, 11823.47, 30270.21, 0.00, 0.000, 0.000, 0.000, 13:16:20.592
145, 0.00, 25981.35, 13733.45, 5532.08, -5456.80, 11818.51, 30272.51, 0.00, 0.000, 0.000, 0.000, 13:16:20.592
146, 0.00, 25977.00, 13729.02, 5596.79, -5438.38, 11815.60, 30283.08, 0.00, 0.000, 0.000, 0.000, 13:16:20.592
147, 0.00, 25977.78, 13730.47, 5617.10, -5212.92, 11820.74, 30286.34, 0.00, 0.000, 0.000, 0.000, 13:16:20.592
148, 0.00, 25980.35, 13734.27, 5565.07, -5121.72, 11825.64, 30274.81, 0.00, 0.000, 0.000, 0.000, 13:16:20.593
149, 0.00, 25981.33, 13734.88, 5514.42, -5263.03, 11822.24, 30264.98, 0.00, 0.000, 0.000, 0.000, 13:16:20.593
150, 0.00, 25979.68, 13732.53, 5536.44, -5456.08, 11818.22, 30271.95, 0.00, 0.000, 0.000, 0.000, 13:16:20.593
151, 0.00, 25974.47, 13726.45, 5600.97, -5433.37, 11815.15, 30282.77, 0.00, 0.026, -0.036, 0.988, 13:16:20.593
152, 0.00, 25975.72, 13727.19, 5620.21, -5211.06, 11820.25, 30285.96, 0.00, 0.000, 0.000, 0.000, 13:16:20.593
153, 0.00, 25980.50, 13730.92, 5566.08, -5123.40, 11824.32, 30275.73, 0.00, 0.000, 0.000, 0.000, 13:16:20.593
154, 0.00, 25983.37, 13733.60, 5516.28, -5264.26, 11823.71, 30268.53, 0.00, 0.000, 0.000, 0.000, 13:16:20.593
155, 0.00, 25979.45, 13730.79, 5535.01, -5460.58, 11816.65, 30272.93, 0.00, 0.000, 0.000, 0.000, 13:16:20.594
156, 0.00, 25975.68, 13726.90, 5600.34, -5437.62, 11814.08, 30284.42, 0.00, 0.000, 0.000, 0.000, 13:16:20.594
157, 0.00, 25977.55, 13731.66, 5626.25, -5208.02, 11820.07, 30287.87, 0.00, 0.000, 0.000, 0.000, 13:16:20.594
158, 0.00, 25982.27, 13734.34, 5567.51, -5121.77, 11823.78, 30277.69, 0.00, 0.000, 0.000, 0.000, 13:16:20.594
159, 0.00, 25984.71, 13734.12, 5513.08, -5266.27, 11821.35, 30269.36, 0.00, 0.000, 0.000, 0.000, 13:16:20.594
160, 0.00, 25980.55, 13732.11, 5531.34, -5464.71, 11813.83, 30273.36, 0.00, 0.000, 0.000, 0.000, 13:16:20.594
161, 0.00, 25975.81, 13728.51, 5598.20, -5442.18, 11813.77, 30283.80, 0.00, 0.030, -0.032, 0.986, 13:16:20.594
162, 0.00, 25976.17, 13729.58, 5620.77, -5212.14, 11821.43, 30285.45, 0.00, 0.000, 0.000, 0.000, 13:16:20.595
163, 0.00, 25978.81, 13732.64, 5567.10, -5121.32, 11826.11, 30277.11, 0.00, 0.000, 0.000, 0.000, 13:16:20.595
164, 0.00, 25983.01, 13737.45, 5523.59, -5255.39, 11827.67, 30271.23, 0.00, 0.000, 0.000, 0.000, 13:16:20.595
165, 0.00, 25981.40, 13734.59, 5541.24, -5454.52, 11821.30, 30274.86, 0.00, 0.000, 0.000, 0.000, 13:16:20.595
166, 0.00, 25978.34, 13731.15, 5607.63, -5431.67, 11819.29, 30286.59, 0.00, 0.000, 0.000, 0.000, 13:16:20.595
167, 0.00, 25980.42, 13733.31, 5629.06, -5205.07, 11823.42, 30288.89, 0.00, 0.000, 0.000, 0.000, 13:16:20.596
168, 0.00, 25983.66, 13738.23, 5578.24, -5117.36, 11827.63, 30277.85, 0.00, 0.000, 0.000, 0.000, 13:16:20.596
169, 0.00, 25984.64, 13740.60, 5531.41, -5257.13, 11825.15, 30269.31, 0.00, 0.000, 0.000, 0.000, 13:16:20.596
170, 0.00, 25979.97, 13736.98, 5547.95, -5458.09, 11817.05, 30272.96, 0.00, 0.000, 0.000, 0.000, 13:16:20.596
171, 0.00, 25974.54, 13731.24, 5609.66, -5438.04, 11811.47, 30283.62, 0.00, 0.036, -0.034, 0.990, 13:16:20.596
172, 0.00, 25977.51, 13737.45, 5632.82, -5209.16, 11817.21, 30286.52, 0.00, 0.000, 0.000, 0.000, 13:16:20.596
173, 0.00, 25980.06, 13743.48, 5581.39, -5113.65, 11824.77, 30274.99, 0.00, 0.000, 0.000, 0.000, 13:16:20.597
174, 0.00, 25981.18, 13739.77, 5529.80, -5258.40, 11822.37, 30266.29, 0.00, 0.000, 0.000, 0.000, 13:16:20.597
175, 0.00, 25979.19, 13735.35, 5553.27, -5455.19, 11816.09, 30272.17, 0.00, 0.000, 0.000, 0.000, 13:16:20.597
176, 0.00, 25973.64, 13729.31, 5622.42, -5431.61, 11813.30, 30280.55, 0.00, 0.000, 0.000, 0.000, 13:16:20.597
177, 0.00, 25975.21, 13728.98, 5641.63, -5207.33, 11818.66, 30282.12, 0.00, 0.000, 0.000, 0.000, 13:16:20.597
178, 0.00, 25980.71, 13734.61, 5588.16, -5117.90, 11825.06, 30274.41, 0.00, 0.000, 0.000, 0.000, 13:16:20.597
179, 0.00, 25981.80, 13736.46, 5540.82, -5253.64, 11824.79, 30266.47, 0.00, 0.000, 0.000, 0.000, 13:16:20.598
180, 0.00, 25978.47, 13734.23, 5559.46, -5451.72, 11819.42, 30270.56, 0.00, 0.000, 0.000, 0.000, 13:16:20.598
181, 0.00, 25974.85, 13732.91, 5626.74, -5431.45, 11817.55, 30281.99, 0.00, 0.030, -0.036, 0.996, 13:16:20.598
182, 0.00, 25973.31, 13734.72, 5647.44, -5204.07, 11822.22, 30283.04, 0.00, 0.000, 0.000, 0.000, 13:16:20.598
183, 0.00, 25977.11, 13739.55, 5595.49, -5109.68, 11828.74, 30273.18, 0.00, 0.000, 0.000, 0.000, 13:16:20.598
184, 0.00, 25980.66, 13743.55, 5545.98, -5249.89, 11829.46, 30267.37, 0.00, 0.000, 0.000, 0.000, 13:16:20.598
185, 0.00, 25975.95, 13739.28, 5561.52, -5451.63, 11821.03, 30269.80, 0.00, 0.000, 0.000, 0.000, 13:16:20.599
186, 0.00, 25970.85, 13734.12, 5627.68, -5427.05, 11815.47, 30278.07, 0.00, 0.000, 0.000, 0.000, 13:16:20.599
187, 0.00, 25970.85, 13735.35, 5649.56, -5202.66, 11819.51, 30279.86, 0.00, 0.000, 0.000, 0.000, 13:16:20.599
188, 0.00, 25974.74, 13740.49, 5600.43, -5114.79, 11826.06, 30269.98, 0.00, 0.000, 0.000, 0.000, 13:16:20.599
189, 0.00, 25976.66, 13746.41, 5563.19, -5249.62, 11826.11, 30263.57, 0.00, 0.000, 0.000, 0.000, 13:16:20.599
190, 0.00, 25971.85, 13737.61, 5584.40, -5446.05, 11817.14, 30267.12, 0.00, 0.000, 0.000, 0.000, 13:16:20.599
191, 0.00, 25967.47, 13729.69, 5646.92, -5423.56, 11812.25, 30277.38, 0.00, 0.038, -0.038, 0.992, 13:16:20.600
192, 0.00, 25971.07, 13729.13, 5659.10, -5204.76, 11816.09, 30281.16, 0.00, 0.000, 0.000, 0.000, 13:16:20.600
193, 0.00, 25974.98, 13735.21, 5598.55, -5121.75, 11822.78, 30270.25, 0.00, 0.000, 0.000, 0.000, 13:16:20.600
194, 0.00, 25976.55, 13738.52, 5551.88, -5253.11, 11822.40, 30262.50, 0.00, 0.000, 0.000, 0.000, 13:16:20.600
195, 0.00, 25973.82, 13734.68, 5565.72, -5453.83, 11815.00, 30267.05, 0.00, 0.000, 0.000, 0.000, 13:16:20.600
196, 0.00, 25968.72, 13731.62, 5628.50, -5432.17, 11812.87, 30277.16, 0.00, 0.000, 0.000, 0.000, 13:16:20.601
197, 0.00, 25970.07, 13733.69, 5646.14, -5200.09, 11819.49, 30279.66, 0.00, 0.000, 0.000, 0.000, 13:16:20.601
198, 0.00, 25975.52, 13741.05, 5587.04, -5113.36, 11824.94, 30270.97, 0.00, 0.000, 0.000, 0.000, 13:16:20.601
199, 0.00, 25977.00, 13741.72, 5532.46, -5256.46, 11819.89, 30261.65, 0.00, 0.000, 0.000, 0.000, 13:16:20.601
200, 0.00, 25974.54, 13739.48, 5543.86, -5454.88, 11813.81, 30265.67, 0.00, 0.032, -0.042, 0.996, 13:16:20.601
201, 0.00, 25970.09, 13735.06, 5601.15, -5431.38, 11814.48, 30277.38, 0.00, 0.000, 0.000, 0.000, 13:16:20.601
202, 0.00, 25970.40, 13735.62, 5616.77, -5202.68, 11817.86, 30279.77, 0.00, 0.000, 0.000, 0.000, 13:16:20.601
203, 0.00, 25973.93, 13740.53, 5559.77, -5117.10, 11821.59, 30268.82, 0.00, 0.000, 0.000, 0.000, 13:16:20.601
204, 0.00, 25975.72, 13744.20, 5513.77, -5258.18, 11821.70, 30261.49, 0.00, 0.000, 0.000, 0.000, 13:16:20.602
205, 0.00, 25973.24, 13741.92, 5537.00, -5453.20, 11815.80, 30267.30, 0.00, 0.000, 0.000, 0.000, 13:16:20.602
206, 0.00, 25969.02, 13737.45, 5604.23, -5424.86, 11813.14, 30278.03, 0.00, 0.000, 0.000, 0.000, 13:16:20.602
207, 0.00, 25971.59, 13738.19, 5620.15, -5202.64, 11818.22, 30281.49, 0.00, 0.000, 0.000, 0.000, 13:16:20.602
208, 0.00, 25977.29, 13744.11, 5562.54, -5118.57, 11825.97, 30272.40, 0.00, 0.000, 0.000, 0.000, 13:16:20.602
209, 0.00, 25977.89, 13746.97, 5517.91, -5251.97, 11823.49, 30265.00, 0.00, 0.000, 0.000, 0.000, 13:16:20.602
210, 0.00, 25973.46, 13739.30, 5533.71, -5450.92, 11816.09, 30266.56, 0.00, 0.032, -0.038, 0.994, 13:16:20.603
211, 0.00, 25967.99, 13732.17, 5593.61, -5426.80, 11811.98, 30274.54, 0.00, 0.000, 0.000, 0.000, 13:16:20.603
212, 0.00, 25970.07, 13734.30, 5608.01, -5198.84, 11817.93, 30278.19, 0.00, 0.000, 0.000, 0.000, 13:16:20.603
213, 0.00, 25975.03, 13738.77, 5554.83, -5108.16, 11824.68, 30269.83, 0.00, 0.000, 0.000, 0.000, 13:16:20.603
214, 0.00, 25976.95, 13741.56, 5510.93, -5249.84, 11822.46, 30263.39, 0.00, 0.000, 0.000, 0.000, 13:16:20.603
215, 0.00, 25973.53, 13739.13, 5528.66, -5452.86, 11816.88, 30268.46, 0.00, 0.000, 0.000, 0.000, 13:16:20.604
216, 0.00, 25967.56, 13732.29, 5588.67, -5427.99, 11814.93, 30277.05, 0.00, 0.000, 0.000, 0.000, 13:16:20.604
217, 0.00, 25969.51, 13733.60, 5603.90, -5202.46, 11819.67, 30280.64, 0.00, 0.000, 0.000, 0.000, 13:16:20.604
218, 0.00, 25974.47, 13740.56, 5548.82, -5115.33, 11825.61, 30272.84, 0.00, 0.000, 0.000, 0.000, 13:16:20.604
219, 0.00, 25974.92, 13743.55, 5500.50, -5256.03, 11822.98, 30263.66, 0.00, 0.000, 0.000, 0.000, 13:16:20.604
220, 0.00, 25973.22, 13740.42, 5515.96, -5455.88, 11815.11, 30268.73, 0.00, 0.032, -0.034, 0.994, 13:16:20.605
221, 0.00, 25968.75, 13735.21, 5582.42, -5429.44, 11809.90, 30278.83, 0.00, 0.000, 0.000, 0.000, 13:16:20.605
222, 0.00, 25970.38, 13737.40, 5602.87, -5199.62, 11815.49, 30281.72, 0.00, 0.000, 0.000, 0.000, 13:16:20.605
223, 0.00, 25975.81, 13743.48, 5550.54, -5111.40, 11820.92, 30271.88, 0.00, 0.000, 0.000, 0.000, 13:16:20.605
224, 0.00, 25977.44, 13745.50, 5502.02, -5258.67, 11818.91, 30263.79, 0.00, 0.000, 0.000, 0.000, 13:16:20.605
225, 0.00, 25974.87, 13744.69, 5519.67, -5457.45, 11815.13, 30269.94, 0.00, 0.000, 0.000, 0.000, 13:16:21.069
226, 0.00, 25971.27, 13742.17, 5586.95, -5428.99, 11815.65, 30281.65, 0.00, 0.000, 0.000, 0.000, 13:16:21.069
227, 0.00, 25970.60, 13737.85, 5601.32, -5202.86, 11818.95, 30282.61, 0.00, 0.000, 0.000, 0.000, 13:16:21.069
228, 0.00, 25975.41, 13741.79, 5541.87, -5114.68, 11821.70, 30274.45, 0.00, 0.000, 0.000, 0.000, 13:16:21.069
229, 0.00, 25976.41, 13741.61, 5488.60, -5261.76, 11816.16, 30264.06, 0.00, 0.000, 0.000, 0.000, 13:16:21.070
230, 0.00, 25972.46, 13740.35, 5508.65, -5461.29, 11809.34, 30266.23, 0.00, 0.034, -0.028, 0.996, 13:16:21.070
231, 0.00, 25969.33, 13738.92, 5577.94, -5428.28, 11808.94, 30278.07, 0.00, 0.000, 0.000, 0.000, 13:16:21.070
232, 0.00, 25971.29, 13741.20, 5597.82, -5202.30, 11817.28, 30282.54, 0.00, 0.000, 0.000, 0.000, 13:16:21.070
233, 0.00, 25975.01, 13745.07, 5541.42, -5121.61, 11822.28, 30272.29, 0.00, 0.000, 0.000, 0.000, 13:16:21.070
234, 0.00, 25975.88, 13745.83, 5490.75, -5263.28, 11818.89, 30264.28, 0.00, 0.000, 0.000, 0.000, 13:16:21.071
235, 0.00, 25973.78, 13742.37, 5505.95, -5459.79, 11812.36, 30270.09, 0.00, 0.000, 0.000, 0.000, 13:16:21.071
236, 0.00, 25970.89, 13738.79, 5568.45, -5432.19, 11810.15, 30281.47, 0.00, 0.000, 0.000, 0.000, 13:16:21.071
237, 0.00, 25972.08, 13738.68, 5584.11, -5202.46, 11814.44, 30283.04, 0.00, 0.000, 0.000, 0.000, 13:16:21.071
238, 0.00, 25975.95, 13742.84, 5526.63, -5116.74, 11819.16, 30273.40, 0.00, 0.000, 0.000, 0.000, 13:16:21.071
239, 0.00, 25978.61, 13745.90, 5475.69, -5263.19, 11818.40, 30266.76, 0.00, 0.000, 0.000, 0.000, 13:16:21.072
240, 0.00, 25976.64, 13744.67, 5494.75, -5461.22, 11812.87, 30270.99, 0.00, 0.036, -0.036, 0.994, 13:16:21.072
241, 0.00, 25972.12, 13742.39, 5563.55, -5428.55, 11811.89, 30281.61, 0.00, 0.000, 0.000, 0.000, 13:16:21.072
242, 0.00, 25970.02, 13738.48, 5576.07, -5203.71, 11812.54, 30280.62, 0.00, 0.000, 0.000, 0.000, 13:16:21.072
243, 0.00, 25973.64, 13742.25, 5511.96, -5123.33, 11815.91, 30270.09, 0.00, 0.000, 0.000, 0.000, 13:16:21.072
244, 0.00, 25973.42, 13745.74, 5464.78, -5264.24, 11816.65, 30261.67, 0.00, 0.000, 0.000, 0.000, 13:16:21.072
245, 0.00, 25972.14, 13746.52, 5487.24, -5458.45, 11812.52, 30269.76, 0.00, 0.000, 0.000, 0.000, 13:16:21.072
246, 0.00, 25966.54, 13741.03, 5547.26, -5435.77, 11808.11, 30278.16, 0.00, 0.000, 0.000, 0.000, 13:16:21.072
247, 0.00, 25969.48, 13741.72, 5563.42, -5209.50, 11813.37, 30280.98, 0.00, 0.000, 0.000, 0.000, 13:16:21.073
248, 0.00, 25974.07, 13744.58, 5508.94, -5118.71, 11817.99, 30271.82, 0.00, 0.000, 0.000, 0.000, 13:16:21.073
249, 0.00, 25975.68, 13748.65, 5467.73, -5259.50, 11816.76, 30265.40, 0.00, 0.000, 0.000, 0.000, 13:16:21.073
250, 0.00, 25973.64, 13746.19, 5489.12, -5464.71, 11809.66, 30269.94, 0.00, 0.036, -0.038, 0.990, 13:16:21.073
251, 0.00, 25968.90, 13740.89, 5560.15, -5433.64, 11806.86, 30279.30, 0.00, 0.000, 0.000, 0.000, 13:16:21.073
252, 0.00, 25968.77, 13740.06, 5579.38, -5206.82, 11811.20, 30281.20, 0.00, 0.000, 0.000, 0.000, 13:16:21.073
253, 0.00, 25973.38, 13743.55, 5526.18, -5124.05, 11816.12, 30271.53, 0.00, 0.000, 0.000, 0.000, 13:16:21.073
254, 0.00, 25977.22, 13748.45, 5481.83, -5267.50, 11816.23, 30265.69, 0.00, 0.000, 0.000, 0.000, 13:16:21.073
255, 0.00, 25974.51, 13746.21, 5506.20, -5456.37, 11812.18, 30272.04, 0.00, 0.000, 0.000, 0.000, 13:16:21.073
0, 0.00, 25970.18, 13743.35, 5574.44, -5426.35, 11810.80, 30282.50, 0.00, 0.000, 0.000, 0.000, 13:16:21.073
1, 0.00, 25970.22, 13745.50, 5592.81, -5201.65, 11813.90, 30283.17, 0.00, 0.000, 0.000, 0.000, 13:16:21.073
2, 0.00, 25977.78, 13752.85, 5538.74, -5118.42, 11821.68, 30276.33, 0.00, 0.000, 0.000, 0.000, 13:16:21.074
3, 0.00, 25979.37, 13752.69, 5494.37, -5264.15, 11823.16, 30269.04, 0.00, 0.000, 0.000, 0.000, 13:16:21.074
4, 0.00, 25977.55, 13750.75, 5517.01, -5458.97, 11817.43, 30274.23, 0.00, 0.036, -0.040, 0.988, 13:16:21.074
5, 0.00, 25971.27, 13743.53, 5579.55, -5424.88, 11811.00, 30281.49, 0.00, 0.000, 0.000, 0.000, 13:16:21.074
6, 0.00, 25971.29, 13741.99, 5587.47, -5204.47, 11813.70, 30281.29, 0.00, 0.000, 0.000, 0.000, 13:16:21.074
7, 0.00, 25977.78, 13747.48, 5531.10, -5119.98, 11820.63, 30274.16, 0.00, 0.000, 0.000, 0.000, 13:16:21.074
8, 0.00, 25978.45, 13751.11, 5486.75, -5261.60, 11820.00, 30266.61, 0.00, 0.000, 0.000, 0.000, 13:16:21.074
9, 0.00, 25976.41, 13748.29, 5508.16, -5456.51, 11813.14, 30273.07, 0.00, 0.000, 0.000, 0.000, 13:16:21.075
10, 0.00, 25973.38, 13745.45, 5574.70, -5429.10, 11811.26, 30285.23, 0.00, 0.000, 0.000, 0.000, 13:16:21.075
11, 0.00, 25973.11, 13746.17, 5589.43, -5204.47, 11814.60, 30287.30, 0.00, 0.000, 0.000, 0.000, 13:16:21.075
12, 0.00, 25975.65, 13748.74, 5531.19, -5114.73, 11818.95, 30274.19, 0.00, 0.000, 0.000, 0.000, 13:16:21.075
13, 0.00, 25979.12, 13751.49, 5478.73, -5262.34, 11819.47, 30267.35, 0.00, 0.000, 0.000, 0.000, 13:16:21.075
14, 0.00, 25977.22, 13751.17, 5497.37, -5461.02, 11813.97, 30272.82, 0.00, 0.036, -0.042, 0.988, 13:16:21.075
15, 0.00, 25971.38, 13745.63, 5563.77, -5427.09, 11809.68, 30281.54, 0.00, 0.000, 0.000, 0.000, 13:16:21.075
16, 0.00, 25973.87, 13747.48, 5578.44, -5201.34, 11817.57, 30285.12, 0.00, 0.000, 0.000, 0.000, 13:16:21.075
17, 0.00, 25975.36, 13751.11, 5522.56, -5118.01, 11821.81, 30274.39, 0.00, 0.000, 0.000, 0.000, 13:16:21.075
18, 0.00, 25977.40, 13755.51, 5476.53, -5263.32, 11821.28, 30267.14, 0.00, 0.000, 0.000, 0.000, 13:16:21.075
19, 0.00, 25975.10, 13751.69, 5500.34, -5456.55, 11816.45, 30273.27, 0.00, 0.000, 0.000, 0.000, 13:16:21.075
20, 0.00, 25970.13, 13745.76, 5579.76, -5425.66, 11813.66, 30283.39, 0.00, 0.000, 0.000, 0.000, 13:16:21.076
21, 0.00, 25972.08, 13745.45, 5620.84, -5196.62, 11817.55, 30285.76, 0.00, 0.000, 0.000, 0.000, 13:16:21.076
22, 0.00, 25977.26, 13751.40, 5556.06, -5117.36, 11824.43, 30276.33, 0.00, 0.000, 0.000, 0.000, 13:16:21.076
23, 0.00, 25978.72, 13755.29, 5501.90, -5261.40, 11822.24, 30269.20, 0.00, 0.000, 0.000, 0.000, 13:16:21.076
24, 0.00, 25974.25, 13751.75, 5514.00, -5456.87, 11814.60, 30272.62, 0.00, 0.034, -0.038, 0.990, 13:16:21.076
25, 0.00, 25971.77, 13749.59, 5575.26, -5424.10, 11811.73, 30283.84, 0.00, 0.000, 0.000, 0.000, 13:16:21.076
26, 0.00, 25973.04, 13750.23, 5583.44, -5199.24, 11814.19, 30284.33, 0.00, 0.000, 0.000, 0.000, 13:16:21.076
27, 0.00, 25977.69, 13754.66, 5517.26, -5118.62, 11820.38, 30275.01, 0.00, 0.000, 0.000, 0.000, 13:16:21.077
28, 0.00, 25979.99, 13757.12, 5465.40, -5267.72, 11819.60, 30267.44, 0.00, 0.000, 0.000, 0.000, 13:16:21.077
29, 0.00, 25978.11, 13756.60, 5488.25, -5461.85, 11815.65, 30274.52, 0.00, 0.000, 0.000, 0.000, 13:16:21.077
30, 0.00, 25971.47, 13750.97, 5553.80, -5425.75, 11813.52, 30284.31, 0.00, 0.000, 0.000, 0.000, 13:16:21.077
31, 0.00, 25973.38, 13751.20, 5565.99, -5202.28, 11818.01, 30286.97, 0.00, 0.000, 0.000, 0.000, 13:16:21.077
32, 0.00, 25977.17, 13753.39, 5506.78, -5120.31, 11820.00, 30275.50, 0.00, 0.000, 0.000, 0.000, 13:16:21.077
33, 0.00, 25977.40, 13754.37, 5456.98, -5266.29, 11815.91, 30266.99, 0.00, 0.000, 0.000, 0.000, 13:16:21.078
34, 0.00, 25976.04, 13754.57, 5476.42, -5462.45, 11810.48, 30274.23, 0.00, 0.038, -0.036, 0.994, 13:16:21.078
35, 0.00, 25970.63, 13749.59, 5539.92, -5427.76, 11809.05, 30283.35, 0.00, 0.000, 0.000, 0.000, 13:16:21.078
36, 0.00, 25971.59, 13746.52, 5550.90, -5203.78, 11814.75, 30283.84, 0.00, 0.000, 0.000, 0.000, 13:16:21.078
37, 0.00, 25976.95, 13752.69, 5494.57, -5118.75, 11820.67, 30276.76, 0.00, 0.000, 0.000, 0.000, 13:16:21.078
38, 0.00, 25980.39, 13758.37, 5451.41, -5263.54, 11820.92, 30271.48, 0.00, 0.000, 0.000, 0.000, 13:16:21.078
39, 0.00, 25975.68, 13754.73, 5470.39, -5459.95, 11815.82, 30274.25, 0.00, 0.000, 0.000, 0.000, 13:16:21.078
40, 0.00, 25971.52, 13749.88, 5532.37, -5429.13, 11812.47, 30283.82, 0.00, 0.000, 0.000, 0.000, 13:16:21.079
41, 0.00, 25972.57, 13749.65, 5550.30, -5199.86, 11816.67, 30285.07, 0.00, 0.000, 0.000, 0.000, 13:16:21.079
42, 0.00, 25977.22, 13755.26, 5499.89, -5114.35, 11820.32, 30276.78, 0.00, 0.000, 0.000, 0.000, 13:16:21.079
43, 0.00, 25977.67, 13760.78, 5460.96, -5263.66, 11818.80, 30268.46, 0.00, 0.000, 0.000, 0.000, 13:16:21.079
44, 0.00, 25975.70, 13759.00, 5481.23, -5463.32, 11814.26, 30273.74, 0.00, 0.030, -0.034, 0.990, 13:16:21.079
45, 0.00, 25972.59, 13754.70, 5547.21, -5426.04, 11813.03, 30286.01, 0.00, 0.000, 0.000, 0.000, 13:16:21.079
46, 0.00, 25972.08, 13752.80, 5560.13, -5199.48, 11815.53, 30286.28, 0.00, 0.000, 0.000, 0.000, 13:16:21.079
47, 0.00, 25976.01, 13757.54, 5502.57, -5119.76, 11819.92, 30274.97, 0.00, 0.000, 0.000, 0.000, 13:16:21.079
48, 0.00, 25980.71, 13761.48, 5459.21, -5262.07, 11820.54, 30269.85, 0.00, 0.000, 0.000, 0.000, 13:16:21.081
49, 0.00, 25977.96, 13759.13, 5479.22, -5457.09, 11814.93, 30276.02, 0.00, 0.000, 0.000, 0.000, 13:16:21.081
50, 0.00, 25973.35, 13757.12, 5544.22, -5424.61, 11812.54, 30286.79, 0.00, 0.000, 0.000, 0.000, 13:16:21.081
51, 0.00, 25972.19, 13753.88, 5555.32, -5201.23, 11814.04, 30286.37, 0.00, 0.000, 0.000, 0.000, 13:16:21.081
52, 0.00, 25977.06, 13758.88, 5498.01, -5117.74, 11818.69, 30276.73, 0.00, 0.000, 0.000, 0.000, 13:16:21.081
53, 0.00, 25979.61, 13762.26, 5449.27, -5266.99, 11819.47, 30270.18, 0.00, 0.000, 0.000, 0.000, 13:16:21.081
54, 0.00, 25976.59, 13760.49, 5471.35, -5459.93, 11814.48, 30275.95, 0.00, 0.032, -0.034, 0.992, 13:16:21.081
55, 0.00, 25972.48, 13756.18, 5539.16, -5423.63, 11811.58, 30285.07, 0.00, 0.000, 0.000, 0.000, 13:16:21.082
56, 0.00, 25973.31, 13754.75, 5551.75, -5197.09, 11815.18, 30285.47, 0.00, 0.000, 0.000, 0.000, 13:16:21.082
57, 0.00, 25977.44, 13757.74, 5488.43, -5121.14, 11819.33, 30275.79, 0.00, 0.000, 0.000, 0.000, 13:16:21.082
58, 0.00, 25978.87, 13760.58, 5444.97, -5265.51, 11817.01, 30267.23, 0.00, 0.000, 0.000, 0.000, 13:16:21.082
59, 0.00, 25976.08, 13757.39, 5464.02, -5463.64, 11811.29, 30271.93, 0.00, 0.000, 0.000, 0.000, 13:16:21.082
60, 0.00, 25971.81, 13753.05, 5528.66, -5426.69, 11810.57, 30283.30, 0.00, 0.000, 0.000, 0.000, 13:16:21.082
61, 0.00, 25973.29, 13753.94, 5544.53, -5196.15, 11814.77, 30285.79, 0.00, 0.000, 0.000, 0.000, 13:16:21.082
62, 0.00, 25978.27, 13761.14, 5488.94, -5114.06, 11821.57, 30277.27, 0.00, 0.000, 0.000, 0.000, 13:16:21.082
63, 0.00, 25977.87, 13763.56, 5440.88, -5263.54, 11819.76, 30268.02, 0.00, 0.000, 0.000, 0.000, 13:16:21.082
64, 0.00, 25973.49, 13758.73, 5459.61, -5460.02, 11811.94, 30270.03, 0.00, 0.032, -0.032, 0.990, 13:16:21.083
65, 0.00, 25969.93, 13753.41, 5523.88, -5424.37, 11809.12, 30280.29, 0.00, 0.000, 0.000, 0.000, 13:16:21.083
66, 0.00, 25973.22, 13756.25, 5539.54, -5197.92, 11816.38, 30283.62, 0.00, 0.000, 0.000, 0.000, 13:16:21.083
67, 0.00, 25978.22, 13761.28, 5482.17, -5117.32, 11821.37, 30274.74, 0.00, 0.000, 0.000, 0.000, 13:16:21.083
68, 0.00, 25977.00, 13758.82, 5431.56, -5267.39, 11816.34, 30266.18, 0.00, 0.000, 0.000, 0.000, 13:16:21.083
69, 0.00, 25974.04, 13755.96, 5452.35, -5460.22, 11809.57, 30271.14, 0.00, 0.000, 0.000, 0.000, 13:16:21.083
70, 0.00, 25971.90, 13754.55, 5517.98, -5426.31, 11809.88, 30283.46, 0.00, 0.000, 0.000, 0.000, 13:16:21.083
71, 0.00, 25973.13, 13755.33, 5533.64, -5198.17, 11814.98, 30286.19, 0.00, 0.000, 0.000, 0.000, 13:16:21.083
72, 0.00, 25977.49, 13759.60, 5478.48, -5118.10, 11819.29, 30276.58, 0.00, 0.000, 0.000, 0.000, 13:16:21.083
73, 0.00, 25979.50, 13761.48, 5435.34, -5264.26, 11816.41, 30269.74, 0.00, 0.000, 0.000, 0.000, 13:16:21.083
74, 0.00, 25976.77, 13758.53, 5456.49, -5457.11, 11810.35, 30274.28, 0.00, 0.030, -0.034, 0.994, 13:16:21.083
75, 0.00, 25969.91, 13752.71, 5519.23, -5423.90, 11806.73, 30283.19, 0.00, 0.000, 0.000, 0.000, 13:16:21.083
76, 0.00, 25972.26, 13754.91, 5535.50, -5202.46, 11811.89, 30285.90, 0.00, 0.000, 0.000, 0.000, 13:16:21.083
77, 0.00, 25975.92, 13758.68, 5480.89, -5121.70, 11814.77, 30274.34, 0.00, 0.000, 0.000, 0.000, 13:16:21.083
78, 0.00, 25975.77, 13759.22, 5433.73, -5270.92, 11814.37, 30265.45, 0.00, 0.000, 0.000, 0.000, 13:16:21.084
79, 0.00, 25974.71, 13757.79, 5457.25, -5464.13, 11809.14, 30271.44, 0.00, 0.000, 0.000, 0.000, 13:16:21.084
80, 0.00, 25972.62, 13754.48, 5522.83, -5427.81, 11807.84, 30283.39, 0.00, 0.000, 0.000, 0.000, 13:16:21.084
81, 0.00, 25972.88, 13754.32, 5536.53, -5199.66, 11812.25, 30284.69, 0.00, 0.000, 0.000, 0.000, 13:16:21.084
82, 0.00, 25975.88, 13759.80, 5478.55, -5118.97, 11816.88, 30274.05, 0.00, 0.000, 0.000, 0.000, 13:16:21.084
83, 0.00, 25977.22, 13763.73, 5431.92, -5265.62, 11816.54, 30267.48, 0.00, 0.000, 0.000, 0.000, 13:16:21.084
84, 0.00, 25974.04, 13757.14, 5451.63, -5464.62, 11809.41, 30271.28, 0.00, 0.032, -0.030, 0.990, 13:16:21.084
85, 0.00, 25968.72, 13752.71, 5519.85, -5427.81, 11806.17, 30281.56, 0.00, 0.000, 0.000, 0.000, 13:16:21.085
86, 0.00, 25969.89, 13755.22, 5532.48, -5203.62, 11811.58, 30282.88, 0.00, 0.000, 0.000, 0.000, 13:16:21.085
87, 0.00, 25975.50, 13760.49, 5476.15, -5121.25, 11818.33, 30272.17, 0.00, 0.000, 0.000, 0.000, 13:16:21.085
88, 0.00, 25977.35, 13762.80, 5430.54, -5267.10, 11818.22, 30265.63, 0.00, 0.000, 0.000, 0.000, 13:16:21.085
89, 0.00, 25972.90, 13758.37, 5450.38, -5462.74, 11809.54, 30269.69, 0.00, 0.000, 0.000, 0.000, 13:16:21.085
90, 0.00, 25968.84, 13753.45, 5515.14, -5426.67, 11807.46, 30279.30, 0.00, 0.000, 0.000, 0.000, 13:16:21.549
91, 0.00, 25970.16, 13753.77, 5531.59, -5196.38, 11811.89, 30280.09, 0.00, 0.000, 0.000, 0.000, 13:16:21.550
92, 0.00, 25975.56, 13758.55, 5472.60, -5118.66, 11817.28, 30271.21, 0.00, 0.000, 0.000, 0.000, 13:16:21.551
93, 0.00, 25978.38, 13763.40, 5426.87, -5271.30, 11816.34, 30265.83, 0.00, 0.000, 0.000, 0.000, 13:16:21.551
94, 0.00, 25975.70, 13760.81, 5451.03, -5462.25, 11808.61, 30271.17, 0.00, 0.028, -0.034, 0.988, 13:16:21.552
95, 0.00, 25970.92, 13755.62, 5515.67, -5428.25, 11808.20, 30281.29, 0.00, 0.000, 0.000, 0.000, 13:16:21.552
96, 0.00, 25971.34, 13754.17, 5527.32, -5202.90, 11811.49, 30280.60, 0.00, 0.000, 0.000, 0.000, 13:16:21.552
97, 0.00, 25975.03, 13759.93, 5472.31, -5122.55, 11815.40, 30269.42, 0.00, 0.000, 0.000, 0.000, 13:16:21.552
98, 0.00, 25976.37, 13762.80, 5427.32, -5269.78, 11814.01, 30264.39, 0.00, 0.000, 0.000, 0.000, 13:16:21.553
99, 0.00, 25973.42, 13759.80, 5446.96, -5465.25, 11808.22, 30269.38, 0.00, 0.000, 0.000, 0.000, 13:16:21.554
100, 0.00, 25967.99, 13756.00, 5512.25, -5426.13, 11804.51, 30277.72, 0.00, 0.000, 0.000, 0.000, 13:16:21.554
101, 0.00, 25970.63, 13760.00, 5529.06, -5197.76, 11810.19, 30280.44, 0.00, 0.000, 0.000, 0.000, 13:16:21.554
102, 0.00, 25973.42, 13759.87, 5470.34, -5123.15, 11816.05, 30271.01, 0.00, 0.000, 0.000, 0.000, 13:16:21.554
103, 0.00, 25974.31, 13761.81, 5426.53, -5269.07, 11814.93, 30263.75, 0.00, 0.000, 0.000, 0.000, 13:16:21.554
104, 0.00, 25971.52, 13758.37, 5443.45, -5467.39, 11807.55, 30268.20, 0.00, 0.034, -0.034, 0.990, 13:16:21.554
105, 0.00, 25968.55, 13753.34, 5509.24, -5423.54, 11805.90, 30280.51, 0.00, 0.000, 0.000, 0.000, 13:16:21.554
106, 0.00, 25970.98, 13755.96, 5523.07, -5195.75, 11812.61, 30284.22, 0.00, 0.000, 0.000, 0.000, 13:16:21.554
107, 0.00, 25973.60, 13761.32, 5463.46, -5121.32, 11817.43, 30271.64, 0.00, 0.000, 0.000, 0.000, 13:16:21.555
108, 0.00, 25974.65, 13761.28, 5414.29, -5274.36, 11812.96, 30263.77, 0.00, 0.000, 0.000, 0.000, 13:16:21.555
109, 0.00, 25971.41, 13761.21, 5439.70, -5466.97, 11805.48, 30268.11, 0.00, 0.000, 0.000, 0.000, 13:16:21.555
110, 0.00, 25966.65, 13758.06, 5509.79, -5421.86, 11804.42, 30276.60, 0.00, 0.000, 0.000, 0.000, 13:16:21.555
111, 0.00, 25969.35, 13758.53, 5522.69, -5196.02, 11811.89, 30279.71, 0.00, 0.000, 0.000, 0.000, 13:16:21.556
112, 0.00, 25973.73, 13762.91, 5465.47, -5118.06, 11816.63, 30269.40, 0.00, 0.000, 0.000, 0.000, 13:16:21.556
113, 0.00, 25976.04, 13764.96, 5420.92, -5268.40, 11813.63, 30263.50, 0.00, 0.000, 0.000, 0.000, 13:16:21.556
114, 0.00, 25971.52, 13761.52, 5440.53, -5465.16, 11807.71, 30268.40, 0.00, 0.040, -0.032, 0.996, 13:16:21.556
115, 0.00, 25966.56, 13756.67, 5507.29, -5421.28, 11807.31, 30279.42, 0.00, 0.000, 0.000, 0.000, 13:16:21.557
116, 0.00, 25968.48, 13756.85, 5520.41, -5197.32, 11812.56, 30281.83, 0.00, 0.000, 0.000, 0.000, 13:16:21.557
117, 0.00, 25972.59, 13759.38, 5463.93, -5121.05, 11816.90, 30270.29, 0.00, 0.000, 0.000, 0.000, 13:16:21.557
118, 0.00, 25974.60, 13761.19, 5420.14, -5270.23, 11815.22, 30262.83, 0.00, 0.000, 0.000, 0.000, 13:16:21.557
119, 0.00, 25972.08, 13758.91, 5441.33, -5467.33, 11808.67, 30267.55, 0.00, 0.000, 0.000, 0.000, 13:16:21.558
120, 0.00, 25968.95, 13755.67, 5508.43, -5424.41, 11805.57, 30278.30, 0.00, 0.000, 0.000, 0.000, 13:16:21.558
121, 0.00, 25969.40, 13758.24, 5519.94, -5198.93, 11809.77, 30279.53, 0.00, 0.000, 0.000, 0.000, 13:16:21.558
122, 0.00, 25972.55, 13758.46, 5457.80, -5125.63, 11814.64, 30269.58, 0.00, 0.000, 0.000, 0.000, 13:16:21.558
123, 0.00, 25974.04, 13760.78, 5411.13, -5277.11, 11812.52, 30262.47, 0.00, 0.000, 0.000, 0.000, 13:16:21.559
124, 0.00, 25969.78, 13757.19, 5435.90, -5464.26, 11803.93, 30264.82, 0.00, 0.032, -0.032, 0.988, 13:16:21.559
125, 0.00, 25965.10, 13753.16, 5498.06, -5430.60, 11804.65, 30274.61, 0.00, 0.000, 0.000, 0.000, 13:16:21.559
126, 0.00, 25965.33, 13752.89, 5510.02, -5203.69, 11808.09, 30275.08, 0.00, 0.000, 0.000, 0.000, 13:16:21.560
127, 0.00, 25970.74, 13758.46, 5453.67, -5127.27, 11812.45, 30264.60, 0.00, 0.000, 0.000, 0.000, 13:16:21.560
128, 0.00, 25972.59, 13762.88, 5415.29, -5277.05, 11811.73, 30257.94, 0.00, 0.000, 0.000, 0.000, 13:16:21.560
129, 0.00, 25969.57, 13759.04, 5436.46, -5469.58, 11805.61, 30264.87, 0.00, 0.000, 0.000, 0.000, 13:16:21.561
130, 0.00, 25964.54, 13752.89, 5500.67, -5427.90, 11802.41, 30274.74, 0.00, 0.000, 0.000, 0.000, 13:16:21.561
131, 0.00, 25966.27, 13756.58, 5518.53, -5199.33, 11809.68, 30277.18, 0.00, 0.000, 0.000, 0.000, 13:16:21.561
132, 0.00, 25970.33, 13761.66, 5465.85, -5117.92, 11815.11, 30266.41, 0.00, 0.000, 0.000, 0.000, 13:16:21.561
133, 0.00, 25972.50, 13762.71, 5418.26, -5273.31, 11812.25, 30257.96, 0.00, 0.000, 0.000, 0.000, 13:16:21.562
134, 0.00, 25969.53, 13757.25, 5435.16, -5471.84, 11804.60, 30264.37, 0.00, 0.032, -0.030, 0.988, 13:16:21.562
135, 0.00, 25967.45, 13756.51, 5503.58, -5429.80, 11805.97, 30276.80, 0.00, 0.000, 0.000, 0.000, 13:16:21.562
136, 0.00, 25968.81, 13758.08, 5521.53, -5199.66, 11811.29, 30276.09, 0.00, 0.000, 0.000, 0.000, 13:16:21.563
137, 0.00, 25972.73, 13762.64, 5465.67, -5122.35, 11816.23, 30267.26, 0.00, 0.000, 0.000, 0.000, 13:16:21.563
138, 0.00, 25973.13, 13763.60, 5420.88, -5273.94, 11813.19, 30261.15, 0.00, 0.000, 0.000, 0.000, 13:16:21.563
139, 0.00, 25971.45, 13761.66, 5441.98, -5469.34, 11807.82, 30268.08, 0.00, 0.000, 0.000, 0.000, 13:16:21.563
140, 0.00, 25965.98, 13759.93, 5509.15, -5424.16, 11808.34, 30277.69, 0.00, 0.000, 0.000, 0.000, 13:16:21.563
141, 0.00, 25965.39, 13756.13, 5519.16, -5198.75, 11811.71, 30277.13, 0.00, 0.000, 0.000, 0.000, 13:16:21.564
142, 0.00, 25969.78, 13759.42, 5459.59, -5124.32, 11815.11, 30268.64, 0.00, 0.000, 0.000, 0.000, 13:16:21.564
143, 0.00, 25972.39, 13764.27, 5413.73, -5278.34, 11813.95, 30262.65, 0.00, 0.000, 0.000, 0.000, 13:16:21.564
144, 0.00, 25970.85, 13760.72, 5432.95, -5472.80, 11806.93, 30268.78, 0.00, 0.024, -0.032, 0.992, 13:16:21.564
145, 0.00, 25966.56, 13755.31, 5500.34, -5426.24, 11804.69, 30278.25, 0.00, 0.000, 0.000, 0.000, 13:16:21.565
146, 0.00, 25966.11, 13755.17, 5514.13, -5200.11, 11809.41, 30277.87, 0.00, 0.000, 0.000, 0.000, 13:16:21.566
147, 0.00, 25972.79, 13760.49, 5455.21, -5124.90, 11815.76, 30270.54, 0.00, 0.000, 0.000, 0.000, 13:16:21.566
148, 0.00, 25974.16, 13763.89, 5414.42, -5272.49, 11812.74, 30262.41, 0.00, 0.000, 0.000, 0.000, 13:16:21.566
149, 0.00, 25969.78, 13759.26, 5436.03, -5468.80, 11804.27, 30267.08, 0.00, 0.000, 0.000, 0.000, 13:16:21.566
150, 0.00, 25964.97, 13757.12, 5503.42, -5428.41, 11801.74, 30277.02, 0.00, 0.000, 0.000, 0.000, 13:16:21.566
151, 0.00, 25966.09, 13760.69, 5520.25, -5203.06, 11807.40, 30278.07, 0.00, 0.000, 0.000, 0.000, 13:16:21.566
152, 0.00, 25970.24, 13763.18, 5464.64, -5123.11, 11811.47, 30267.50, 0.00, 0.000, 0.000, 0.000, 13:16:21.566
153, 0.00, 25971.90, 13766.10, 5422.33, -5273.72, 11812.16, 30260.73, 0.00, 0.000, 0.000, 0.000, 13:16:21.566
154, 0.00, 25967.90, 13763.85, 5444.35, -5469.78, 11806.33, 30265.94, 0.00, 0.024, -0.034, 0.986, 13:16:21.567
155, 0.00, 25964.39, 13760.63, 5512.07, -5425.04, 11805.27, 30278.99, 0.00, 0.000, 0.000, 0.000, 13:16:21.567
156, 0.00, 25966.40, 13761.77, 5523.41, -5199.46, 11810.71, 30280.94, 0.00, 0.000, 0.000, 0.000, 13:16:21.568
157, 0.00, 25971.07, 13768.74, 5465.72, -5125.25, 11815.60, 30268.84, 0.00, 0.000, 0.000, 0.000, 13:16:21.568
158, 0.00, 25972.10, 13767.76, 5421.21, -5274.83, 11812.94, 30261.33, 0.00, 0.000, 0.000, 0.000, 13:16:21.568
159, 0.00, 25968.99, 13760.54, 5441.06, -5467.06, 11805.81, 30266.56, 0.00, 0.000, 0.000, 0.000, 13:16:21.568
160, 0.00, 25964.77, 13755.33, 5504.47, -5424.79, 11802.53, 30278.19, 0.00, 0.000, 0.000, 0.000, 13:16:21.568
161, 0.00, 25967.21, 13755.46, 5514.38, -5201.79, 11807.31, 30280.67, 0.00, 0.000, 0.000, 0.000, 13:16:21.569
162, 0.00, 25973.58, 13761.61, 5459.82, -5123.96, 11814.30, 30272.53, 0.00, 0.000, 0.000, 0.000, 13:16:21.569
163, 0.00, 25973.02, 13763.67, 5414.26, -5274.92, 11813.34, 30265.27, 0.00, 0.000, 0.000, 0.000, 13:16:21.569
164, 0.00, 25968.99, 13760.49, 5434.29, -5470.37, 11806.88, 30270.05, 0.00, 0.024, -0.026, 0.994, 13:16:21.569
165, 0.00, 25965.55, 13754.44, 5498.53, -5424.92, 11803.04, 30280.33, 0.00, 0.000, 0.000, 0.000, 13:16:21.569
166, 0.00, 25965.37, 13756.65, 5513.53, -5196.80, 11808.58, 30279.88, 0.00, 0.000, 0.000, 0.000, 13:16:21.570
167, 0.00, 25970.69, 13763.64, 5458.65, -5124.67, 11814.77, 30270.43, 0.00, 0.000, 0.000, 0.000, 13:16:21.570
168, 0.00, 25971.14, 13765.17, 5415.94, -5274.21, 11812.43, 30262.16, 0.00, 0.000, 0.000, 0.000, 13:16:21.570
169, 0.00, 25967.83, 13761.88, 5439.03, -5466.99, 11806.66, 30266.85, 0.00, 0.000, 0.000, 0.000, 13:16:21.570
170, 0.00, 25963.12, 13757.21, 5503.38, -5425.53, 11804.94, 30276.20, 0.00, 0.000, 0.000, 0.000, 13:16:21.570
171, 0.00, 25963.76, 13757.19, 5514.76, -5200.78, 11807.93, 30276.76, 0.00, 0.000, 0.000, 0.000, 13:16:21.570
172, 0.00, 25968.14, 13763.78, 5462.36, -5123.22, 11814.77, 30267.59, 0.00, 0.000, 0.000, 0.000, 13:16:21.571
173, 0.00, 25971.07, 13770.73, 5419.43, -5276.11, 11815.38, 30261.89, 0.00, 0.000, 0.000, 0.000, 13:16:21.571
174, 0.00, 25968.05, 13764.81, 5442.85, -5464.24, 11807.46, 30266.50, 0.00, 0.028, -0.036, 0.996, 13:16:21.571
175, 0.00, 25961.95, 13758.30, 5505.44, -5415.51, 11803.53, 30275.55, 0.00, 0.000, 0.000, 0.000, 13:16:21.571
176, 0.00, 25963.07, 13759.51, 5514.11, -5189.34, 11807.49, 30277.02, 0.00, 0.000, 0.000, 0.000, 13:16:21.572
177, 0.00, 25968.10, 13766.51, 5459.91, -5116.65, 11812.09, 30267.81, 0.00, 0.000, 0.000, 0.000, 13:16:21.572
178, 0.00, 25968.93, 13767.31, 5416.56, -5268.64, 11810.53, 30259.41, 0.00, 0.000, 0.000, 0.000, 13:16:21.572
179, 0.00, 25965.53, 13763.91, 5434.40, -5470.68, 11801.85, 30262.76, 0.00, 0.000, 0.000, 0.000, 13:16:21.572
180, 0.00, 25962.69, 13760.74, 5498.55, -5427.81, 11800.63, 30275.01, 0.00, 0.000, 0.000, 0.000, 13:16:21.572
181, 0.00, 25963.70, 13761.54, 5513.77, -5195.64, 11805.92, 30276.98, 0.00, 0.000, 0.000, 0.000, 13:16:21.573
182, 0.00, 25967.76, 13766.17, 5455.61, -5121.70, 11810.80, 30267.26, 0.00, 0.000, 0.000, 0.000, 13:16:21.573
183, 0.00, 25969.08, 13768.41, 5409.52, -5279.10, 11809.52, 30259.41, 0.00, 0.000, 0.000, 0.000, 13:16:21.573
184, 0.00, 25966.33, 13764.05, 5432.93, -5471.26, 11802.68, 30265.56, 0.00, 0.038, -0.036, 0.990, 13:16:21.573
185, 0.00, 25964.34, 13758.48, 5498.08, -5422.51, 11800.89, 30277.98, 0.00, 0.000, 0.000, 0.000, 13:16:21.573
186, 0.00, 25965.66, 13760.49, 5511.81, -5197.56, 11805.92, 30278.52, 0.00, 0.000, 0.000, 0.000, 13:16:21.574
187, 0.00, 25969.46, 13765.32, 5456.69, -5122.82, 11810.33, 30269.16, 0.00, 0.000, 0.000, 0.000, 13:16:21.574
188, 0.00, 25972.86, 13771.07, 5410.93, -5281.29, 11808.67, 30263.81, 0.00, 0.000, 0.000, 0.000, 13:16:21.574
189, 0.00, 25969.08, 13766.84, 5436.99, -5467.95, 11801.41, 30268.11, 0.00, 0.000, 0.000, 0.000, 13:16:21.574
190, 0.00, 25965.53, 13760.16, 5502.91, -5421.28, 11801.14, 30278.70, 0.00, 0.000, 0.000, 0.000, 13:16:21.575
191, 0.00, 25967.65, 13761.19, 5511.27, -5200.20, 11806.73, 30279.77, 0.00, 0.000, 0.000, 0.000, 13:16:21.575
192, 0.00, 25972.37, 13766.91, 5455.59, -5126.71, 11811.02, 30269.80, 0.00, 0.000, 0.000, 0.000, 13:16:21.575
193, 0.00, 25974.00, 13767.76, 5413.82, -5276.58, 11807.76, 30263.05, 0.00, 0.000, 0.000, 0.000, 13:16:21.575
194, 0.00, 25968.77, 13762.88, 5433.35, -5471.98, 11800.51, 30266.50, 0.00, 0.034, -0.044, 0.990, 13:16:21.575
195, 0.00, 25964.54, 13761.66, 5502.13, -5422.11, 11800.45, 30276.89, 0.00, 0.000, 0.000, 0.000, 13:16:21.576
196, 0.00, 25965.44, 13761.54, 5510.71, -5196.69, 11804.76, 30277.29, 0.00, 0.000, 0.000, 0.000, 13:16:21.576
197, 0.00, 25971.18, 13764.90, 5448.33, -5128.79, 11808.90, 30268.82, 0.00, 0.000, 0.000, 0.000, 13:16:21.576
198, 0.00, 25973.58, 13768.70, 5406.51, -5281.27, 11808.52, 30263.43, 0.00, 0.000, 0.000, 0.000, 13:16:21.576
199, 0.00, 25970.85, 13764.74, 5432.23, -5471.17, 11801.56, 30268.02, 0.00, 0.000, 0.000, 0.000, 13:16:21.577
200, 0.00, 25965.04, 13757.34, 5495.47, -5423.20, 11799.87, 30276.55, 0.00, 0.000, 0.000, 0.000, 13:16:21.577
201, 0.00, 25966.54, 13759.93, 5504.30, -5200.56, 11804.56, 30277.63, 0.00, 0.000, 0.000, 0.000, 13:16:21.577
202, 0.00, 25970.42, 13766.04, 5450.05, -5128.90, 11806.86, 30267.61, 0.00, 0.000, 0.000, 0.000, 13:16:21.577
203, 0.00, 25972.19, 13765.41, 5401.92, -5286.01, 11803.71, 30261.15, 0.00, 0.000, 0.000, 0.000, 13:16:21.577
204, 0.00, 25969.11, 13765.17, 5425.84, -5477.50, 11798.55, 30267.35, 0.00, 0.032, -0.042, 0.990, 13:16:21.578
205, 0.00, 25965.48, 13764.32, 5496.45, -5425.66, 11798.30, 30278.92, 0.00, 0.000, 0.000, 0.000, 13:16:21.578
206, 0.00, 25964.93, 13759.71, 5502.84, -5203.20, 11801.21, 30278.03, 0.00, 0.000, 0.000, 0.000, 13:16:21.578
207, 0.00, 25969.51, 13764.74, 5445.82, -5127.36, 11806.03, 30267.61, 0.00, 0.000, 0.000, 0.000, 13:16:21.579
208, 0.00, 25972.30, 13766.42, 5398.30, -5286.17, 11803.53, 30261.11, 0.00, 0.000, 0.000, 0.000, 13:16:21.579
209, 0.00, 25970.60, 13762.64, 5419.16, -5480.56, 11797.29, 30266.81, 0.00, 0.000, 0.000, 0.000, 13:16:21.579
210, 0.00, 25965.84, 13757.79, 5484.76, -5426.60, 11795.66, 30276.98, 0.00, 0.000, 0.000, 0.000, 13:16:22.030
211, 0.00, 25966.83, 13761.37, 5497.08, -5201.74, 11799.37, 30278.48, 0.00, 0.000, 0.000, 0.000, 13:16:22.030
212, 0.00, 25972.01, 13766.91, 5441.17, -5130.62, 11807.84, 30269.40, 0.00, 0.000, 0.000, 0.000, 13:16:22.030
213, 0.00, 25973.15, 13768.36, 5397.19, -5285.00, 11806.55, 30262.67, 0.00, 0.000, 0.000, 0.000, 13:16:22.031
214, 0.00, 25969.66, 13765.08, 5418.55, -5478.97, 11799.15, 30267.77, 0.00, 0.032, -0.036, 0.998, 13:16:22.031
215, 0.00, 25964.97, 13761.03, 5485.14, -5426.20, 11797.94, 30277.13, 0.00, 0.000, 0.000, 0.000, 13:16:22.031
216, 0.00, 25964.95, 13761.99, 5495.91, -5197.67, 11801.97, 30277.69, 0.00, 0.000, 0.000, 0.000, 13:16:22.031
217, 0.00, 25969.44, 13766.01, 5436.17, -5128.92, 11806.71, 30268.15, 0.00, 0.000, 0.000, 0.000, 13:16:22.031
218, 0.00, 25971.21, 13766.42, 5388.51, -5284.91, 11805.27, 30260.93, 0.00, 0.000, 0.000, 0.000, 13:16:22.032
219, 0.00, 25967.50, 13763.60, 5412.63, -5478.10, 11797.45, 30264.69, 0.00, 0.000, 0.000, 0.000, 13:16:22.032
220, 0.00, 25963.09, 13760.65, 5481.27, -5426.20, 11795.64, 30273.74, 0.00, 0.000, 0.000, 0.000, 13:16:22.032
221, 0.00, 25965.64, 13763.60, 5491.80, -5203.91, 11801.16, 30276.31, 0.00, 0.000, 0.000, 0.000, 13:16:22.033
222, 0.00, 25970.51, 13765.28, 5435.59, -5132.65, 11803.38, 30266.41, 0.00, 0.000, 0.000, 0.000, 13:16:22.033
223, 0.00, 25971.36, 13766.93, 5391.62, -5287.06, 11800.98, 30259.54, 0.00, 0.000, 0.000, 0.000, 13:16:22.033
224, 0.00, 25967.63, 13763.82, 5413.12, -5480.63, 11797.41, 30265.69, 0.00, 0.030, -0.034, 0.996, 13:16:22.033
225, 0.00, 25964.93, 13761.41, 5478.39, -5430.45, 11798.95, 30277.85, 0.00, 0.000, 0.000, 0.000, 13:16:22.033
226, 0.00, 25966.27, 13763.96, 5488.87, -5204.80, 11803.82, 30279.08, 0.00, 0.000, 0.000, 0.000, 13:16:22.034
227, 0.00, 25969.15, 13768.32, 5433.08, -5129.75, 11808.18, 30268.04, 0.00, 0.000, 0.000, 0.000, 13:16:22.034
228, 0.00, 25971.52, 13770.15, 5388.04, -5285.43, 11806.26, 30262.43, 0.00, 0.000, 0.000, 0.000, 13:16:22.034
229, 0.00, 25968.88, 13767.91, 5411.85, -5476.38, 11799.58, 30268.49, 0.00, 0.000, 0.000, 0.000, 13:16:22.034
230, 0.00, 25963.58, 13762.30, 5473.90, -5428.21, 11796.22, 30276.76, 0.00, 0.000, 0.000, 0.000, 13:16:22.034
231, 0.00, 25964.75, 13762.55, 5482.50, -5202.46, 11801.45, 30275.26, 0.00, 0.000, 0.000, 0.000, 13:16:22.035
232, 0.00, 25969.96, 13767.60, 5426.89, -5127.31, 11806.62, 30266.41, 0.00, 0.000, 0.000, 0.000, 13:16:22.035
233, 0.00, 25972.03, 13770.48, 5383.04, -5285.23, 11803.71, 30262.18, 0.00, 0.000, 0.000, 0.000, 13:16:22.035
234, 0.00, 25969.06, 13768.47, 5412.68, -5472.98, 11799.17, 30267.86, 0.00, 0.038, -0.032, 0.996, 13:16:22.035
235, 0.00, 25964.63, 13764.49, 5478.32, -5425.93, 11798.68, 30275.91, 0.00, 0.000, 0.000, 0.000, 13:16:22.035
236, 0.00, 25964.10, 13764.36, 5486.12, -5200.49, 11803.87, 30276.44, 0.00, 0.000, 0.000, 0.000, 13:16:22.036
237, 0.00, 25968.86, 13769.77, 5429.26, -5126.31, 11808.87, 30267.37, 0.00, 0.000, 0.000, 0.000, 13:16:22.036
238, 0.00, 25971.23, 13770.93, 5383.66, -5285.72, 11805.14, 30259.90, 0.00, 0.000, 0.000, 0.000, 13:16:22.036
239, 0.00, 25968.05, 13770.15, 5407.62, -5478.70, 11797.83, 30265.67, 0.00, 0.000, 0.000, 0.000, 13:16:22.036
240, 0.00, 25963.96, 13764.94, 5473.14, -5427.16, 11796.42, 30276.58, 0.00, 0.000, 0.000, 0.000, 13:16:22.037
241, 0.00, 25965.82, 13765.41, 5484.96, -5203.60, 11801.59, 30278.21, 0.00, 0.000, 0.000, 0.000, 13:16:22.037
242, 0.00, 25968.23, 13768.63, 5429.53, -5129.81, 11804.00, 30266.09, 0.00, 0.000, 0.000, 0.000, 13:16:22.037
243, 0.00, 25970.58, 13771.45, 5384.56, -5288.29, 11803.15, 30259.61, 0.00, 0.000, 0.000, 0.000, 13:16:22.037
244, 0.00, 25966.83, 13768.52, 5408.85, -5478.99, 11796.58, 30264.46, 0.00, 0.034, -0.036, 0.992, 13:16:22.037
245, 0.00, 25961.80, 13762.88, 5472.96, -5427.45, 11792.56, 30273.89, 0.00, 0.000, 0.000, 0.000, 13:16:22.038
246, 0.00, 25964.19, 13764.63, 5482.95, -5202.28, 11800.31, 30276.35, 0.00, 0.000, 0.000, 0.000, 13:16:22.038
247, 0.00, 25968.08, 13768.41, 5425.68, -5129.03, 11806.21, 30266.34, 0.00, 0.000, 0.000, 0.000, 13:16:22.038
248, 0.00, 25970.00, 13769.55, 5380.06, -5289.25, 11802.75, 30260.21, 0.00, 0.000, 0.000, 0.000, 13:16:22.038
249, 0.00, 25966.00, 13764.85, 5404.36, -5478.64, 11795.73, 30266.12, 0.00, 0.000, 0.000, 0.000, 13:16:22.038
250, 0.00, 25960.48, 13758.46, 5466.88, -5425.22, 11792.78, 30274.07, 0.00, 0.000, 0.000, 0.000, 13:16:22.039
251, 0.00, 25961.86, 13761.66, 5476.89, -5199.60, 11798.10, 30275.12, 0.00, 0.000, 0.000, 0.000, 13:16:22.039
252, 0.00, 25965.82, 13768.29, 5422.44, -5131.69, 11803.89, 30264.98, 0.00, 0.000, 0.000, 0.000, 13:16:22.039
253, 0.00, 25967.99, 13772.99, 5382.86, -5292.16, 11802.70, 30257.64, 0.00, 0.000, 0.000, 0.000, 13:16:22.039
254, 0.00, 25965.73, 13772.16, 5410.73, -5479.71, 11797.18, 30263.28, 0.00, 0.030, -0.032, 0.992, 13:16:22.040
255, 0.00, 25960.19, 13762.48, 5473.32, -5424.81, 11792.74, 30272.20, 0.00, 0.000, 0.000, 0.000, 13:16:22.040
0, 0.00, 25962.29, 13761.81, 5479.89, -5200.36, 11798.05, 30273.51, 0.00, 0.000, 0.000, 0.000, 13:16:22.040
1, 0.00, 25969.69, 13769.32, 5421.95, -5131.31, 11805.79, 30265.33, 0.00, 0.000, 0.000, 0.000, 13:16:22.040
2, 0.00, 25969.08, 13772.21, 5379.01, -5295.06, 11801.74, 30257.29, 0.00, 0.000, 0.000, 0.000, 13:16:22.040
3, 0.00, 25966.42, 13770.60, 5407.69, -5481.81, 11796.22, 30262.83, 0.00, 0.000, 0.000, 0.000, 13:16:22.041
4, 0.00, 25963.34, 13766.53, 5476.02, -5424.68, 11794.81, 30273.85, 0.00, 0.000, 0.000, 0.000, 13:16:22.041
5, 0.00, 25962.51, 13765.28, 5481.34, -5202.68, 11798.35, 30274.28, 0.00, 0.000, 0.000, 0.000, 13:16:22.041
6, 0.00, 25966.87, 13771.74, 5425.68, -5133.46, 11803.80, 30265.04, 0.00, 0.000, 0.000, 0.000, 13:16:22.041
7, 0.00, 25967.92, 13773.28, 5383.17, -5292.38, 11800.38, 30257.11, 0.00, 0.000, 0.000, 0.000, 13:16:22.041
8, 0.00, 25965.93, 13770.26, 5410.19, -5481.74, 11794.41, 30262.94, 0.00, 0.032, -0.028, 0.994, 13:16:22.042
9, 0.00, 25962.15, 13764.61, 5474.14, -5426.24, 11791.68, 30273.49, 0.00, 0.000, 0.000, 0.000, 13:16:22.042
10, 0.00, 25963.92, 13765.17, 5483.13, -5201.16, 11796.42, 30273.71, 0.00, 0.000, 0.000, 0.000, 13:16:22.042
11, 0.00, 25968.61, 13769.52, 5427.32, -5129.10, 11801.65, 30263.30, 0.00, 0.000, 0.000, 0.000, 13:16:22.042
12, 0.00, 25970.40, 13771.98, 5385.38, -5288.47, 11801.85, 30257.89, 0.00, 0.000, 0.000, 0.000, 13:16:22.043
13, 0.00, 25966.63, 13767.62, 5409.21, -5481.79, 11796.27, 30263.10, 0.00, 0.000, 0.000, 0.000, 13:16:22.043
14, 0.00, 25962.18, 13763.60, 5475.35, -5426.13, 11793.41, 30273.31, 0.00, 0.000, 0.000, 0.000, 13:16:22.044
15, 0.00, 25963.85, 13767.36, 5485.32, -5199.93, 11799.02, 30274.39, 0.00, 0.000, 0.000, 0.000, 13:16:22.044
16, 0.00, 25969.22, 13769.52, 5427.03, -5132.50, 11803.20, 30264.95, 0.00, 0.000, 0.000, 0.000, 13:16:22.044
17, 0.00, 25969.64, 13770.64, 5382.57, -5293.41, 11800.85, 30258.94, 0.00, 0.000, 0.000, 0.000, 13:16:22.044
18, 0.00, 25967.29, 13770.55, 5409.10, -5483.29, 11795.24, 30265.67, 0.00, 0.030, -0.030, 0.990, 13:16:22.045
19, 0.00, 25961.64, 13764.63, 5474.46, -5427.94, 11791.48, 30272.24, 0.00, 0.000, 0.000, 0.000, 13:16:22.045
20, 0.00, 25963.29, 13765.57, 5481.16, -5203.51, 11796.98, 30272.87, 0.00, 0.000, 0.000, 0.000, 13:16:22.045
21, 0.00, 25968.28, 13770.33, 5424.01, -5135.74, 11801.77, 30264.33, 0.00, 0.000, 0.000, 0.000, 13:16:22.045
22, 0.00, 25970.89, 13772.21, 5381.41, -5292.69, 11800.63, 30258.36, 0.00, 0.000, 0.000, 0.000, 13:16:22.046
23, 0.00, 25967.99, 13770.64, 5408.07, -5483.24, 11795.60, 30264.10, 0.00, 0.000, 0.000, 0.000, 13:16:22.046
24, 0.00, 25965.89, 13767.18, 5477.50, -5424.03, 11793.76, 30276.06, 0.00, 0.000, 0.000, 0.000, 13:16:22.046
25, 0.00, 25967.43, 13768.29, 5484.63, -5199.98, 11800.47, 30275.10, 0.00, 0.000, 0.000, 0.000, 13:16:22.046
26, 0.00, 25970.51, 13773.46, 5424.05, -5134.13, 11804.56, 30264.87, 0.00, 0.000, 0.000, 0.000, 13:16:22.047
27, 0.00, 25971.23, 13774.98, 5382.57, -5290.08, 11802.44, 30258.52, 0.00, 0.000, 0.000, 0.000, 13:16:22.047
28, 0.00, 25968.28, 13770.78, 5403.56, -5486.91, 11796.04, 30264.73, 0.00, 0.038, -0.028, 0.998, 13:16:22.047
29, 0.00, 25963.14, 13767.13, 5473.09, -5425.24, 11794.05, 30274.05, 0.00, 0.000, 0.000, 0.000, 13:16:22.047
30, 0.00, 25964.97, 13771.47, 5484.20, -5198.84, 11799.13, 30274.83, 0.00, 0.000, 0.000, 0.000, 13:16:22.047
31, 0.00, 25971.29, 13777.41, 5423.90, -5133.57, 11804.20, 30266.03, 0.00, 0.000, 0.000, 0.000, 13:16:22.048
32, 0.00, 25972.05, 13776.83, 5381.70, -5292.18, 11803.26, 30258.94, 0.00, 0.000, 0.000, 0.000, 13:16:22.048
33, 0.00, 25968.50, 13772.90, 5407.87, -5482.35, 11795.48, 30264.22, 0.00, 0.000, 0.000, 0.000, 13:16:22.048
34, 0.00, 25963.83, 13767.47, 5471.89, -5427.65, 11791.84, 30273.13, 0.00, 0.000, 0.000, 0.000, 13:16:22.048
35, 0.00, 25967.94, 13770.75, 5482.17, -5201.05, 11800.25, 30276.13, 0.00, 0.000, 0.000, 0.000, 13:16:22.048
36, 0.00, 25972.05, 13774.53, 5425.64, -5129.30, 11807.29, 30266.16, 0.00, 0.000, 0.000, 0.000, 13:16:22.049
37, 0.00, 25973.46, 13775.85, 5384.80, -5288.06, 11804.09, 30260.80, 0.00, 0.000, 0.000, 0.000, 13:16:22.049
38, 0.00, 25971.97, 13772.72, 5408.99, -5478.59, 11797.94, 30269.38, 0.00, 0.032, -0.032, 1.002, 13:16:22.049
39, 0.00, 25968.55, 13769.55, 5474.68, -5422.67, 11796.24, 30279.84, 0.00, 0.000, 0.000, 0.000, 13:16:22.049
40, 0.00, 25969.44, 13770.80, 5481.90, -5200.02, 11801.43, 30279.19, 0.00, 0.000, 0.000, 0.000, 13:16:22.050
41, 0.00, 25973.64, 13774.80, 5422.53, -5134.22, 11806.73, 30269.27, 0.00, 0.000, 0.000, 0.000, 13:16:22.050
42, 0.00, 25975.32, 13777.84, 5382.88, -5289.41, 11804.20, 30262.23, 0.00, 0.000, 0.000, 0.000, 13:16:22.050
43, 0.00, 25970.24, 13773.05, 5405.32, -5481.99, 11794.99, 30264.69, 0.00, 0.000, 0.000, 0.000, 13:16:22.050
44, 0.00, 25966.69, 13768.47, 5470.01, -5423.72, 11793.03, 30275.01, 0.00, 0.000, 0.000, 0.000, 13:16:22.050
45, 0.00, 25968.44, 13769.77, 5474.90, -5201.30, 11798.55, 30275.19, 0.00, 0.000, 0.000, 0.000, 13:16:22.051
46, 0.00, 25972.97, 13777.12, 5418.42, -5132.09, 11805.70, 30267.35, 0.00, 0.000, 0.000, 0.000, 13:16:22.051
47, 0.00, 25974.36, 13778.82, 5375.95, -5292.40, 11803.44, 30260.37, 0.00, 0.000, 0.000, 0.000, 13:16:22.051
48, 0.00, 25968.50, 13772.09, 5401.10, -5484.51, 11796.94, 30263.90, 0.00, 0.032, -0.032, 1.000, 13:16:22.051
49, 0.00, 25964.12, 13769.32, 5471.86, -5420.77, 11796.29, 30275.66, 0.00, 0.000, 0.000, 0.000, 13:16:22.052
50, 0.00, 25965.75, 13769.57, 5476.87, -5197.14, 11800.09, 30275.97, 0.00, 0.000, 0.000, 0.000, 13:16:22.052
51, 0.00, 25970.27, 13774.28, 5415.18, -5136.30, 11804.29, 30264.55, 0.00, 0.000, 0.000, 0.000, 13:16:22.052
52, 0.00, 25971.92, 13776.85, 5371.48, -5296.65, 11803.00, 30258.54, 0.00, 0.000, 0.000, 0.000, 13:16:22.052
53, 0.00, 25967.27, 13773.48, 5398.19, -5483.49, 11795.46, 30263.28, 0.00, 0.000, 0.000, 0.000, 13:16:22.052
54, 0.00, 25963.81, 13769.48, 5466.81, -5422.38, 11795.17, 30274.83, 0.00, 0.000, 0.000, 0.000, 13:16:22.053
55, 0.00, 25966.78, 13770.35, 5474.90, -5195.31, 11801.14, 30277.02, 0.00, 0.000, 0.000, 0.000, 13:16:22.053
56, 0.00, 25971.36, 13774.87, 5414.58, -5130.49, 11807.20, 30266.50, 0.00, 0.000, 0.000, 0.000, 13:16:22.053
57, 0.00, 25973.31, 13776.94, 5375.55, -5286.10, 11803.35, 30261.60, 0.00, 0.000, 0.000, 0.000, 13:16:22.053
58, 0.00, 25970.18, 13775.00, 5401.66, -5478.10, 11798.52, 30267.35, 0.00, 0.034, -0.034, 1.002, 13:16:22.054
59, 0.00, 25964.34, 13769.90, 5465.67, -5420.52, 11797.76, 30275.57, 0.00, 0.000, 0.000, 0.000, 13:16:22.054
60, 0.00, 25966.45, 13773.41, 5472.22, -5196.42, 11803.15, 30276.91, 0.00, 0.000, 0.000, 0.000, 13:16:22.054
61, 0.00, 25971.29, 13780.59, 5414.64, -5130.40, 11809.97, 30265.91, 0.00, 0.000, 0.000, 0.000, 13:16:22.054
62, 0.00, 25972.08, 13783.34, 5371.06, -5289.96, 11807.46, 30258.31, 0.00, 0.000, 0.000, 0.000, 13:16:22.055
63, 0.00, 25967.65, 13776.47, 5395.31, -5478.81, 11798.90, 30263.21, 0.00, 0.000, 0.000, 0.000, 13:16:22.055
64, 0.00, 25963.36, 13774.28, 5461.29, -5423.11, 11797.38, 30272.44, 0.00, 0.000, 0.000, 0.000, 13:16:22.055
65, 0.00, 25965.08, 13776.70, 5469.76, -5196.87, 11803.96, 30272.78, 0.00, 0.000, 0.000, 0.000, 13:16:22.055
66, 0.00, 25970.96, 13782.35, 5411.47, -5129.03, 11809.30, 30264.10, 0.00, 0.000, 0.000, 0.000, 13:16:22.056
67, 0.00, 25972.50, 13782.82, 5366.63, -5291.37, 11805.19, 30259.25, 0.00, 0.030, -0.030, 1.000, 13:16:22.056
68, 0.00, 25969.62, 13778.82, 5392.00, -5482.52, 11796.94, 30265.15, 0.00, 0.000, 0.000, 0.000, 13:16:22.056
69, 0.00, 25965.39, 13776.52, 5460.93, -5422.80, 11797.34, 30275.95, 0.00, 0.000, 0.000, 0.000, 13:16:22.056
70, 0.00, 25968.35, 13778.98, 5470.37, -5194.19, 11805.23, 30277.49, 0.00, 0.000, 0.000, 0.000, 13:16:22.057
71, 0.00, 25972.35, 13782.49, 5410.17, -5128.21, 11809.88, 30267.41, 0.00, 0.000, 0.000, 0.000, 13:16:22.057
72, 0.00, 25973.04, 13784.68, 5368.20, -5289.63, 11808.16, 30261.38, 0.00, 0.000, 0.000, 0.000, 13:16:22.057
73, 0.00, 25968.55, 13781.01, 5393.45, -5477.61, 11800.56, 30265.31, 0.00, 0.000, 0.000, 0.000, 13:16:22.057
74, 0.00, 25964.52, 13778.60, 5456.42, -5420.45, 11798.52, 30274.12, 0.00, 0.000, 0.000, 0.000, 13:16:22.510
75, 0.00, 25965.08, 13776.70, 5460.37, -5194.43, 11803.53, 30273.83, 0.00, 0.000, 0.000, 0.000, 13:16:22.511
76, 0.00, 25967.03, 13777.30, 5397.41, -5130.98, 11806.17, 30262.29, 0.00, 0.000, 0.000, 0.000, 13:16:22.511
77, 0.00, 25969.24, 13781.53, 5355.97, -5293.00, 11805.59, 30256.84, 0.00, 0.036, -0.032, 1.000, 13:16:22.511
78, 0.00, 25964.86, 13779.34, 5385.21, -5480.36, 11798.86, 30262.90, 0.00, 0.000, 0.000, 0.000, 13:16:22.511
79, 0.00, 25960.39, 13777.93, 5454.52, -5420.83, 11798.21, 30273.13, 0.00, 0.000, 0.000, 0.000, 13:16:22.511
80, 0.00, 25961.77, 13778.69, 5459.86, -5196.09, 11805.70, 30273.40, 0.00, 0.000, 0.000, 0.000, 13:16:22.511
81, 0.00, 25967.34, 13780.16, 5396.14, -5131.87, 11808.34, 30263.95, 0.00, 0.000, 0.000, 0.000, 13:16:22.511
82, 0.00, 25969.82, 13782.24, 5355.72, -5289.79, 11805.32, 30258.92, 0.00, 0.000, 0.000, 0.000, 13:16:22.511
83, 0.00, 25968.32, 13781.39, 5384.29, -5477.34, 11800.25, 30266.16, 0.00, 0.000, 0.000, 0.000, 13:16:22.511
84, 0.00, 25965.98, 13778.42, 5454.25, -5413.17, 11799.04, 30279.24, 0.00, 0.000, 0.000, 0.000, 13:16:22.511
85, 0.00, 25966.15, 13776.65, 5457.89, -5182.63, 11802.79, 30279.15, 0.00, 0.000, 0.000, 0.000, 13:16:22.511
86, 0.00, 25969.75, 13782.11, 5398.10, -5107.35, 11807.17, 30265.58, 0.00, 0.000, 0.000, 0.000, 13:16:22.511
87, 0.00, 25971.18, 13786.42, 5357.06, -5264.26, 11804.58, 30258.63, 0.00, 0.032, -0.032, 0.992, 13:16:22.512
88, 0.00, 25969.11, 13785.24, 5384.07, -5451.34, 11798.61, 30265.98, 0.00, 0.000, 0.000, 0.000, 13:16:22.512
89, 0.00, 25963.92, 13774.96, 5448.73, -5384.07, 11794.43, 30274.77, 0.00, 0.000, 0.000, 0.000, 13:16:22.512
90, 0.00, 25965.55, 13775.78, 5452.77, -5159.43, 11798.68, 30275.06, 0.00, 0.000, 0.000, 0.000, 13:16:22.512
91, 0.00, 25967.67, 13781.37, 5393.16, -5095.91, 11801.59, 30263.14, 0.00, 0.000, 0.000, 0.000, 13:16:22.512
92, 0.00, 25968.39, 13784.83, 5353.80, -5253.11, 11803.80, 30257.47, 0.00, 0.000, 0.000, 0.000, 13:16:22.512
93, 0.00, 25966.67, 13782.15, 5380.06, -5441.80, 11797.85, 30264.78, 0.00, 0.000, 0.000, 0.000, 13:16:22.512
94, 0.00, 25962.80, 13777.82, 5447.63, -5378.37, 11796.42, 30276.24, 0.00, 0.000, 0.000, 0.000, 13:16:22.512
95, 0.00, 25963.92, 13778.96, 5451.97, -5153.93, 11802.01, 30275.19, 0.00, 0.000, 0.000, 0.000, 13:16:22.512
96, 0.00, 25967.00, 13784.25, 5391.89, -5087.73, 11806.86, 30263.95, 0.00, 0.000, 0.000, 0.000, 13:16:22.512
97, 0.00, 25969.62, 13788.72, 5350.65, -5250.78, 11805.19, 30258.81, 0.00, 0.026, -0.038, 0.996, 13:16:22.512
98, 0.00, 25965.15, 13783.78, 5375.57, -5439.79, 11796.13, 30262.47, 0.00, 0.000, 0.000, 0.000, 13:16:22.512
99, 0.00, 25960.46, 13778.20, 5439.54, -5375.93, 11793.76, 30271.73, 0.00, 0.000, 0.000, 0.000, 13:16:22.513
100, 0.00, 25962.73, 13779.36, 5443.72, -5151.27, 11798.46, 30272.26, 0.00, 0.000, 0.000, 0.000, 13:16:22.513
101, 0.00, 25967.25, 13783.54, 5383.55, -5087.23, 11804.07, 30262.50, 0.00, 0.000, 0.000, 0.000, 13:16:22.513
102, 0.00, 25967.23, 13786.26, 5342.04, -5247.61, 11799.96, 30256.71, 0.00, 0.000, 0.000, 0.000, 13:16:22.513
103, 0.00, 25964.52, 13782.91, 5369.94, -5433.95, 11795.31, 30262.43, 0.00, 0.000, 0.000, 0.000, 13:16:22.513
104, 0.00, 25959.67, 13774.53, 5431.54, -5370.81, 11793.09, 30271.79, 0.00, 0.000, 0.000, 0.000, 13:16:22.513
105, 0.00, 25961.37, 13777.01, 5436.28, -5146.20, 11797.34, 30272.78, 0.00, 0.000, 0.000, 0.000, 13:16:22.513
106, 0.00, 25966.60, 13783.52, 5377.00, -5086.52, 11803.20, 30263.63, 0.00, 0.000, 0.000, 0.000, 13:16:22.513
107, 0.00, 25968.28, 13785.86, 5338.40, -5245.60, 11801.34, 30258.40, 0.00, 0.026, -0.032, 0.994, 13:16:22.513
108, 0.00, 25966.15, 13783.72, 5366.09, -5431.59, 11796.11, 30265.67, 0.00, 0.000, 0.000, 0.000, 13:16:22.514
109, 0.00, 25961.21, 13778.38, 5431.16, -5366.30, 11793.92, 30274.23, 0.00, 0.000, 0.000, 0.000, 13:16:22.514
110, 0.00, 25963.88, 13778.13, 5433.51, -5144.70, 11798.68, 30275.41, 0.00, 0.000, 0.000, 0.000, 13:16:22.514
111, 0.00, 25967.63, 13781.62, 5374.10, -5081.22, 11802.41, 30265.38, 0.00, 0.000, 0.000, 0.000, 13:16:22.514
112, 0.00, 25968.68, 13785.91, 5337.24, -5242.09, 11799.69, 30258.16, 0.00, 0.000, 0.000, 0.000, 13:16:22.514
113, 0.00, 25965.30, 13781.93, 5364.93, -5431.99, 11790.17, 30264.53, 0.00, 0.000, 0.000, 0.000, 13:16:22.514
114, 0.00, 25961.13, 13779.25, 5434.47, -5364.69, 11789.45, 30275.64, 0.00, 0.000, 0.000, 0.000, 13:16:22.514
115, 0.00, 25962.64, 13781.77, 5438.87, -5141.26, 11798.03, 30276.71, 0.00, 0.000, 0.000, 0.000, 13:16:22.514
116, 0.00, 25966.31, 13785.86, 5382.37, -5072.46, 11803.00, 30264.60, 0.00, 0.000, 0.000, 0.000, 13:16:22.514
117, 0.00, 25968.32, 13784.41, 5339.32, -5236.63, 11801.70, 30257.87, 0.00, 0.024, -0.038, 0.998, 13:16:22.514
118, 0.00, 25965.28, 13784.48, 5367.06, -5429.22, 11794.99, 30265.36, 0.00, 0.000, 0.000, 0.000, 13:16:22.514
119, 0.00, 25959.40, 13779.27, 5433.40, -5363.57, 11791.86, 30275.19, 0.00, 0.000, 0.000, 0.000, 13:16:22.515
120, 0.00, 25961.13, 13780.05, 5437.71, -5137.06, 11798.01, 30276.73, 0.00, 0.000, 0.000, 0.000, 13:16:22.515
121, 0.00, 25964.43, 13783.05, 5376.13, -5075.28, 11801.74, 30264.17, 0.00, 0.000, 0.000, 0.000, 13:16:22.515
122, 0.00, 25966.54, 13785.57, 5337.24, -5235.27, 11799.89, 30257.80, 0.00, 0.000, 0.000, 0.000, 13:16:22.515
123, 0.00, 25963.54, 13781.84, 5364.15, -5421.95, 11793.25, 30264.17, 0.00, 0.000, 0.000, 0.000, 13:16:22.515
124, 0.00, 25959.27, 13776.41, 5428.57, -5360.04, 11789.85, 30273.71, 0.00, 0.000, 0.000, 0.000, 13:16:22.515
125, 0.00, 25960.95, 13776.59, 5432.97, -5137.01, 11794.66, 30273.38, 0.00, 0.000, 0.000, 0.000, 13:16:22.515
126, 0.00, 25965.75, 13781.39, 5372.87, -5076.95, 11801.25, 30263.34, 0.00, 0.000, 0.000, 0.000, 13:16:22.515
127, 0.00, 25966.83, 13783.43, 5335.18, -5235.76, 11797.83, 30256.79, 0.00, 0.028, -0.038, 0.996, 13:16:22.515
128, 0.00, 25964.68, 13780.03, 5361.47, -5421.80, 11790.79, 30263.05, 0.00, 0.000, 0.000, 0.000, 13:16:22.515
129, 0.00, 25959.81, 13777.53, 5422.38, -5358.85, 11789.11, 30272.60, 0.00, 0.000, 0.000, 0.000, 13:16:22.516
130, 0.00, 25961.04, 13776.14, 5420.12, -5138.38, 11792.24, 30272.75, 0.00, 0.000, 0.000, 0.000, 13:16:22.516
131, 0.00, 25965.78, 13779.45, 5358.96, -5078.63, 11795.66, 30262.27, 0.00, 0.000, 0.000, 0.000, 13:16:22.516
132, 0.00, 25966.31, 13781.17, 5318.22, -5239.85, 11793.21, 30255.05, 0.00, 0.000, 0.000, 0.000, 13:16:22.516
133, 0.00, 25963.65, 13780.90, 5349.02, -5426.04, 11788.00, 30262.16, 0.00, 0.000, 0.000, 0.000, 13:16:22.516
134, 0.00, 25958.60, 13777.12, 5418.91, -5353.51, 11785.16, 30270.65, 0.00, 0.000, 0.000, 0.000, 13:16:22.516
135, 0.00, 25960.14, 13777.93, 5423.00, -5128.27, 11791.48, 30271.17, 0.00, 0.000, 0.000, 0.000, 13:16:22.516
136, 0.00, 25965.73, 13783.14, 5362.23, -5070.47, 11797.21, 30262.52, 0.00, 0.000, 0.000, 0.000, 13:16:22.516
137, 0.00, 25965.55, 13784.79, 5319.51, -5236.45, 11794.72, 30255.81, 0.00, 0.028, -0.034, 0.992, 13:16:22.516
138, 0.00, 25960.68, 13780.36, 5345.33, -5424.46, 11788.71, 30259.28, 0.00, 0.000, 0.000, 0.000, 13:16:22.516
139, 0.00, 25956.86, 13775.09, 5411.67, -5356.53, 11786.59, 30269.94, 0.00, 0.000, 0.000, 0.000, 13:16:22.517
140, 0.00, 25958.46, 13776.85, 5414.98, -5134.22, 11792.18, 30270.36, 0.00, 0.000, 0.000, 0.000, 13:16:22.517
141, 0.00, 25964.59, 13783.74, 5361.83, -5070.09, 11797.34, 30260.44, 0.00, 0.000, 0.000, 0.000, 13:16:22.517
142, 0.00, 25965.13, 13785.84, 5325.66, -5229.28, 11795.19, 30253.06, 0.00, 0.000, 0.000, 0.000, 13:16:22.517
143, 0.00, 25961.19, 13782.82, 5351.21, -5416.79, 11789.56, 30260.08, 0.00, 0.000, 0.000, 0.000, 13:16:22.517
144, 0.00, 25957.24, 13773.35, 5413.44, -5353.96, 11785.83, 30269.87, 0.00, 0.000, 0.000, 0.000, 13:16:22.517
145, 0.00, 25959.67, 13776.05, 5421.82, -5125.63, 11792.31, 30270.38, 0.00, 0.000, 0.000, 0.000, 13:16:22.517
146, 0.00, 25964.50, 13781.55, 5362.27, -5063.30, 11796.85, 30261.42, 0.00, 0.000, 0.000, 0.000, 13:16:22.517
147, 0.00, 25967.50, 13783.38, 5319.45, -5229.64, 11797.23, 30256.26, 0.00, 0.028, -0.032, 0.992, 13:16:22.517
148, 0.00, 25964.77, 13780.77, 5347.90, -5415.02, 11791.33, 30261.76, 0.00, 0.000, 0.000, 0.000, 13:16:22.517
149, 0.00, 25962.31, 13777.23, 5412.70, -5349.40, 11789.65, 30272.51, 0.00, 0.000, 0.000, 0.000, 13:16:22.518
150, 0.00, 25964.48, 13778.46, 5416.81, -5124.38, 11794.34, 30273.07, 0.00, 0.000, 0.000, 0.000, 13:16:22.518
151, 0.00, 25967.56, 13782.89, 5359.48, -5059.97, 11799.15, 30261.98, 0.00, 0.000, 0.000, 0.000, 13:16:22.518
152, 0.00, 25969.80, 13784.25, 5321.39, -5222.37, 11797.61, 30256.84, 0.00, 0.000, 0.000, 0.000, 13:16:22.518
153, 0.00, 25965.48, 13778.53, 5347.27, -5412.39, 11789.38, 30261.76, 0.00, 0.000, 0.000, 0.000, 13:16:22.518
154, 0.00, 25962.06, 13773.97, 5412.56, -5346.72, 11787.28, 30272.22, 0.00, 0.000, 0.000, 0.000, 13:16:22.518
155, 0.00, 25964.28, 13777.32, 5420.52, -5119.04, 11792.89, 30272.89, 0.00, 0.000, 0.000, 0.000, 13:16:22.518
156, 0.00, 25969.62, 13782.40, 5361.67, -5058.89, 11797.54, 30263.79, 0.00, 0.000, 0.000, 0.000, 13:16:22.518
157, 0.00, 25971.74, 13786.76, 5324.21, -5221.88, 11796.60, 30258.72, 0.00, 0.028, -0.034, 0.990, 13:16:22.518
158, 0.00, 25967.90, 13782.49, 5350.76, -5410.84, 11791.77, 30263.72, 0.00, 0.000, 0.000, 0.000, 13:16:22.519
159, 0.00, 25962.40, 13774.06, 5415.18, -5342.42, 11789.14, 30272.73, 0.00, 0.000, 0.000, 0.000, 13:16:22.519
160, 0.00, 25965.22, 13777.23, 5421.44, -5116.22, 11795.44, 30274.07, 0.00, 0.000, 0.000, 0.000, 13:16:22.519
161, 0.00, 25967.07, 13781.50, 5360.57, -5057.91, 11798.35, 30262.45, 0.00, 0.000, 0.000, 0.000, 13:16:22.519
162, 0.00, 25969.15, 13784.95, 5320.16, -5222.04, 11797.12, 30256.91, 0.00, 0.000, 0.000, 0.000, 13:16:22.519
163, 0.00, 25965.51, 13782.11, 5347.30, -5409.23, 11790.61, 30264.35, 0.00, 0.000, 0.000, 0.000, 13:16:22.519
164, 0.00, 25960.05, 13775.54, 5409.08, -5344.21, 11787.82, 30273.16, 0.00, 0.000, 0.000, 0.000, 13:16:22.519
165, 0.00, 25962.29, 13777.66, 5415.18, -5115.13, 11793.81, 30272.67, 0.00, 0.000, 0.000, 0.000, 13:16:22.520
166, 0.00, 25965.75, 13785.84, 5361.98, -5052.50, 11800.00, 30262.12, 0.00, 0.000, 0.000, 0.000, 13:16:22.520
167, 0.00, 25966.65, 13787.49, 5324.97, -5214.35, 11796.67, 30255.63, 0.00, 0.032, -0.034, 0.992, 13:16:22.520
168, 0.00, 25964.97, 13783.65, 5348.12, -5407.36, 11788.82, 30261.94, 0.00, 0.000, 0.000, 0.000, 13:16:22.520
169, 0.00, 25960.41, 13779.29, 5413.08, -5338.40, 11788.11, 30271.59, 0.00, 0.000, 0.000, 0.000, 13:16:22.520
170, 0.00, 25962.85, 13783.83, 5418.60, -5117.10, 11794.70, 30271.21, 0.00, 0.000, 0.000, 0.000, 13:16:22.520
171, 0.00, 25967.70, 13790.18, 5360.46, -5057.40, 11799.64, 30260.64, 0.00, 0.000, 0.000, 0.000, 13:16:22.520
172, 0.00, 25967.03, 13785.84, 5319.92, -5218.39, 11795.98, 30253.00, 0.00, 0.000, 0.000, 0.000, 13:16:22.520
173, 0.00, 25963.54, 13782.11, 5344.12, -5406.31, 11789.29, 30260.44, 0.00, 0.000, 0.000, 0.000, 13:16:22.520
174, 0.00, 25958.69, 13777.15, 5407.83, -5337.13, 11787.33, 30270.43, 0.00, 0.000, 0.000, 0.000, 13:16:22.521
175, 0.00, 25960.03, 13777.44, 5409.23, -5114.32, 11792.42, 30269.04, 0.00, 0.000, 0.000, 0.000, 13:16:22.521
176, 0.00, 25965.75, 13784.86, 5354.54, -5052.37, 11799.33, 30261.53, 0.00, 0.000, 0.000, 0.000, 13:16:22.521
177, 0.00, 25966.27, 13786.13, 5315.49, -5219.11, 11796.16, 30255.77, 0.00, 0.032, -0.030, 0.998, 13:16:22.521
178, 0.00, 25963.25, 13782.60, 5344.06, -5404.36, 11789.29, 30261.87, 0.00, 0.000, 0.000, 0.000, 13:16:22.521
179, 0.00, 25958.94, 13776.92, 5409.01, -5334.11, 11786.99, 30270.36, 0.00, 0.000, 0.000, 0.000, 13:16:22.521
180, 0.00, 25962.09, 13777.15, 5409.23, -5113.41, 11792.62, 30270.54, 0.00, 0.000, 0.000, 0.000, 13:16:22.521
181, 0.00, 25966.60, 13781.39, 5349.47, -5057.51, 11796.49, 30259.86, 0.00, 0.000, 0.000, 0.000, 13:16:22.521
182, 0.00, 25966.83, 13783.11, 5312.88, -5217.57, 11793.09, 30253.35, 0.00, 0.000, 0.000, 0.000, 13:16:22.521
183, 0.00, 25963.79, 13780.92, 5342.63, -5403.35, 11788.58, 30261.40, 0.00, 0.000, 0.000, 0.000, 13:16:22.521
184, 0.00, 25958.55, 13777.64, 5410.46, -5333.35, 11788.71, 30270.61, 0.00, 0.000, 0.000, 0.000, 13:16:22.521
185, 0.00, 25960.12, 13778.38, 5412.97, -5111.62, 11793.34, 30269.76, 0.00, 0.000, 0.000, 0.000, 13:16:22.521
186, 0.00, 25965.73, 13783.72, 5356.13, -5047.09, 11798.50, 30261.31, 0.00, 0.000, 0.000, 0.000, 13:16:22.522
187, 0.00, 25968.61, 13787.81, 5314.26, -5217.88, 11796.42, 30257.35, 0.00, 0.028, -0.032, 0.994, 13:16:22.522
188, 0.00, 25963.88, 13780.25, 5341.69, -5403.18, 11788.62, 30263.03, 0.00, 0.000, 0.000, 0.000, 13:16:22.522
189, 0.00, 25958.67, 13774.91, 5408.88, -5327.69, 11785.63, 30270.05, 0.00, 0.000, 0.000, 0.000, 13:16:22.522
190, 0.00, 25959.85, 13776.99, 5410.64, -5109.56, 11790.88, 30269.98, 0.00, 0.000, 0.000, 0.000, 13:16:22.522
191, 0.00, 25964.43, 13781.48, 5352.06, -5052.19, 11795.44, 30260.64, 0.00, 0.000, 0.000, 0.000, 13:16:22.522
192, 0.00, 25966.51, 13782.93, 5313.59, -5215.11, 11793.27, 30255.34, 0.00, 0.000, 0.000, 0.000, 13:16:22.522
193, 0.00, 25964.72, 13781.77, 5345.62, -5398.42, 11787.73, 30262.38, 0.00, 0.000, 0.000, 0.000, 13:16:22.522
194, 0.00, 25960.19, 13776.54, 5411.31, -5330.65, 11784.31, 30271.68, 0.00, 0.000, 0.000, 0.000, 13:16:22.990
195, 0.00, 25960.39, 13776.56, 5410.46, -5113.34, 11789.14, 30269.87, 0.00, 0.000, 0.000, 0.000, 13:16:22.991
196, 0.00, 25965.02, 13783.96, 5353.35, -5053.80, 11795.42, 30259.41, 0.00, 0.000, 0.000, 0.000, 13:16:22.991
197, 0.00, 25967.38, 13787.85, 5317.14, -5219.11, 11794.17, 30255.63, 0.00, 0.030, -0.036, 0.996, 13:16:22.991
198, 0.00, 25965.33, 13785.84, 5347.07, -5405.79, 11788.62, 30262.54, 0.00, 0.000, 0.000, 0.000, 13:16:22.991
199, 0.00, 25960.30, 13779.81, 5411.94, -5330.89, 11786.19, 30272.82, 0.00, 0.000, 0.000, 0.000, 13:16:22.992
200, 0.00, 25963.25, 13781.82, 5414.87, -5104.36, 11791.62, 30274.97, 0.00, 0.000, 0.000, 0.000, 13:16:22.992
201, 0.00, 25967.47, 13787.65, 5357.00, -5045.33, 11796.47, 30264.89, 0.00, 0.000, 0.000, 0.000, 13:16:22.992
202, 0.00, 25968.12, 13788.52, 5318.96, -5214.15, 11793.41, 30257.13, 0.00, 0.000, 0.000, 0.000, 13:16:22.992
203, 0.00, 25963.09, 13783.18, 5342.89, -5405.14, 11785.49, 30260.84, 0.00, 0.000, 0.000, 0.000, 13:16:22.992
204, 0.00, 25959.70, 13782.38, 5410.82, -5332.52, 11786.88, 30271.59, 0.00, 0.000, 0.000, 0.000, 13:16:22.992
205, 0.00, 25960.10, 13780.43, 5417.30, -5101.52, 11790.10, 30269.22, 0.00, 0.000, 0.000, 0.000, 13:16:22.992
206, 0.00, 25964.14, 13784.16, 5358.38, -5045.26, 11794.03, 30258.09, 0.00, 0.000, 0.000, 0.000, 13:16:22.992
207, 0.00, 25964.63, 13786.24, 5317.17, -5217.41, 11790.52, 30253.40, 0.00, 0.026, -0.040, 0.994, 13:16:22.993
208, 0.00, 25961.91, 13783.45, 5346.43, -5401.72, 11783.59, 30260.89, 0.00, 0.000, 0.000, 0.000, 13:16:22.993
209, 0.00, 25958.18, 13779.60, 5412.03, -5328.83, 11782.63, 30270.59, 0.00, 0.000, 0.000, 0.000, 13:16:22.993
210, 0.00, 25961.01, 13780.86, 5412.50, -5105.05, 11790.50, 30270.54, 0.00, 0.000, 0.000, 0.000, 13:16:22.993
211, 0.00, 25965.84, 13785.13, 5351.14, -5048.52, 11795.10, 30259.77, 0.00, 0.000, 0.000, 0.000, 13:16:22.993
212, 0.00, 25966.00, 13785.68, 5313.75, -5212.29, 11790.83, 30251.50, 0.00, 0.000, 0.000, 0.000, 13:16:22.993
213, 0.00, 25962.47, 13783.09, 5342.74, -5397.81, 11784.02, 30258.29, 0.00, 0.000, 0.000, 0.000, 13:16:22.994
214, 0.00, 25958.29, 13778.42, 5408.25, -5321.26, 11782.54, 30268.40, 0.00, 0.000, 0.000, 0.000, 13:16:22.994
215, 0.00, 25962.87, 13781.15, 5410.15, -5098.34, 11789.18, 30270.05, 0.00, 0.000, 0.000, 0.000, 13:16:22.994
216, 0.00, 25967.32, 13785.50, 5348.55, -5042.80, 11793.96, 30262.25, 0.00, 0.000, 0.000, 0.000, 13:16:22.994
217, 0.00, 25967.79, 13786.51, 5309.68, -5213.72, 11789.43, 30256.44, 0.00, 0.034, -0.044, 0.992, 13:16:22.994
218, 0.00, 25965.86, 13783.78, 5339.90, -5399.38, 11784.82, 30263.50, 0.00, 0.000, 0.000, 0.000, 13:16:22.994
219, 0.00, 25961.42, 13781.26, 5404.00, -5324.79, 11784.22, 30272.89, 0.00, 0.000, 0.000, 0.000, 13:16:22.994
220, 0.00, 25961.42, 13781.30, 5406.35, -5099.80, 11787.66, 30271.82, 0.00, 0.000, 0.000, 0.000, 13:16:22.995
221, 0.00, 25965.89, 13786.09, 5349.02, -5040.77, 11790.95, 30262.07, 0.00, 0.000, 0.000, 0.000, 13:16:22.995
222, 0.00, 25968.05, 13787.02, 5308.11, -5212.63, 11790.86, 30257.04, 0.00, 0.000, 0.000, 0.000, 13:16:22.996
223, 0.00, 25965.46, 13783.07, 5336.32, -5399.22, 11785.16, 30263.12, 0.00, 0.000, 0.000, 0.000, 13:16:22.996
224, 0.00, 25961.24, 13778.35, 5401.32, -5325.68, 11784.06, 30274.28, 0.00, 0.000, 0.000, 0.000, 13:16:22.996
225, 0.00, 25962.71, 13782.40, 5408.85, -5098.14, 11791.80, 30275.06, 0.00, 0.000, 0.000, 0.000, 13:16:22.996
226, 0.00, 25968.46, 13786.56, 5350.23, -5041.61, 11794.77, 30264.02, 0.00, 0.000, 0.000, 0.000, 13:16:22.996
227, 0.00, 25969.73, 13788.05, 5310.53, -5212.92, 11791.19, 30257.64, 0.00, 0.030, -0.046, 0.996, 13:16:22.996
228, 0.00, 25963.72, 13784.12, 5337.69, -5396.76, 11783.79, 30262.32, 0.00, 0.000, 0.000, 0.000, 13:16:22.996
229, 0.00, 25960.07, 13780.95, 5403.89, -5317.77, 11784.31, 30274.03, 0.00, 0.000, 0.000, 0.000, 13:16:22.996
230, 0.00, 25962.42, 13780.77, 5404.61, -5095.84, 11789.29, 30273.56, 0.00, 0.000, 0.000, 0.000, 13:16:22.996
231, 0.00, 25968.21, 13786.33, 5347.07, -5038.93, 11793.43, 30264.44, 0.00, 0.000, 0.000, 0.000, 13:16:22.996
232, 0.00, 25969.91, 13789.77, 5311.11, -5205.88, 11792.24, 30259.54, 0.00, 0.000, 0.000, 0.000, 13:16:22.996
233, 0.00, 25965.24, 13787.32, 5338.11, -5392.65, 11784.82, 30264.17, 0.00, 0.000, 0.000, 0.000, 13:16:22.996
234, 0.00, 25961.95, 13780.86, 5401.50, -5318.20, 11780.89, 30273.96, 0.00, 0.000, 0.000, 0.000, 13:16:22.996
235, 0.00, 25964.66, 13781.10, 5401.72, -5097.27, 11788.82, 30273.29, 0.00, 0.000, 0.000, 0.000, 13:16:22.996
236, 0.00, 25967.05, 13787.87, 5345.93, -5040.12, 11795.15, 30261.36, 0.00, 0.000, 0.000, 0.000, 13:16:22.997
237, 0.00, 25969.28, 13792.93, 5311.06, -5208.45, 11792.74, 30257.53, 0.00, 0.028, -0.040, 0.998, 13:16:22.997
238, 0.00, 25966.42, 13791.50, 5343.48, -5389.92, 11786.61, 30264.10, 0.00, 0.000, 0.000, 0.000, 13:16:22.997
239, 0.00, 25963.00, 13786.20, 5407.67, -5314.26, 11784.42, 30275.01, 0.00, 0.000, 0.000, 0.000, 13:16:22.997
240, 0.00, 25965.57, 13787.11, 5407.92, -5094.21, 11790.17, 30274.16, 0.00, 0.000, 0.000, 0.000, 13:16:22.997
241, 0.00, 25969.78, 13790.20, 5346.89, -5037.05, 11795.60, 30264.04, 0.00, 0.000, 0.000, 0.000, 13:16:22.997
242, 0.00, 25969.73, 13790.22, 5303.91, -5211.13, 11791.51, 30257.82, 0.00, 0.000, 0.000, 0.000, 13:16:22.997
243, 0.00, 25966.33, 13786.44, 5333.66, -5393.54, 11784.80, 30263.72, 0.00, 0.000, 0.000, 0.000, 13:16:22.997
244, 0.00, 25964.77, 13783.38, 5402.33, -5312.20, 11782.81, 30277.34, 0.00, 0.000, 0.000, 0.000, 13:16:22.998
245, 0.00, 25967.27, 13787.02, 5403.27, -5093.65, 11790.79, 30278.81, 0.00, 0.000, 0.000, 0.000, 13:16:22.998
246, 0.00, 25970.40, 13794.49, 5346.09, -5037.50, 11796.67, 30267.52, 0.00, 0.000, 0.000, 0.000, 13:16:22.998
247, 0.00, 25970.40, 13793.82, 5306.84, -5206.77, 11794.32, 30261.33, 0.00, 0.028, -0.042, 0.994, 13:16:22.998
248, 0.00, 25966.38, 13788.03, 5333.86, -5391.69, 11787.46, 30265.71, 0.00, 0.000, 0.000, 0.000, 13:16:22.998
249, 0.00, 25962.20, 13783.40, 5400.45, -5309.86, 11785.18, 30274.79, 0.00, 0.000, 0.000, 0.000, 13:16:22.998
250, 0.00, 25962.71, 13785.50, 5399.87, -5088.33, 11790.68, 30273.34, 0.00, 0.000, 0.000, 0.000, 13:16:22.998
251, 0.00, 25967.79, 13794.18, 5345.55, -5032.09, 11797.90, 30265.45, 0.00, 0.000, 0.000, 0.000, 13:16:22.998
252, 0.00, 25969.89, 13797.49, 5308.34, -5203.13, 11794.99, 30259.66, 0.00, 0.000, 0.000, 0.000, 13:16:22.999
253, 0.00, 25966.15, 13792.30, 5335.70, -5387.51, 11788.11, 30264.66, 0.00, 0.000, 0.000, 0.000, 13:16:22.999
254, 0.00, 25963.63, 13787.72, 5401.08, -5308.40, 11788.06, 30276.62, 0.00, 0.000, 0.000, 0.000, 13:16:22.999
255, 0.00, 25964.63, 13787.87, 5402.62, -5085.16, 11790.97, 30276.04, 0.00, 0.000, 0.000, 0.000, 13:16:22.999
0, 0.00, 25969.06, 13790.49, 5338.40, -5034.77, 11794.50, 30266.61, 0.00, 0.000, 0.000, 0.000, 13:16:22.999
1, 0.00, 25971.21, 13794.11, 5304.23, -5202.88, 11794.12, 30261.60, 0.00, 0.028, -0.040, 0.992, 13:16:22.999
2, 0.00, 25966.96, 13792.50, 5333.26, -5389.14, 11787.93, 30266.72, 0.00, 0.000, 0.000, 0.000, 13:16:22.999
3, 0.00, 25961.53, 13786.80, 5396.69, -5308.11, 11785.83, 30275.30, 0.00, 0.000, 0.000, 0.000, 13:16:22.999
4, 0.00, 25963.76, 13789.60, 5394.82, -5086.34, 11791.24, 30275.71, 0.00, 0.000, 0.000, 0.000, 13:16:23.000
5, 0.00, 25969.40, 13794.04, 5334.89, -5038.04, 11795.82, 30266.74, 0.00, 0.000, 0.000, 0.000, 13:16:23.000
6, 0.00, 25970.36, 13795.21, 5299.62, -5206.91, 11791.91, 30259.14, 0.00, 0.000, 0.000, 0.000, 13:16:23.000
7, 0.00, 25965.82, 13791.50, 5329.75, -5387.93, 11783.46, 30263.77, 0.00, 0.000, 0.000, 0.000, 13:16:23.000
8, 0.00, 25961.97, 13785.15, 5392.00, -5308.67, 11781.60, 30273.67, 0.00, 0.000, 0.000, 0.000, 13:16:23.000
9, 0.00, 25963.74, 13785.50, 5386.88, -5089.85, 11786.97, 30273.74, 0.00, 0.000, 0.000, 0.000, 13:16:23.000
10, 0.00, 25968.23, 13793.24, 5331.00, -5036.61, 11793.56, 30263.32, 0.00, 0.000, 0.000, 0.000, 13:16:23.000
11, 0.00, 25969.17, 13794.42, 5294.95, -5207.67, 11791.91, 30257.55, 0.00, 0.032, -0.038, 0.992, 13:16:23.000
12, 0.00, 25966.29, 13789.84, 5322.15, -5390.23, 11785.45, 30263.84, 0.00, 0.000, 0.000, 0.000, 13:16:23.001
13, 0.00, 25961.64, 13784.72, 5386.52, -5307.58, 11784.13, 30274.14, 0.00, 0.000, 0.000, 0.000, 13:16:23.001
14, 0.00, 25964.70, 13788.10, 5387.53, -5087.23, 11790.21, 30274.86, 0.00, 0.000, 0.000, 0.000, 13:16:23.001
15, 0.00, 25968.41, 13792.23, 5326.26, -5035.83, 11795.37, 30263.99, 0.00, 0.000, 0.000, 0.000, 13:16:23.001
16, 0.00, 25970.00, 13794.85, 5286.41, -5207.98, 11794.30, 30260.30, 0.00, 0.000, 0.000, 0.000, 13:16:23.002
17, 0.00, 25967.41, 13792.01, 5315.31, -5390.57, 11788.22, 30268.02, 0.00, 0.000, 0.000, 0.000, 13:16:23.002
18, 0.00, 25960.39, 13787.43, 5383.15, -5302.64, 11785.16, 30273.83, 0.00, 0.000, 0.000, 0.000, 13:16:23.002
19, 0.00, 25961.97, 13791.27, 5382.34, -5080.75, 11790.52, 30271.97, 0.00, 0.000, 0.000, 0.000, 13:16:23.002
20, 0.00, 25966.91, 13791.16, 5319.29, -5035.27, 11791.98, 30262.32, 0.00, 0.000, 0.000, 0.000, 13:16:23.002
21, 0.00, 25966.74, 13792.84, 5282.72, -5211.04, 11788.26, 30256.42, 0.00, 0.026, -0.036, 0.990, 13:16:23.002
22, 0.00, 25962.76, 13792.50, 5317.70, -5388.94, 11786.07, 30261.58, 0.00, 0.000, 0.000, 0.000, 13:16:23.002
23, 0.00, 25959.34, 13786.09, 5383.73, -5303.87, 11785.16, 30271.21, 0.00, 0.000, 0.000, 0.000, 13:16:23.002
24, 0.00, 25960.97, 13788.17, 5383.60, -5085.51, 11791.17, 30272.33, 0.00, 0.000, 0.000, 0.000, 13:16:23.002
25, 0.00, 25963.74, 13794.29, 5329.28, -5033.23, 11796.31, 30261.94, 0.00, 0.000, 0.000, 0.000, 13:16:23.002
26, 0.00, 25965.26, 13794.89, 5293.47, -5203.53, 11792.42, 30254.27, 0.00, 0.000, 0.000, 0.000, 13:16:23.002
27, 0.00, 25962.18, 13792.17, 5325.28, -5385.92, 11785.49, 30261.47, 0.00, 0.000, 0.000, 0.000, 13:16:23.003
28, 0.00, 25959.61, 13787.58, 5389.01, -5306.24, 11784.40, 30272.60, 0.00, 0.000, 0.000, 0.000, 13:16:23.003
29, 0.00, 25961.53, 13789.37, 5385.83, -5086.63, 11790.68, 30274.56, 0.00, 0.000, 0.000, 0.000, 13:16:23.003
30, 0.00, 25966.00, 13794.85, 5322.60, -5039.45, 11794.63, 30264.33, 0.00, 0.000, 0.000, 0.000, 13:16:23.003
31, 0.00, 25966.33, 13795.59, 5284.51, -5210.75, 11790.50, 30254.67, 0.00, 0.034, -0.030, 0.988, 13:16:23.003
32, 0.00, 25962.24, 13792.79, 5317.99, -5389.81, 11782.74, 30260.19, 0.00, 0.000, 0.000, 0.000, 13:16:23.003
33, 0.00, 25958.26, 13788.83, 5383.75, -5305.16, 11782.83, 30270.90, 0.00, 0.000, 0.000, 0.000, 13:16:23.003
34, 0.00, 25962.76, 13793.75, 5380.87, -5086.09, 11790.81, 30272.22, 0.00, 0.000, 0.000, 0.000, 13:16:23.003
35, 0.00, 25966.36, 13795.05, 5323.00, -5034.06, 11794.93, 30261.82, 0.00, 0.000, 0.000, 0.000, 13:16:23.004
36, 0.00, 25966.09, 13791.38, 5281.96, -5208.94, 11790.54, 30255.54, 0.00, 0.000, 0.000, 0.000, 13:16:23.004
37, 0.00, 25963.03, 13788.70, 5314.33, -5389.05, 11783.15, 30262.09, 0.00, 0.000, 0.000, 0.000, 13:16:23.004
38, 0.00, 25959.23, 13784.72, 5385.81, -5302.48, 11781.25, 30271.66, 0.00, 0.000, 0.000, 0.000, 13:16:23.004
39, 0.00, 25960.57, 13785.26, 5382.88, -5085.42, 11786.03, 30271.28, 0.00, 0.000, 0.000, 0.000, 13:16:23.004
40, 0.00, 25963.54, 13790.40, 5322.26, -5040.18, 11789.92, 30260.55, 0.00, 0.000, 0.000, 0.000, 13:16:23.004
41, 0.00, 25964.41, 13792.19, 5284.60, -5213.52, 11786.72, 30254.85, 0.00, 0.034, -0.026, 0.990, 13:16:23.004
42, 0.00, 25961.37, 13789.53, 5312.67, -5398.66, 11781.78, 30260.97, 0.00, 0.000, 0.000, 0.000, 13:16:23.004
43, 0.00, 25957.68, 13784.68, 5382.30, -5306.91, 11780.73, 30271.10, 0.00, 0.000, 0.000, 0.000, 13:16:23.004
44, 0.00, 25960.54, 13788.77, 5386.55, -5082.65, 11788.11, 30271.77, 0.00, 0.000, 0.000, 0.000, 13:16:23.005
45, 0.00, 25963.65, 13791.83, 5326.00, -5035.76, 11791.10, 30260.24, 0.00, 0.000, 0.000, 0.000, 13:16:23.005
46, 0.00, 25964.77, 13791.76, 5282.54, -5214.35, 11786.43, 30254.47, 0.00, 0.000, 0.000, 0.000, 13:16:23.005
47, 0.00, 25962.47, 13787.38, 5310.46, -5394.39, 11782.74, 30261.73, 0.00, 0.000, 0.000, 0.000, 13:16:23.005
48, 0.00, 25960.16, 13783.58, 5380.20, -5303.49, 11779.97, 30271.59, 0.00, 0.000, 0.000, 0.000, 13:16:23.005
49, 0.00, 25962.87, 13784.75, 5378.97, -5083.19, 11785.31, 30272.06, 0.00, 0.000, 0.000, 0.000, 13:16:23.005
50, 0.00, 25964.59, 13791.67, 5319.92, -5034.24, 11792.74, 30261.04, 0.00, 0.000, 0.000, 0.000, 13:16:23.005
51, 0.00, 25965.82, 13796.26, 5284.56, -5210.44, 11792.06, 30256.48, 0.00, 0.034, -0.032, 0.988, 13:16:23.005
52, 0.00, 25963.52, 13789.15, 5313.81, -5394.28, 11783.66, 30263.54, 0.00, 0.000, 0.000, 0.000, 13:16:23.006
53, 0.00, 25959.45, 13784.61, 5378.48, -5306.71, 11783.48, 30273.67, 0.00, 0.000, 0.000, 0.000, 13:16:23.006
54, 0.00, 25960.25, 13785.91, 5374.92, -5085.02, 11789.90, 30273.00, 0.00, 0.000, 0.000, 0.000, 13:16:23.006
55, 0.00, 25963.96, 13789.04, 5314.46, -5034.82, 11791.66, 30262.76, 0.00, 0.000, 0.000, 0.000, 13:16:23.006
56, 0.00, 25964.81, 13791.56, 5275.64, -5214.66, 11788.06, 30257.24, 0.00, 0.000, 0.000, 0.000, 13:16:23.006
57, 0.00, 25961.17, 13788.14, 5309.63, -5392.34, 11782.16, 30262.18, 0.00, 0.000, 0.000, 0.000, 13:16:23.006
58, 0.00, 25958.20, 13784.34, 5377.67, -5302.86, 11783.46, 30272.87, 0.00, 0.000, 0.000, 0.000, 13:16:23.006
