%OpenBCI Raw EEG Data
%
%Sample Rate = 250.0 Hz
%First Column = SampleIndex
%Last Column = Timestamp 
%Other Columns = EEG data in microvolts followed by Accel Data (in G) interleaved with Aux Data
0, 0.00, 0.00, 0.00, 0.00, 0.00, 0.00, 0.00, 0.00, 0.000, 0.000, 0.000, 13:25:11.925
1, 0.00, 22358.56, 13833.56, 8369.32, -9658.05, 5683.94, 26283.10, 0.00, 0.036, -0.026, 0.996, 13:25:11.925
2, 0.00, 22360.24, 13835.55, 8296.56, -9596.59, 5680.76, 26272.11, 0.00, 0.000, 0.000, 0.000, 13:25:11.926
3, 0.00, 22359.41, 13836.82, 8286.95, -9880.72, 5675.47, 26273.25, 0.00, 0.000, 0.000, 0.000, 13:25:11.926
4, 0.00, 22356.77, 13834.86, 8355.35, -10134.37, 5673.86, 26286.14, 0.00, 0.000, 0.000, 0.000, 13:25:11.926
5, 0.00, 22355.79, 13832.69, 8420.39, -9952.90, 5676.81, 26292.31, 0.00, 0.000, 0.000, 0.000, 13:25:11.926
6, 0.00, 22362.72, 13836.06, 8377.08, -9647.86, 5682.55, 26286.66, 0.00, 0.000, 0.000, 0.000, 13:25:11.926
7, 0.00, 22366.29, 13839.51, 8306.53, -9584.58, 5683.47, 26277.16, 0.00, 0.000, 0.000, 0.000, 13:25:11.927
8, 0.00, 22364.33, 13838.84, 8291.65, -9869.57, 5677.86, 26276.51, 0.00, 0.034, -0.030, 0.992, 13:25:11.927
9, 0.00, 22358.87, 13834.70, 8353.61, -10132.36, 5674.12, 26285.88, 0.00, 0.000, 0.000, 0.000, 13:25:11.927
10, 0.00, 22356.64, 13831.84, 8419.37, -9954.28, 5677.10, 26293.76, 0.00, 0.000, 0.000, 0.000, 13:25:11.927
11, 0.00, 22359.28, 13835.93, 8376.18, -9652.49, 5684.83, 26285.34, 0.00, 0.000, 0.000, 0.000, 13:25:11.928
12, 0.00, 22359.30, 13837.09, 8304.99, -9590.82, 5680.94, 26271.26, 0.00, 0.000, 0.000, 0.000, 13:25:11.928
13, 0.00, 22361.27, 13836.09, 8287.42, -9876.92, 5674.64, 26274.94, 0.00, 0.000, 0.000, 0.000, 13:25:11.928
14, 0.00, 22357.06, 13830.77, 8350.10, -10139.91, 5671.02, 26286.01, 0.00, 0.000, 0.000, 0.000, 13:25:11.928
15, 0.00, 22357.40, 13828.11, 8415.63, -9962.78, 5675.98, 26294.17, 0.00, 0.000, 0.000, 0.000, 13:25:11.928
16, 0.00, 22363.46, 13832.11, 8373.23, -9657.83, 5682.48, 26288.40, 0.00, 0.000, 0.000, 0.000, 13:25:11.929
17, 0.00, 22365.00, 13833.25, 8301.84, -9590.87, 5679.56, 26275.50, 0.00, 0.000, 0.000, 0.000, 13:25:11.929
18, 0.00, 22361.04, 13830.77, 8282.37, -9873.28, 5672.22, 26274.81, 0.00, 0.032, -0.032, 0.988, 13:25:11.929
19, 0.00, 22357.69, 13830.43, 8345.27, -10138.06, 5671.96, 26286.46, 0.00, 0.000, 0.000, 0.000, 13:25:11.929
20, 0.00, 22359.59, 13830.10, 8416.62, -9960.09, 5677.50, 26295.78, 0.00, 0.000, 0.000, 0.000, 13:25:11.930
21, 0.00, 22362.27, 13830.83, 8371.06, -9652.53, 5680.43, 26287.08, 0.00, 0.000, 0.000, 0.000, 13:25:11.930
22, 0.00, 22362.03, 13834.05, 8299.18, -9588.65, 5679.33, 26271.57, 0.00, 0.000, 0.000, 0.000, 13:25:11.930
23, 0.00, 22361.27, 13835.82, 8287.71, -9873.10, 5674.62, 26272.31, 0.00, 0.000, 0.000, 0.000, 13:25:11.930
24, 0.00, 22359.19, 13831.82, 8351.33, -10137.23, 5671.67, 26285.94, 0.00, 0.000, 0.000, 0.000, 13:25:11.930
25, 0.00, 22357.94, 13830.05, 8422.65, -9965.46, 5673.79, 26293.29, 0.00, 0.000, 0.000, 0.000, 13:25:11.931
26, 0.00, 22361.98, 13833.40, 8385.21, -9657.88, 5679.60, 26286.50, 0.00, 0.000, 0.000, 0.000, 13:25:11.931
27, 0.00, 22364.69, 13838.23, 8317.78, -9586.60, 5682.24, 26276.11, 0.00, 0.000, 0.000, 0.000, 13:25:11.931
28, 0.00, 22363.39, 13836.24, 8301.06, -9866.93, 5677.14, 26275.77, 0.00, 0.034, -0.034, 0.992, 13:25:11.931
29, 0.00, 22358.85, 13830.79, 8362.41, -10131.62, 5674.33, 26286.43, 0.00, 0.000, 0.000, 0.000, 13:25:11.932
30, 0.00, 22357.29, 13829.20, 8428.19, -9962.51, 5677.97, 26293.74, 0.00, 0.000, 0.000, 0.000, 13:25:11.934
31, 0.00, 22360.64, 13833.07, 8385.91, -9662.52, 5682.77, 26286.32, 0.00, 0.000, 0.000, 0.000, 13:25:11.935
32, 0.00, 22364.33, 13835.30, 8316.46, -9587.76, 5682.19, 26276.31, 0.00, 0.000, 0.000, 0.000, 13:25:11.935
33, 0.00, 22361.71, 13832.56, 8297.12, -9867.85, 5674.75, 26275.57, 0.00, 0.000, 0.000, 0.000, 13:25:11.935
34, 0.00, 22356.44, 13826.63, 8358.61, -10134.71, 5669.48, 26284.80, 0.00, 0.000, 0.000, 0.000, 13:25:11.935
35, 0.00, 22358.96, 13825.74, 8427.26, -9969.26, 5675.35, 26294.90, 0.00, 0.000, 0.000, 0.000, 13:25:11.936
36, 0.00, 22360.39, 13829.11, 8386.84, -9663.17, 5680.09, 26286.66, 0.00, 0.000, 0.000, 0.000, 13:25:11.936
37, 0.00, 22362.12, 13830.61, 8316.48, -9584.47, 5678.93, 26274.16, 0.00, 0.000, 0.000, 0.000, 13:25:11.936
38, 0.00, 22360.80, 13828.93, 8296.70, -9860.23, 5672.16, 26272.49, 0.00, 0.032, -0.032, 0.992, 13:25:11.936
39, 0.00, 22358.45, 13826.68, 8359.35, -10129.36, 5670.75, 26286.39, 0.00, 0.000, 0.000, 0.000, 13:25:11.937
40, 0.00, 22358.00, 13825.65, 8427.77, -9964.38, 5676.58, 26296.00, 0.00, 0.000, 0.000, 0.000, 13:25:11.937
41, 0.00, 22362.07, 13826.50, 8380.21, -9660.29, 5682.35, 26288.20, 0.00, 0.000, 0.000, 0.000, 13:25:11.937
42, 0.00, 22365.33, 13829.34, 8307.72, -9579.67, 5683.00, 26277.47, 0.00, 0.000, 0.000, 0.000, 13:25:11.937
43, 0.00, 22364.44, 13831.17, 8293.23, -9850.46, 5676.67, 26278.79, 0.00, 0.000, 0.000, 0.000, 13:25:11.938
44, 0.00, 22360.88, 13827.55, 8354.88, -10124.76, 5670.88, 26289.92, 0.00, 0.000, 0.000, 0.000, 13:25:11.938
45, 0.00, 22359.97, 13826.54, 8421.49, -9966.02, 5674.59, 26298.37, 0.00, 0.000, 0.000, 0.000, 13:25:11.939
46, 0.00, 22365.02, 13832.49, 8380.65, -9661.63, 5683.13, 26293.52, 0.00, 0.000, 0.000, 0.000, 13:25:11.939
47, 0.00, 22368.60, 13836.04, 8309.69, -9584.16, 5684.43, 26281.16, 0.00, 0.000, 0.000, 0.000, 13:25:11.939
48, 0.00, 22364.57, 13832.69, 8291.47, -9858.06, 5675.91, 26278.79, 0.00, 0.034, -0.034, 0.986, 13:25:11.939
49, 0.00, 22361.02, 13826.90, 8352.80, -10127.60, 5670.82, 26290.19, 0.00, 0.000, 0.000, 0.000, 13:25:11.939
50, 0.00, 22360.64, 13824.06, 8419.10, -9968.50, 5674.50, 26297.77, 0.00, 0.000, 0.000, 0.000, 13:25:11.940
51, 0.00, 22363.66, 13827.48, 8375.22, -9665.99, 5680.65, 26290.54, 0.00, 0.000, 0.000, 0.000, 13:25:11.940
52, 0.00, 22368.02, 13832.51, 8302.62, -9588.70, 5680.96, 26280.35, 0.00, 0.000, 0.000, 0.000, 13:25:11.940
53, 0.00, 22366.41, 13832.06, 8288.23, -9859.06, 5675.67, 26280.24, 0.00, 0.000, 0.000, 0.000, 13:25:11.940
54, 0.00, 22359.84, 13826.68, 8350.90, -10127.55, 5671.26, 26289.14, 0.00, 0.000, 0.000, 0.000, 13:25:11.940
55, 0.00, 22357.22, 13823.88, 8416.46, -9972.92, 5673.05, 26294.86, 0.00, 0.000, 0.000, 0.000, 13:25:11.940
56, 0.00, 22361.11, 13827.53, 8373.12, -9672.31, 5679.22, 26287.42, 0.00, 0.000, 0.000, 0.000, 13:25:11.941
57, 0.00, 22365.33, 13831.71, 8303.25, -9586.86, 5679.42, 26276.67, 0.00, 0.000, 0.000, 0.000, 13:25:11.941
58, 0.00, 22363.01, 13830.10, 8287.74, -9853.86, 5673.19, 26276.75, 0.00, 0.034, -0.036, 0.990, 13:25:11.941
59, 0.00, 22359.63, 13824.51, 8348.85, -10127.11, 5673.05, 26290.10, 0.00, 0.000, 0.000, 0.000, 13:25:11.941
60, 0.00, 22356.91, 13820.40, 8412.88, -9977.42, 5674.86, 26295.48, 0.00, 0.000, 0.000, 0.000, 13:25:11.942
61, 0.00, 22362.36, 13826.39, 8373.66, -9674.17, 5683.18, 26289.67, 0.00, 0.000, 0.000, 0.000, 13:25:11.943
62, 0.00, 22366.74, 13831.73, 8308.12, -9581.86, 5685.03, 26279.95, 0.00, 0.000, 0.000, 0.000, 13:25:11.943
63, 0.00, 22365.58, 13828.20, 8292.50, -9843.98, 5679.15, 26278.65, 0.00, 0.000, 0.000, 0.000, 13:25:11.944
64, 0.00, 22359.23, 13819.70, 8345.98, -10124.02, 5672.20, 26287.53, 0.00, 0.000, 0.000, 0.000, 13:25:11.944
65, 0.00, 22358.63, 13818.83, 8411.68, -9979.65, 5675.09, 26296.78, 0.00, 0.000, 0.000, 0.000, 13:25:11.945
66, 0.00, 22361.40, 13824.17, 8375.31, -9674.19, 5680.90, 26288.53, 0.00, 0.000, 0.000, 0.000, 13:25:11.945
67, 0.00, 22363.97, 13826.57, 8303.72, -9586.01, 5682.71, 26277.60, 0.00, 0.000, 0.000, 0.000, 13:25:11.945
68, 0.00, 22364.82, 13826.57, 8292.18, -9843.37, 5676.87, 26279.37, 0.00, 0.038, -0.036, 0.988, 13:25:11.945
69, 0.00, 22358.67, 13821.00, 8351.95, -10120.91, 5668.89, 26288.76, 0.00, 0.000, 0.000, 0.000, 13:25:11.946
70, 0.00, 22356.39, 13816.91, 8414.94, -9979.47, 5671.55, 26294.88, 0.00, 0.000, 0.000, 0.000, 13:25:11.946
71, 0.00, 22360.68, 13820.66, 8371.91, -9678.04, 5679.49, 26288.87, 0.00, 0.000, 0.000, 0.000, 13:25:11.946
72, 0.00, 22366.85, 13826.54, 8301.53, -9590.73, 5681.66, 26280.38, 0.00, 0.000, 0.000, 0.000, 13:25:11.946
73, 0.00, 22364.98, 13824.42, 8294.71, -9838.83, 5674.42, 26279.01, 0.00, 0.000, 0.000, 0.000, 13:25:11.946
74, 0.00, 22359.95, 13819.59, 8352.71, -10114.99, 5669.32, 26289.96, 0.00, 0.000, 0.000, 0.000, 13:25:11.947
75, 0.00, 22360.19, 13820.46, 8417.29, -9979.34, 5674.91, 26299.67, 0.00, 0.000, 0.000, 0.000, 13:25:11.947
76, 0.00, 22364.26, 13823.50, 8373.88, -9679.29, 5679.11, 26292.51, 0.00, 0.000, 0.000, 0.000, 13:25:11.951
77, 0.00, 22367.46, 13826.34, 8301.04, -9588.99, 5680.05, 26280.02, 0.00, 0.000, 0.000, 0.000, 13:25:11.951
78, 0.00, 22364.02, 13825.92, 8293.37, -9838.95, 5675.69, 26277.47, 0.00, 0.036, -0.032, 0.992, 13:25:11.952
79, 0.00, 22357.09, 13818.85, 8355.39, -10112.46, 5668.16, 26286.79, 0.00, 0.000, 0.000, 0.000, 13:25:11.952
80, 0.00, 22356.88, 13818.38, 8417.24, -9979.05, 5672.54, 26296.58, 0.00, 0.000, 0.000, 0.000, 13:25:11.953
81, 0.00, 22357.58, 13821.42, 8371.38, -9686.06, 5679.44, 26287.08, 0.00, 0.000, 0.000, 0.000, 13:25:11.953
82, 0.00, 22362.00, 13823.77, 8301.13, -9593.23, 5680.20, 26275.93, 0.00, 0.000, 0.000, 0.000, 13:25:11.953
83, 0.00, 22360.37, 13819.66, 8287.45, -9841.85, 5672.63, 26274.74, 0.00, 0.000, 0.000, 0.000, 13:25:11.953
84, 0.00, 22359.88, 13820.44, 8353.83, -10116.76, 5671.35, 26289.92, 0.00, 0.000, 0.000, 0.000, 13:25:11.953
85, 0.00, 22356.04, 13816.37, 8418.14, -9985.73, 5669.70, 26293.59, 0.00, 0.000, 0.000, 0.000, 13:25:11.954
86, 0.00, 22362.05, 13818.99, 8370.19, -9691.43, 5677.21, 26287.46, 0.00, 0.000, 0.000, 0.000, 13:25:11.954
87, 0.00, 22370.14, 13824.91, 8300.19, -9595.13, 5683.11, 26282.32, 0.00, 0.000, 0.000, 0.000, 13:25:11.954
88, 0.00, 22368.57, 13823.01, 8293.46, -9838.12, 5676.36, 26281.56, 0.00, 0.030, -0.030, 0.998, 13:25:11.954
89, 0.00, 22361.29, 13816.64, 8351.73, -10119.46, 5666.01, 26289.32, 0.00, 0.000, 0.000, 0.000, 13:25:11.959
90, 0.00, 22359.25, 13816.91, 8416.35, -9991.39, 5670.10, 26296.78, 0.00, 0.000, 0.000, 0.000, 13:25:11.959
91, 0.00, 22361.15, 13820.60, 8371.98, -9692.86, 5678.57, 26287.01, 0.00, 0.000, 0.000, 0.000, 13:25:11.959
92, 0.00, 22364.22, 13825.25, 8303.40, -9593.01, 5680.65, 26275.35, 0.00, 0.000, 0.000, 0.000, 13:25:11.959
93, 0.00, 22364.66, 13824.24, 8293.41, -9832.73, 5677.54, 26276.29, 0.00, 0.000, 0.000, 0.000, 13:25:11.960
94, 0.00, 22360.26, 13819.14, 8351.62, -10112.89, 5672.83, 26287.80, 0.00, 0.000, 0.000, 0.000, 13:25:11.960
95, 0.00, 22358.58, 13818.65, 8414.83, -9990.49, 5674.93, 26294.75, 0.00, 0.000, 0.000, 0.000, 13:25:11.960
96, 0.00, 22364.95, 13825.34, 8373.63, -9695.27, 5682.75, 26290.81, 0.00, 0.000, 0.000, 0.000, 13:25:11.960
97, 0.00, 22369.42, 13830.63, 8310.15, -9590.82, 5685.37, 26280.87, 0.00, 0.000, 0.000, 0.000, 13:25:11.960
98, 0.00, 22364.91, 13822.79, 8296.43, -9836.15, 5674.03, 26276.53, 0.00, 0.030, -0.032, 1.000, 13:25:11.961
99, 0.00, 22362.79, 13819.57, 8357.27, -10117.09, 5672.85, 26289.38, 0.00, 0.000, 0.000, 0.000, 13:25:11.961
100, 0.00, 22360.71, 13817.04, 8422.34, -9988.12, 5674.73, 26296.33, 0.00, 0.000, 0.000, 0.000, 13:25:11.961
101, 0.00, 22361.64, 13819.14, 8375.27, -9689.41, 5677.81, 26287.17, 0.00, 0.000, 0.000, 0.000, 13:25:11.961
102, 0.00, 22368.60, 13823.75, 8300.68, -9591.89, 5682.62, 26280.06, 0.00, 0.000, 0.000, 0.000, 13:25:11.962
103, 0.00, 22366.03, 13821.07, 8290.40, -9828.75, 5677.59, 26278.77, 0.00, 0.000, 0.000, 0.000, 13:25:11.962
104, 0.00, 22360.73, 13820.60, 8352.40, -10111.95, 5673.57, 26288.24, 0.00, 0.000, 0.000, 0.000, 13:25:11.962
105, 0.00, 22359.95, 13819.32, 8416.53, -9992.50, 5676.63, 26296.47, 0.00, 0.000, 0.000, 0.000, 13:25:11.962
106, 0.00, 22362.43, 13819.86, 8366.55, -9700.97, 5680.54, 26287.97, 0.00, 0.000, 0.000, 0.000, 13:25:11.962
107, 0.00, 22366.65, 13823.73, 8298.80, -9594.29, 5679.38, 26274.81, 0.00, 0.000, 0.000, 0.000, 13:25:11.963
108, 0.00, 22365.13, 13822.23, 8293.48, -9825.33, 5675.91, 26274.38, 0.00, 0.030, -0.028, 1.000, 13:25:11.963
109, 0.00, 22359.59, 13815.23, 8349.94, -10109.67, 5671.78, 26285.07, 0.00, 0.000, 0.000, 0.000, 13:25:11.963
110, 0.00, 22355.61, 13810.79, 8407.63, -10001.56, 5670.77, 26290.21, 0.00, 0.000, 0.000, 0.000, 13:25:11.964
111, 0.00, 22362.54, 13817.07, 8369.59, -9707.00, 5680.38, 26286.50, 0.00, 0.000, 0.000, 0.000, 13:25:11.964
112, 0.00, 22365.74, 13820.91, 8305.44, -9592.68, 5682.22, 26274.92, 0.00, 0.000, 0.000, 0.000, 13:25:11.964
113, 0.00, 22363.48, 13819.28, 8296.39, -9821.00, 5675.06, 26273.38, 0.00, 0.000, 0.000, 0.000, 13:25:11.964
114, 0.00, 22360.33, 13816.28, 8354.32, -10104.93, 5671.71, 26286.63, 0.00, 0.000, 0.000, 0.000, 13:25:11.965
115, 0.00, 22360.86, 13814.47, 8414.90, -9992.73, 5675.87, 26297.03, 0.00, 0.000, 0.000, 0.000, 13:25:11.965
116, 0.00, 22360.19, 13815.79, 8368.56, -9703.65, 5676.85, 26284.76, 0.00, 0.000, 0.000, 0.000, 13:25:11.965
117, 0.00, 22363.32, 13817.87, 8299.90, -9593.41, 5676.69, 26273.54, 0.00, 0.000, 0.000, 0.000, 13:25:11.965
118, 0.00, 22361.76, 13816.40, 8287.16, -9828.78, 5673.14, 26272.93, 0.00, 0.034, -0.034, 0.998, 13:25:11.966
119, 0.00, 22360.30, 13817.31, 8352.80, -10108.15, 5674.12, 26288.51, 0.00, 0.000, 0.000, 0.000, 13:25:11.966
120, 0.00, 22359.90, 13816.24, 8420.21, -9991.61, 5678.17, 26297.54, 0.00, 0.000, 0.000, 0.000, 13:25:12.404
121, 0.00, 22361.94, 13817.31, 8373.10, -9702.11, 5681.84, 26287.84, 0.00, 0.000, 0.000, 0.000, 13:25:12.404
122, 0.00, 22363.70, 13819.30, 8301.17, -9591.49, 5682.13, 26275.88, 0.00, 0.000, 0.000, 0.000, 13:25:12.404
123, 0.00, 22362.05, 13818.85, 8290.33, -9820.66, 5675.09, 26275.32, 0.00, 0.000, 0.000, 0.000, 13:25:12.404
124, 0.00, 22361.33, 13819.05, 8350.30, -10111.86, 5671.11, 26288.82, 0.00, 0.000, 0.000, 0.000, 13:25:12.405
125, 0.00, 22357.33, 13814.90, 8416.46, -10003.32, 5669.36, 26293.68, 0.00, 0.000, 0.000, 0.000, 13:25:12.405
126, 0.00, 22356.91, 13817.92, 8375.73, -9706.18, 5671.35, 26282.99, 0.00, 0.000, 0.000, 0.000, 13:25:12.405
127, 0.00, 22363.28, 13818.65, 8307.14, -9591.40, 5674.75, 26274.94, 0.00, 0.034, -0.032, 1.002, 13:25:12.405
128, 0.00, 22366.12, 13820.28, 8298.67, -9817.91, 5678.06, 26278.14, 0.00, 0.000, 0.000, 0.000, 13:25:12.405
129, 0.00, 22359.81, 13816.06, 8359.73, -10101.47, 5673.95, 26286.79, 0.00, 0.000, 0.000, 0.000, 13:25:12.405
130, 0.00, 22357.42, 13812.60, 8422.11, -9991.05, 5675.85, 26293.94, 0.00, 0.000, 0.000, 0.000, 13:25:12.405
131, 0.00, 22364.35, 13818.97, 8377.68, -9700.43, 5683.74, 26290.37, 0.00, 0.000, 0.000, 0.000, 13:25:12.405
132, 0.00, 22364.86, 13819.90, 8306.53, -9585.25, 5681.72, 26274.29, 0.00, 0.000, 0.000, 0.000, 13:25:12.405
133, 0.00, 22361.67, 13817.80, 8295.29, -9810.76, 5672.38, 26269.91, 0.00, 0.000, 0.000, 0.000, 13:25:12.405
134, 0.00, 22362.23, 13819.32, 8357.90, -10100.46, 5673.07, 26287.86, 0.00, 0.000, 0.000, 0.000, 13:25:12.405
135, 0.00, 22361.29, 13818.74, 8429.25, -9989.24, 5678.10, 26298.14, 0.00, 0.000, 0.000, 0.000, 13:25:12.405
136, 0.00, 22360.39, 13818.36, 8381.77, -9700.95, 5680.00, 26287.01, 0.00, 0.000, 0.000, 0.000, 13:25:12.405
137, 0.00, 22360.30, 13819.50, 8307.99, -9590.17, 5677.39, 26271.97, 0.00, 0.032, -0.034, 0.998, 13:25:12.405
138, 0.00, 22357.94, 13816.91, 8295.54, -9812.75, 5671.60, 26270.09, 0.00, 0.000, 0.000, 0.000, 13:25:12.406
139, 0.00, 22357.33, 13814.63, 8355.53, -10098.50, 5669.59, 26285.25, 0.00, 0.000, 0.000, 0.000, 13:25:12.406
140, 0.00, 22355.79, 13810.99, 8422.05, -9995.52, 5672.63, 26293.56, 0.00, 0.000, 0.000, 0.000, 13:25:12.406
141, 0.00, 22361.02, 13815.23, 8378.60, -9706.40, 5680.49, 26288.40, 0.00, 0.000, 0.000, 0.000, 13:25:12.406
142, 0.00, 22367.10, 13822.16, 8312.12, -9589.37, 5686.04, 26280.89, 0.00, 0.000, 0.000, 0.000, 13:25:12.406
143, 0.00, 22367.37, 13822.09, 8304.25, -9808.10, 5680.25, 26281.05, 0.00, 0.000, 0.000, 0.000, 13:25:12.406
144, 0.00, 22358.70, 13816.69, 8357.45, -10101.56, 5671.89, 26287.57, 0.00, 0.000, 0.000, 0.000, 13:25:12.406
145, 0.00, 22355.12, 13813.74, 8421.09, -10005.18, 5672.40, 26293.34, 0.00, 0.000, 0.000, 0.000, 13:25:12.406
146, 0.00, 22362.00, 13820.51, 8388.14, -9706.40, 5681.68, 26290.28, 0.00, 0.000, 0.000, 0.000, 13:25:12.406
147, 0.00, 22365.56, 13823.08, 8322.56, -9578.35, 5684.29, 26279.68, 0.00, 0.032, -0.030, 0.994, 13:25:12.406
148, 0.00, 22359.10, 13817.18, 8306.49, -9806.94, 5672.38, 26272.73, 0.00, 0.000, 0.000, 0.000, 13:25:12.406
149, 0.00, 22356.55, 13811.83, 8368.34, -10100.55, 5666.39, 26285.11, 0.00, 0.000, 0.000, 0.000, 13:25:12.406
150, 0.00, 22358.20, 13812.10, 8449.43, -9995.92, 5672.29, 26297.88, 0.00, 0.000, 0.000, 0.000, 13:25:12.406
151, 0.00, 22363.34, 13818.03, 8434.18, -9702.38, 5681.08, 26293.50, 0.00, 0.000, 0.000, 0.000, 13:25:12.407
152, 0.00, 22362.27, 13819.01, 8373.70, -9576.78, 5679.18, 26275.39, 0.00, 0.000, 0.000, 0.000, 13:25:12.407
153, 0.00, 22363.61, 13819.48, 8344.29, -9808.88, 5677.48, 26277.89, 0.00, 0.000, 0.000, 0.000, 13:25:12.407
154, 0.00, 22363.32, 13820.80, 8397.19, -10101.69, 5680.16, 26294.55, 0.00, 0.000, 0.000, 0.000, 13:25:12.407
155, 0.00, 22358.36, 13818.00, 8461.50, -10003.23, 5678.17, 26298.82, 0.00, 0.000, 0.000, 0.000, 13:25:12.407
156, 0.00, 22357.51, 13816.98, 8421.09, -9712.01, 5676.52, 26286.19, 0.00, 0.000, 0.000, 0.000, 13:25:12.407
157, 0.00, 22362.27, 13817.45, 8347.01, -9584.38, 5674.19, 26274.29, 0.00, 0.028, -0.038, 0.992, 13:25:12.407
158, 0.00, 22362.94, 13819.17, 8334.88, -9802.00, 5670.70, 26273.60, 0.00, 0.000, 0.000, 0.000, 13:25:12.407
159, 0.00, 22354.56, 13810.54, 8381.41, -10097.76, 5661.74, 26280.38, 0.00, 0.000, 0.000, 0.000, 13:25:12.407
160, 0.00, 22356.91, 13810.87, 8443.01, -10007.21, 5670.32, 26294.30, 0.00, 0.000, 0.000, 0.000, 13:25:12.407
161, 0.00, 22359.70, 13814.23, 8403.05, -9714.63, 5677.59, 26288.38, 0.00, 0.000, 0.000, 0.000, 13:25:12.407
162, 0.00, 22359.46, 13814.41, 8315.79, -9585.63, 5674.91, 26273.42, 0.00, 0.000, 0.000, 0.000, 13:25:12.407
163, 0.00, 22358.03, 13812.75, 8297.41, -9806.31, 5665.88, 26270.14, 0.00, 0.000, 0.000, 0.000, 13:25:12.407
164, 0.00, 22351.65, 13809.33, 8355.64, -10102.74, 5661.16, 26279.06, 0.00, 0.000, 0.000, 0.000, 13:25:12.408
165, 0.00, 22350.13, 13810.65, 8428.13, -10013.27, 5669.72, 26289.49, 0.00, 0.000, 0.000, 0.000, 13:25:12.408
166, 0.00, 22361.67, 13819.77, 8391.85, -9721.33, 5681.81, 26292.11, 0.00, 0.000, 0.000, 0.000, 13:25:12.408
167, 0.00, 22367.77, 13825.47, 8327.46, -9587.15, 5685.26, 26283.84, 0.00, 0.030, -0.030, 0.994, 13:25:12.408
168, 0.00, 22362.76, 13819.43, 8313.69, -9800.99, 5674.42, 26276.51, 0.00, 0.000, 0.000, 0.000, 13:25:12.408
169, 0.00, 22359.01, 13814.21, 8400.57, -10096.68, 5668.49, 26287.08, 0.00, 0.000, 0.000, 0.000, 13:25:12.408
170, 0.00, 22353.84, 13810.67, 8533.76, -10001.91, 5673.97, 26292.67, 0.00, 0.000, 0.000, 0.000, 13:25:12.408
171, 0.00, 22361.67, 13813.85, 8510.96, -9710.87, 5682.80, 26291.66, 0.00, 0.000, 0.000, 0.000, 13:25:12.408
172, 0.00, 22366.56, 13818.76, 8445.61, -9576.02, 5682.57, 26278.12, 0.00, 0.000, 0.000, 0.000, 13:25:12.408
173, 0.00, 22363.28, 13816.17, 8426.96, -9786.73, 5673.99, 26274.23, 0.00, 0.000, 0.000, 0.000, 13:25:12.408
174, 0.00, 22362.23, 13814.36, 8463.85, -10088.50, 5671.04, 26287.88, 0.00, 0.000, 0.000, 0.000, 13:25:12.408
175, 0.00, 22354.85, 13810.09, 8515.70, -10011.79, 5669.50, 26293.68, 0.00, 0.000, 0.000, 0.000, 13:25:12.408
176, 0.00, 22362.27, 13816.31, 8463.89, -9718.29, 5678.15, 26289.70, 0.00, 0.000, 0.000, 0.000, 13:25:12.408
177, 0.00, 22367.21, 13819.48, 8371.62, -9595.67, 5678.28, 26279.37, 0.00, 0.032, -0.030, 0.992, 13:25:12.408
178, 0.00, 22369.04, 13820.11, 8347.53, -9804.79, 5675.73, 26279.68, 0.00, 0.000, 0.000, 0.000, 13:25:12.409
179, 0.00, 22366.65, 13820.82, 8398.96, -10097.45, 5670.97, 26291.33, 0.00, 0.000, 0.000, 0.000, 13:25:12.409
180, 0.00, 22359.90, 13813.98, 8456.49, -10013.07, 5669.70, 26295.02, 0.00, 0.000, 0.000, 0.000, 13:25:12.409
181, 0.00, 22362.49, 13815.48, 8407.47, -9720.13, 5677.86, 26289.74, 0.00, 0.000, 0.000, 0.000, 13:25:12.409
182, 0.00, 22369.47, 13822.77, 8335.50, -9587.58, 5683.51, 26282.10, 0.00, 0.000, 0.000, 0.000, 13:25:12.409
183, 0.00, 22369.22, 13823.59, 8327.68, -9789.97, 5676.78, 26279.10, 0.00, 0.000, 0.000, 0.000, 13:25:12.409
184, 0.00, 22366.92, 13817.00, 8382.75, -10087.36, 5670.79, 26291.71, 0.00, 0.000, 0.000, 0.000, 13:25:12.409
185, 0.00, 22362.76, 13816.40, 8448.83, -10010.45, 5674.75, 26298.59, 0.00, 0.000, 0.000, 0.000, 13:25:12.410
186, 0.00, 22361.58, 13814.41, 8399.90, -9722.29, 5675.06, 26287.19, 0.00, 0.000, 0.000, 0.000, 13:25:12.410
187, 0.00, 22361.38, 13813.31, 8315.85, -9584.79, 5673.32, 26272.60, 0.00, 0.032, -0.034, 0.988, 13:25:12.410
188, 0.00, 22366.25, 13812.46, 8290.28, -9796.48, 5669.92, 26275.50, 0.00, 0.000, 0.000, 0.000, 13:25:12.410
189, 0.00, 22366.63, 13811.97, 8346.01, -10097.98, 5668.20, 26290.66, 0.00, 0.000, 0.000, 0.000, 13:25:12.410
190, 0.00, 22359.52, 13802.85, 8406.83, -10025.52, 5662.97, 26293.83, 0.00, 0.000, 0.000, 0.000, 13:25:12.410
191, 0.00, 22353.11, 13808.24, 8371.53, -9735.91, 5664.42, 26278.92, 0.00, 0.000, 0.000, 0.000, 13:25:12.410
192, 0.00, 22361.42, 13814.43, 8305.51, -9595.09, 5671.06, 26271.95, 0.00, 0.000, 0.000, 0.000, 13:25:12.410
193, 0.00, 22365.89, 13816.40, 8290.15, -9801.15, 5669.48, 26274.56, 0.00, 0.000, 0.000, 0.000, 13:25:12.410
194, 0.00, 22359.10, 13808.75, 8341.51, -10104.46, 5660.60, 26283.19, 0.00, 0.000, 0.000, 0.000, 13:25:12.410
195, 0.00, 22355.41, 13803.41, 8407.92, -10029.65, 5659.10, 26290.17, 0.00, 0.000, 0.000, 0.000, 13:25:12.410
196, 0.00, 22358.07, 13806.87, 8374.33, -9734.56, 5665.59, 26282.48, 0.00, 0.000, 0.000, 0.000, 13:25:12.410
197, 0.00, 22361.13, 13819.77, 8312.90, -9594.08, 5676.58, 26271.32, 0.00, 0.028, -0.036, 0.994, 13:25:12.410
198, 0.00, 22361.67, 13817.36, 8294.13, -9799.50, 5669.99, 26269.76, 0.00, 0.000, 0.000, 0.000, 13:25:12.410
199, 0.00, 22356.21, 13811.12, 8347.42, -10089.60, 5664.00, 26280.26, 0.00, 0.000, 0.000, 0.000, 13:25:12.411
200, 0.00, 22356.42, 13808.68, 8416.97, -10010.99, 5674.01, 26293.72, 0.00, 0.000, 0.000, 0.000, 13:25:12.411
201, 0.00, 22359.54, 13807.03, 8368.67, -9730.41, 5665.30, 26286.57, 0.00, 0.000, 0.000, 0.000, 13:25:12.411
202, 0.00, 22358.14, 13807.59, 8295.20, -9597.68, 5664.22, 26270.14, 0.00, 0.000, 0.000, 0.000, 13:25:12.411
203, 0.00, 22359.03, 13811.95, 8287.33, -9794.67, 5678.30, 26267.17, 0.00, 0.000, 0.000, 0.000, 13:25:12.411
204, 0.00, 22356.35, 13806.74, 8345.09, -10092.21, 5668.31, 26279.68, 0.00, 0.000, 0.000, 0.000, 13:25:12.411
205, 0.00, 22356.01, 13803.12, 8414.87, -10024.31, 5662.88, 26290.52, 0.00, 0.000, 0.000, 0.000, 13:25:12.411
206, 0.00, 22358.96, 13807.10, 8380.92, -9730.41, 5673.68, 26285.70, 0.00, 0.000, 0.000, 0.000, 13:25:12.411
207, 0.00, 22360.97, 13809.20, 8304.70, -9586.19, 5673.88, 26270.14, 0.00, 0.028, -0.036, 0.994, 13:25:12.411
208, 0.00, 22361.60, 13811.43, 8287.31, -9786.62, 5673.59, 26269.54, 0.00, 0.000, 0.000, 0.000, 13:25:12.411
209, 0.00, 22356.10, 13803.74, 8341.85, -10085.93, 5664.65, 26280.96, 0.00, 0.000, 0.000, 0.000, 13:25:12.411
210, 0.00, 22354.22, 13804.01, 8411.21, -10020.67, 5666.37, 26292.11, 0.00, 0.000, 0.000, 0.000, 13:25:12.411
211, 0.00, 22359.03, 13808.82, 8375.94, -9732.49, 5674.01, 26286.84, 0.00, 0.000, 0.000, 0.000, 13:25:12.414
212, 0.00, 22363.90, 13813.58, 8306.27, -9583.44, 5679.06, 26275.59, 0.00, 0.000, 0.000, 0.000, 13:25:12.414
213, 0.00, 22355.14, 13805.55, 8283.42, -9785.17, 5663.75, 26263.84, 0.00, 0.000, 0.000, 0.000, 13:25:12.414
214, 0.00, 22351.43, 13796.66, 8333.56, -10090.02, 5654.68, 26275.44, 0.00, 0.000, 0.000, 0.000, 13:25:12.414
215, 0.00, 22353.82, 13796.66, 8403.09, -10023.33, 5661.00, 26289.14, 0.00, 0.000, 0.000, 0.000, 13:25:12.414
216, 0.00, 22358.70, 13807.97, 8369.70, -9730.38, 5676.81, 26285.61, 0.00, 0.000, 0.000, 0.000, 13:25:12.414
217, 0.00, 22362.47, 13810.79, 8295.09, -9585.57, 5677.86, 26274.92, 0.00, 0.032, -0.030, 0.990, 13:25:12.414
218, 0.00, 22358.23, 13807.19, 8271.22, -9788.25, 5662.90, 26268.19, 0.00, 0.000, 0.000, 0.000, 13:25:12.415
219, 0.00, 22353.96, 13803.07, 8328.66, -10088.59, 5656.91, 26280.69, 0.00, 0.000, 0.000, 0.000, 13:25:12.415
220, 0.00, 22352.10, 13798.78, 8400.12, -10024.18, 5668.65, 26289.41, 0.00, 0.000, 0.000, 0.000, 13:25:12.415
221, 0.00, 22355.95, 13803.95, 8358.28, -9742.39, 5673.41, 26282.54, 0.00, 0.000, 0.000, 0.000, 13:25:12.415
222, 0.00, 22355.79, 13804.44, 8284.03, -9596.83, 5669.30, 26265.73, 0.00, 0.000, 0.000, 0.000, 13:25:12.415
223, 0.00, 22356.64, 13808.95, 8270.91, -9786.04, 5668.78, 26264.91, 0.00, 0.000, 0.000, 0.000, 13:25:12.415
224, 0.00, 22354.89, 13808.48, 8332.93, -10086.38, 5665.59, 26279.62, 0.00, 0.000, 0.000, 0.000, 13:25:12.415
225, 0.00, 22350.83, 13807.79, 8409.89, -10024.35, 5666.19, 26288.02, 0.00, 0.000, 0.000, 0.000, 13:25:12.415
226, 0.00, 22351.43, 13807.92, 8369.86, -9739.26, 5670.93, 26277.76, 0.00, 0.000, 0.000, 0.000, 13:25:12.415
227, 0.00, 22357.46, 13807.54, 8290.51, -9597.44, 5667.24, 26270.63, 0.00, 0.026, -0.030, 0.994, 13:25:12.415
228, 0.00, 22353.15, 13798.11, 8265.79, -9798.87, 5667.13, 26262.99, 0.00, 0.000, 0.000, 0.000, 13:25:12.416
229, 0.00, 22352.86, 13807.34, 8332.19, -10090.92, 5667.31, 26279.64, 0.00, 0.000, 0.000, 0.000, 13:25:12.416
230, 0.00, 22347.47, 13803.05, 8405.26, -10029.63, 5671.11, 26285.38, 0.00, 0.000, 0.000, 0.000, 13:25:12.416
231, 0.00, 22350.56, 13807.81, 8369.36, -9743.21, 5677.50, 26278.59, 0.00, 0.000, 0.000, 0.000, 13:25:12.416
232, 0.00, 22350.80, 13810.20, 8299.45, -9591.65, 5673.01, 26260.91, 0.00, 0.000, 0.000, 0.000, 13:25:12.416
233, 0.00, 22356.84, 13811.61, 8280.78, -9784.21, 5670.03, 26266.12, 0.00, 0.000, 0.000, 0.000, 13:25:12.416
234, 0.00, 22354.20, 13805.49, 8337.29, -10082.20, 5662.55, 26277.74, 0.00, 0.000, 0.000, 0.000, 13:25:12.416
235, 0.00, 22346.56, 13802.94, 8402.09, -10032.98, 5660.27, 26281.76, 0.00, 0.000, 0.000, 0.000, 13:25:12.416
236, 0.00, 22347.81, 13806.05, 8363.33, -9749.36, 5667.13, 26274.03, 0.00, 0.000, 0.000, 0.000, 13:25:12.416
237, 0.00, 22355.30, 13810.52, 8288.32, -9602.29, 5662.84, 26265.20, 0.00, 0.030, -0.038, 0.994, 13:25:12.416
238, 0.00, 22354.87, 13806.54, 8268.27, -9791.83, 5667.75, 26262.23, 0.00, 0.000, 0.000, 0.000, 13:25:12.416
239, 0.00, 22350.20, 13805.58, 8329.62, -10081.35, 5660.18, 26274.86, 0.00, 0.000, 0.000, 0.000, 13:25:12.416
240, 0.00, 22351.21, 13805.04, 8402.45, -10024.71, 5666.41, 26289.09, 0.00, 0.000, 0.000, 0.000, 13:25:12.417
241, 0.00, 22353.55, 13807.79, 8363.40, -9739.46, 5673.63, 26282.19, 0.00, 0.000, 0.000, 0.000, 13:25:12.885
242, 0.00, 22359.07, 13811.92, 8287.76, -9587.53, 5677.25, 26270.43, 0.00, 0.000, 0.000, 0.000, 13:25:12.885
243, 0.00, 22352.37, 13802.96, 8260.56, -9774.66, 5663.95, 26260.37, 0.00, 0.000, 0.000, 0.000, 13:25:12.885
244, 0.00, 22345.40, 13795.63, 8307.74, -10078.76, 5654.57, 26267.57, 0.00, 0.000, 0.000, 0.000, 13:25:12.885
245, 0.00, 22345.96, 13801.40, 8392.32, -10020.91, 5663.73, 26281.31, 0.00, 0.000, 0.000, 0.000, 13:25:12.885
246, 0.00, 22350.76, 13805.53, 8365.12, -9732.93, 5671.17, 26278.95, 0.00, 0.000, 0.000, 0.000, 13:25:12.885
247, 0.00, 22355.72, 13808.66, 8290.78, -9582.26, 5673.19, 26266.85, 0.00, 0.032, -0.036, 0.994, 13:25:12.885
248, 0.00, 22356.30, 13807.30, 8271.29, -9766.64, 5668.11, 26264.04, 0.00, 0.000, 0.000, 0.000, 13:25:12.885
249, 0.00, 22351.14, 13799.74, 8322.25, -10072.19, 5659.13, 26274.03, 0.00, 0.000, 0.000, 0.000, 13:25:12.886
250, 0.00, 22348.23, 13798.98, 8395.20, -10021.74, 5660.82, 26285.27, 0.00, 0.000, 0.000, 0.000, 13:25:12.886
251, 0.00, 22348.48, 13799.21, 8352.11, -9745.27, 5662.68, 26276.46, 0.00, 0.000, 0.000, 0.000, 13:25:12.886
252, 0.00, 22349.11, 13799.36, 8271.33, -9596.83, 5659.10, 26259.28, 0.00, 0.000, 0.000, 0.000, 13:25:12.886
253, 0.00, 22352.15, 13799.59, 8252.58, -9779.80, 5658.63, 26260.59, 0.00, 0.000, 0.000, 0.000, 13:25:12.886
254, 0.00, 22352.55, 13794.67, 8309.62, -10076.01, 5657.27, 26275.86, 0.00, 0.000, 0.000, 0.000, 13:25:12.886
255, 0.00, 22346.25, 13790.42, 8378.55, -10034.01, 5653.49, 26282.43, 0.00, 0.000, 0.000, 0.000, 13:25:12.886
0, 0.00, 22346.58, 13797.87, 8343.71, -9760.87, 5655.35, 26274.14, 0.00, 0.000, 0.000, 0.000, 13:25:12.886
1, 0.00, 22353.78, 13807.21, 8275.98, -9603.87, 5662.84, 26264.93, 0.00, 0.032, -0.034, 0.998, 13:25:12.886
2, 0.00, 22357.85, 13806.07, 8254.45, -9786.89, 5663.13, 26266.05, 0.00, 0.000, 0.000, 0.000, 13:25:12.886
3, 0.00, 22350.58, 13797.08, 8310.07, -10083.90, 5657.90, 26272.64, 0.00, 0.000, 0.000, 0.000, 13:25:12.886
4, 0.00, 22345.28, 13796.50, 8388.07, -10034.64, 5659.33, 26279.59, 0.00, 0.000, 0.000, 0.000, 13:25:12.886
5, 0.00, 22348.97, 13800.46, 8351.35, -9753.03, 5668.51, 26274.68, 0.00, 0.000, 0.000, 0.000, 13:25:12.887
6, 0.00, 22351.90, 13800.88, 8267.84, -9602.09, 5669.72, 26263.14, 0.00, 0.000, 0.000, 0.000, 13:25:12.887
7, 0.00, 22353.26, 13798.09, 8242.74, -9784.19, 5660.89, 26262.11, 0.00, 0.000, 0.000, 0.000, 13:25:12.887
8, 0.00, 22350.31, 13796.79, 8308.23, -10078.67, 5656.85, 26271.21, 0.00, 0.000, 0.000, 0.000, 13:25:12.887
9, 0.00, 22344.32, 13796.21, 8388.01, -10034.90, 5659.82, 26275.73, 0.00, 0.000, 0.000, 0.000, 13:25:12.887
10, 0.00, 22349.44, 13798.42, 8350.30, -9756.83, 5669.03, 26273.56, 0.00, 0.000, 0.000, 0.000, 13:25:12.887
11, 0.00, 22353.06, 13803.81, 8274.66, -9600.28, 5671.69, 26261.40, 0.00, 0.032, -0.036, 1.002, 13:25:12.887
12, 0.00, 22351.10, 13802.63, 8251.01, -9783.49, 5664.80, 26256.32, 0.00, 0.000, 0.000, 0.000, 13:25:12.887
13, 0.00, 22347.88, 13795.00, 8307.29, -10083.23, 5658.75, 26268.02, 0.00, 0.000, 0.000, 0.000, 13:25:12.887
14, 0.00, 22345.08, 13797.15, 8387.96, -10041.23, 5661.65, 26279.77, 0.00, 0.000, 0.000, 0.000, 13:25:12.887
15, 0.00, 22348.35, 13801.13, 8355.86, -9763.17, 5671.40, 26276.84, 0.00, 0.000, 0.000, 0.000, 13:25:12.888
16, 0.00, 22348.41, 13803.63, 8284.45, -9606.33, 5671.29, 26259.34, 0.00, 0.000, 0.000, 0.000, 13:25:12.888
17, 0.00, 22347.34, 13803.07, 8270.91, -9779.31, 5666.01, 26254.36, 0.00, 0.000, 0.000, 0.000, 13:25:12.888
18, 0.00, 22343.74, 13798.36, 8337.20, -10075.99, 5660.29, 26265.40, 0.00, 0.000, 0.000, 0.000, 13:25:12.888
19, 0.00, 22338.51, 13794.33, 8420.75, -10039.29, 5660.44, 26272.33, 0.00, 0.000, 0.000, 0.000, 13:25:12.888
20, 0.00, 22340.86, 13796.41, 8387.40, -9764.23, 5666.64, 26266.70, 0.00, 0.000, 0.000, 0.000, 13:25:12.888
21, 0.00, 22344.23, 13800.10, 8315.38, -9606.47, 5671.04, 26254.29, 0.00, 0.034, -0.038, 0.994, 13:25:12.888
22, 0.00, 22342.45, 13798.29, 8297.39, -9784.81, 5663.46, 26249.64, 0.00, 0.000, 0.000, 0.000, 13:25:12.888
23, 0.00, 22336.46, 13794.33, 8382.82, -10078.49, 5656.31, 26257.33, 0.00, 0.000, 0.000, 0.000, 13:25:12.888
24, 0.00, 22331.58, 13789.08, 8490.71, -10034.08, 5655.66, 26266.38, 0.00, 0.000, 0.000, 0.000, 13:25:12.888
25, 0.00, 22337.21, 13800.15, 8468.56, -9757.61, 5665.56, 26263.97, 0.00, 0.000, 0.000, 0.000, 13:25:12.889
26, 0.00, 22339.74, 13804.84, 8430.27, -9603.16, 5669.79, 26249.26, 0.00, 0.000, 0.000, 0.000, 13:25:12.889
27, 0.00, 22336.86, 13802.29, 8468.58, -9765.68, 5662.95, 26243.29, 0.00, 0.000, 0.000, 0.000, 13:25:12.889
28, 0.00, 22331.85, 13798.45, 8527.75, -10062.96, 5658.72, 26251.10, 0.00, 0.000, 0.000, 0.000, 13:25:12.889
29, 0.00, 22326.87, 13791.56, 8576.34, -10034.19, 5658.48, 26259.90, 0.00, 0.000, 0.000, 0.000, 13:25:12.889
30, 0.00, 22331.58, 13796.43, 8517.60, -9762.59, 5667.75, 26257.11, 0.00, 0.000, 0.000, 0.000, 13:25:12.889
31, 0.00, 22335.34, 13801.55, 8388.56, -9607.54, 5671.96, 26243.65, 0.00, 0.036, -0.034, 0.992, 13:25:12.889
32, 0.00, 22334.26, 13802.29, 8339.48, -9783.60, 5664.96, 26239.07, 0.00, 0.000, 0.000, 0.000, 13:25:12.889
33, 0.00, 22328.88, 13795.38, 8392.61, -10073.51, 5657.18, 26249.73, 0.00, 0.000, 0.000, 0.000, 13:25:12.889
34, 0.00, 22325.66, 13792.70, 8455.84, -10044.14, 5659.33, 26259.83, 0.00, 0.000, 0.000, 0.000, 13:25:12.889
35, 0.00, 22328.77, 13797.33, 8398.44, -9782.06, 5667.58, 26255.90, 0.00, 0.000, 0.000, 0.000, 13:25:12.889
36, 0.00, 22332.63, 13799.41, 8301.71, -9622.47, 5669.21, 26243.05, 0.00, 0.000, 0.000, 0.000, 13:25:12.889
37, 0.00, 22333.53, 13797.51, 8265.18, -9787.34, 5662.43, 26239.92, 0.00, 0.000, 0.000, 0.000, 13:25:12.890
38, 0.00, 22327.65, 13793.06, 8314.38, -10085.06, 5655.01, 26248.08, 0.00, 0.000, 0.000, 0.000, 13:25:12.890
39, 0.00, 22324.56, 13790.33, 8389.48, -10054.06, 5656.94, 26258.76, 0.00, 0.000, 0.000, 0.000, 13:25:12.890
40, 0.00, 22332.37, 13796.21, 8350.28, -9781.32, 5666.90, 26258.38, 0.00, 0.000, 0.000, 0.000, 13:25:12.890
41, 0.00, 22337.44, 13802.45, 8267.89, -9623.79, 5673.07, 26247.96, 0.00, 0.036, -0.032, 0.990, 13:25:12.890
42, 0.00, 22335.56, 13801.20, 8242.90, -9786.80, 5666.17, 26242.00, 0.00, 0.000, 0.000, 0.000, 13:25:12.890
43, 0.00, 22327.92, 13793.78, 8294.08, -10078.38, 5654.37, 26248.05, 0.00, 0.000, 0.000, 0.000, 13:25:12.890
44, 0.00, 22324.92, 13789.66, 8355.82, -10048.56, 5652.69, 26259.23, 0.00, 0.000, 0.000, 0.000, 13:25:12.890
45, 0.00, 22331.34, 13794.16, 8313.40, -9777.19, 5662.23, 26259.57, 0.00, 0.000, 0.000, 0.000, 13:25:12.891
46, 0.00, 22337.88, 13799.83, 8237.44, -9612.32, 5668.16, 26248.95, 0.00, 0.000, 0.000, 0.000, 13:25:12.891
47, 0.00, 22334.71, 13795.36, 8211.05, -9774.78, 5659.10, 26240.05, 0.00, 0.000, 0.000, 0.000, 13:25:12.891
48, 0.00, 22328.97, 13790.02, 8267.60, -10073.35, 5652.69, 26249.42, 0.00, 0.000, 0.000, 0.000, 13:25:12.891
49, 0.00, 22326.24, 13789.48, 8350.19, -10044.85, 5655.95, 26261.53, 0.00, 0.000, 0.000, 0.000, 13:25:12.891
50, 0.00, 22333.37, 13794.96, 8313.31, -9776.92, 5665.36, 26260.68, 0.00, 0.000, 0.000, 0.000, 13:25:12.891
51, 0.00, 22339.32, 13802.45, 8241.51, -9613.91, 5670.15, 26248.48, 0.00, 0.028, -0.030, 0.990, 13:25:12.891
52, 0.00, 22336.48, 13799.47, 8217.91, -9778.20, 5663.66, 26241.91, 0.00, 0.000, 0.000, 0.000, 13:25:12.891
53, 0.00, 22330.22, 13793.51, 8279.31, -10071.25, 5654.39, 26251.25, 0.00, 0.000, 0.000, 0.000, 13:25:12.891
54, 0.00, 22328.59, 13791.81, 8364.49, -10045.63, 5655.15, 26262.94, 0.00, 0.000, 0.000, 0.000, 13:25:12.891
55, 0.00, 22334.29, 13796.03, 8328.68, -9777.05, 5664.24, 26261.80, 0.00, 0.000, 0.000, 0.000, 13:25:12.891
56, 0.00, 22335.67, 13798.56, 8247.50, -9612.59, 5666.68, 26246.89, 0.00, 0.000, 0.000, 0.000, 13:25:12.891
57, 0.00, 22336.99, 13798.80, 8223.72, -9772.29, 5662.39, 26243.65, 0.00, 0.000, 0.000, 0.000, 13:25:12.891
58, 0.00, 22337.10, 13795.59, 8289.14, -10068.28, 5658.88, 26257.49, 0.00, 0.000, 0.000, 0.000, 13:25:12.891
59, 0.00, 22333.59, 13790.49, 8366.66, -10051.29, 5659.82, 26267.57, 0.00, 0.000, 0.000, 0.000, 13:25:12.891
60, 0.00, 22334.76, 13792.52, 8333.04, -9776.52, 5664.69, 26261.31, 0.00, 0.000, 0.000, 0.000, 13:25:12.891
61, 0.00, 22338.65, 13796.46, 8252.40, -9609.01, 5668.18, 26248.93, 0.00, 0.032, -0.028, 0.996, 13:25:12.891
62, 0.00, 22338.49, 13795.34, 8223.92, -9770.93, 5660.85, 26243.09, 0.00, 0.000, 0.000, 0.000, 13:25:12.891
63, 0.00, 22333.26, 13789.08, 8282.13, -10070.29, 5650.95, 26251.43, 0.00, 0.000, 0.000, 0.000, 13:25:12.891
64, 0.00, 22329.10, 13785.55, 8362.95, -10045.59, 5651.55, 26262.70, 0.00, 0.000, 0.000, 0.000, 13:25:12.891
65, 0.00, 22333.84, 13789.68, 8321.91, -9778.46, 5660.62, 26262.65, 0.00, 0.000, 0.000, 0.000, 13:25:12.891
66, 0.00, 22338.85, 13795.59, 8238.05, -9615.43, 5662.43, 26250.13, 0.00, 0.000, 0.000, 0.000, 13:25:12.891
67, 0.00, 22340.54, 13798.16, 8215.38, -9773.41, 5661.67, 26246.15, 0.00, 0.000, 0.000, 0.000, 13:25:12.891
68, 0.00, 22334.80, 13795.12, 8277.05, -10070.29, 5657.72, 26255.41, 0.00, 0.000, 0.000, 0.000, 13:25:12.892
69, 0.00, 22332.74, 13791.70, 8357.92, -10054.80, 5658.03, 26268.37, 0.00, 0.000, 0.000, 0.000, 13:25:12.892
70, 0.00, 22337.75, 13793.02, 8319.36, -9789.08, 5663.28, 26266.41, 0.00, 0.000, 0.000, 0.000, 13:25:12.892
71, 0.00, 22341.53, 13794.42, 8234.07, -9621.13, 5666.90, 26253.04, 0.00, 0.026, -0.034, 0.998, 13:25:12.892
72, 0.00, 22340.41, 13794.85, 8213.86, -9770.51, 5663.10, 26247.09, 0.00, 0.000, 0.000, 0.000, 13:25:12.892
73, 0.00, 22336.50, 13792.90, 8288.63, -10056.70, 5656.94, 26258.11, 0.00, 0.000, 0.000, 0.000, 13:25:12.892
74, 0.00, 22333.15, 13786.71, 8365.50, -10050.68, 5655.28, 26269.87, 0.00, 0.000, 0.000, 0.000, 13:25:12.892
75, 0.00, 22339.14, 13789.33, 8320.08, -9791.34, 5662.57, 26267.90, 0.00, 0.000, 0.000, 0.000, 13:25:12.895
76, 0.00, 22342.56, 13792.79, 8230.18, -9619.61, 5665.36, 26252.03, 0.00, 0.000, 0.000, 0.000, 13:25:12.895
77, 0.00, 22340.14, 13790.94, 8213.66, -9753.00, 5658.59, 26244.57, 0.00, 0.000, 0.000, 0.000, 13:25:12.895
78, 0.00, 22336.72, 13787.70, 8278.04, -10051.74, 5653.34, 26256.82, 0.00, 0.000, 0.000, 0.000, 13:25:12.895
79, 0.00, 22332.83, 13784.12, 8355.66, -10050.55, 5654.07, 26268.84, 0.00, 0.000, 0.000, 0.000, 13:25:12.895
80, 0.00, 22336.92, 13791.32, 8314.42, -9783.49, 5662.37, 26266.21, 0.00, 0.000, 0.000, 0.000, 13:25:12.895
81, 0.00, 22342.31, 13800.82, 8233.35, -9611.41, 5666.48, 26251.92, 0.00, 0.026, -0.038, 0.996, 13:25:12.895
82, 0.00, 22340.97, 13798.27, 8219.72, -9752.76, 5661.05, 26245.33, 0.00, 0.000, 0.000, 0.000, 13:25:12.895
83, 0.00, 22335.79, 13789.98, 8288.07, -10049.21, 5655.17, 26258.22, 0.00, 0.000, 0.000, 0.000, 13:25:12.895
84, 0.00, 22334.46, 13784.77, 8357.36, -10057.32, 5656.80, 26272.64, 0.00, 0.000, 0.000, 0.000, 13:25:12.895
85, 0.00, 22340.59, 13788.75, 8307.65, -9800.61, 5665.45, 26269.40, 0.00, 0.000, 0.000, 0.000, 13:25:12.895
86, 0.00, 22345.84, 13794.36, 8226.36, -9616.17, 5670.66, 26255.12, 0.00, 0.000, 0.000, 0.000, 13:25:12.895
87, 0.00, 22344.81, 13794.11, 8215.12, -9750.52, 5664.96, 26250.25, 0.00, 0.000, 0.000, 0.000, 13:25:12.896
88, 0.00, 22335.67, 13786.44, 8284.29, -10045.12, 5653.02, 26257.51, 0.00, 0.000, 0.000, 0.000, 13:25:12.899
89, 0.00, 22334.20, 13785.28, 8355.10, -10056.94, 5655.71, 26271.70, 0.00, 0.000, 0.000, 0.000, 13:25:12.899
90, 0.00, 22341.44, 13790.89, 8306.98, -9799.18, 5663.84, 26269.45, 0.00, 0.000, 0.000, 0.000, 13:25:12.899
91, 0.00, 22346.29, 13796.41, 8223.63, -9617.04, 5668.20, 26255.05, 0.00, 0.028, -0.038, 0.996, 13:25:12.899
92, 0.00, 22344.55, 13794.33, 8212.34, -9750.30, 5662.79, 26248.72, 0.00, 0.000, 0.000, 0.000, 13:25:12.899
93, 0.00, 22338.76, 13786.69, 8283.09, -10043.06, 5652.91, 26260.59, 0.00, 0.000, 0.000, 0.000, 13:25:12.901
94, 0.00, 22337.68, 13783.47, 8353.81, -10057.03, 5654.32, 26274.99, 0.00, 0.000, 0.000, 0.000, 13:25:12.901
95, 0.00, 22341.78, 13786.42, 8305.19, -9800.93, 5661.61, 26270.09, 0.00, 0.000, 0.000, 0.000, 13:25:12.901
96, 0.00, 22345.17, 13789.42, 8218.09, -9619.99, 5664.62, 26253.46, 0.00, 0.000, 0.000, 0.000, 13:25:12.901
97, 0.00, 22343.25, 13788.70, 8206.58, -9750.03, 5659.62, 26246.87, 0.00, 0.000, 0.000, 0.000, 13:25:12.901
98, 0.00, 22339.81, 13784.70, 8279.31, -10043.69, 5652.35, 26261.44, 0.00, 0.000, 0.000, 0.000, 13:25:12.901
99, 0.00, 22338.20, 13783.90, 8352.15, -10064.23, 5653.56, 26275.88, 0.00, 0.000, 0.000, 0.000, 13:25:12.901
100, 0.00, 22343.50, 13790.15, 8306.40, -9810.58, 5662.50, 26271.64, 0.00, 0.000, 0.000, 0.000, 13:25:12.901
101, 0.00, 22347.23, 13796.95, 8225.51, -9624.15, 5670.15, 26256.10, 0.00, 0.024, -0.036, 0.994, 13:25:12.901
102, 0.00, 22346.78, 13799.43, 8216.05, -9747.80, 5666.26, 26251.56, 0.00, 0.000, 0.000, 0.000, 13:25:12.901
103, 0.00, 22341.30, 13790.56, 8280.09, -10048.23, 5658.54, 26262.94, 0.00, 0.000, 0.000, 0.000, 13:25:12.902
104, 0.00, 22339.25, 13786.06, 8351.10, -10066.60, 5659.10, 26276.35, 0.00, 0.000, 0.000, 0.000, 13:25:12.902
105, 0.00, 22344.72, 13793.26, 8306.18, -9811.75, 5666.50, 26272.24, 0.00, 0.000, 0.000, 0.000, 13:25:13.366
106, 0.00, 22349.31, 13798.76, 8225.06, -9626.14, 5670.03, 26257.24, 0.00, 0.000, 0.000, 0.000, 13:25:13.366
107, 0.00, 22347.14, 13796.48, 8212.30, -9749.85, 5663.06, 26249.64, 0.00, 0.000, 0.000, 0.000, 13:25:13.366
108, 0.00, 22343.12, 13791.05, 8281.86, -10046.44, 5655.42, 26263.05, 0.00, 0.000, 0.000, 0.000, 13:25:13.366
109, 0.00, 22339.74, 13786.71, 8355.44, -10067.85, 5655.91, 26275.97, 0.00, 0.000, 0.000, 0.000, 13:25:13.366
110, 0.00, 22344.99, 13792.46, 8311.63, -9810.00, 5662.77, 26272.42, 0.00, 0.000, 0.000, 0.000, 13:25:13.367
111, 0.00, 22348.79, 13797.87, 8228.59, -9619.92, 5667.53, 26256.12, 0.00, 0.024, -0.030, 0.994, 13:25:13.367
112, 0.00, 22346.80, 13795.54, 8209.91, -9746.52, 5661.43, 26249.35, 0.00, 0.000, 0.000, 0.000, 13:25:13.367
113, 0.00, 22341.86, 13787.74, 8273.63, -10048.58, 5652.42, 26261.13, 0.00, 0.000, 0.000, 0.000, 13:25:13.367
114, 0.00, 22340.10, 13782.60, 8343.88, -10074.67, 5651.50, 26275.50, 0.00, 0.000, 0.000, 0.000, 13:25:13.367
115, 0.00, 22347.36, 13793.84, 8305.82, -9819.55, 5664.27, 26274.14, 0.00, 0.000, 0.000, 0.000, 13:25:13.367
116, 0.00, 22350.69, 13799.39, 8230.96, -9625.64, 5667.60, 26257.78, 0.00, 0.000, 0.000, 0.000, 13:25:13.367
117, 0.00, 22350.71, 13798.56, 8219.07, -9739.53, 5662.64, 26251.99, 0.00, 0.000, 0.000, 0.000, 13:25:13.368
118, 0.00, 22343.90, 13791.67, 8287.38, -10034.86, 5654.59, 26262.40, 0.00, 0.000, 0.000, 0.000, 13:25:13.368
119, 0.00, 22340.46, 13785.39, 8358.50, -10061.30, 5653.67, 26275.88, 0.00, 0.000, 0.000, 0.000, 13:25:13.368
120, 0.00, 22346.38, 13789.08, 8307.79, -9812.91, 5663.37, 26274.32, 0.00, 0.000, 0.000, 0.000, 13:25:13.368
121, 0.00, 22349.08, 13793.13, 8226.42, -9616.52, 5665.70, 26257.38, 0.00, 0.026, -0.032, 0.998, 13:25:13.368
122, 0.00, 22347.88, 13792.32, 8210.33, -9735.55, 5659.35, 26251.16, 0.00, 0.000, 0.000, 0.000, 13:25:13.368
123, 0.00, 22341.80, 13786.98, 8278.06, -10038.91, 5650.90, 26262.65, 0.00, 0.000, 0.000, 0.000, 13:25:13.369
124, 0.00, 22339.90, 13785.26, 8357.29, -10069.24, 5651.95, 26277.02, 0.00, 0.000, 0.000, 0.000, 13:25:13.369
125, 0.00, 22346.47, 13788.70, 8312.37, -9815.12, 5662.17, 26274.65, 0.00, 0.000, 0.000, 0.000, 13:25:13.370
126, 0.00, 22350.83, 13794.71, 8228.88, -9621.00, 5667.69, 26257.80, 0.00, 0.000, 0.000, 0.000, 13:25:13.370
127, 0.00, 22347.90, 13792.05, 8212.88, -9736.62, 5658.66, 26250.07, 0.00, 0.000, 0.000, 0.000, 13:25:13.370
128, 0.00, 22343.88, 13786.91, 8280.85, -10033.68, 5650.25, 26262.70, 0.00, 0.000, 0.000, 0.000, 13:25:13.370
129, 0.00, 22339.96, 13781.95, 8356.11, -10062.89, 5651.93, 26274.38, 0.00, 0.000, 0.000, 0.000, 13:25:13.370
130, 0.00, 22344.99, 13788.81, 8313.84, -9810.31, 5661.18, 26272.11, 0.00, 0.000, 0.000, 0.000, 13:25:13.370
131, 0.00, 22350.02, 13793.44, 8229.42, -9616.28, 5666.37, 26257.04, 0.00, 0.024, -0.030, 0.996, 13:25:13.370
132, 0.00, 22347.38, 13791.83, 8212.79, -9730.45, 5660.24, 26248.70, 0.00, 0.000, 0.000, 0.000, 13:25:13.370
133, 0.00, 22342.47, 13785.26, 8279.26, -10033.05, 5650.16, 26260.88, 0.00, 0.000, 0.000, 0.000, 13:25:13.370
134, 0.00, 22340.86, 13780.59, 8351.59, -10072.12, 5650.88, 26275.46, 0.00, 0.000, 0.000, 0.000, 13:25:13.370
135, 0.00, 22346.40, 13786.20, 8310.51, -9819.12, 5660.13, 26273.02, 0.00, 0.000, 0.000, 0.000, 13:25:13.371
136, 0.00, 22350.02, 13791.43, 8225.80, -9626.05, 5663.57, 26256.01, 0.00, 0.000, 0.000, 0.000, 13:25:13.371
137, 0.00, 22348.41, 13789.98, 8208.81, -9738.36, 5656.58, 26249.17, 0.00, 0.000, 0.000, 0.000, 13:25:13.371
138, 0.00, 22341.24, 13784.52, 8277.52, -10033.14, 5647.19, 26259.25, 0.00, 0.000, 0.000, 0.000, 13:25:13.371
139, 0.00, 22337.35, 13781.06, 8347.62, -10073.82, 5647.41, 26273.11, 0.00, 0.000, 0.000, 0.000, 13:25:13.372
140, 0.00, 22342.78, 13785.37, 8304.68, -9822.27, 5655.68, 26270.92, 0.00, 0.000, 0.000, 0.000, 13:25:13.372
141, 0.00, 22348.73, 13787.72, 8214.89, -9626.25, 5660.15, 26255.63, 0.00, 0.030, -0.028, 0.994, 13:25:13.372
142, 0.00, 22347.70, 13789.60, 8198.04, -9737.81, 5658.19, 26248.12, 0.00, 0.000, 0.000, 0.000, 13:25:13.372
143, 0.00, 22342.20, 13790.22, 8277.75, -10034.26, 5650.77, 26259.92, 0.00, 0.000, 0.000, 0.000, 13:25:13.372
144, 0.00, 22338.42, 13784.10, 8353.90, -10074.69, 5649.63, 26273.42, 0.00, 0.000, 0.000, 0.000, 13:25:13.372
145, 0.00, 22345.13, 13790.40, 8312.37, -9826.32, 5660.09, 26272.96, 0.00, 0.000, 0.000, 0.000, 13:25:13.373
146, 0.00, 22349.24, 13794.07, 8225.55, -9631.95, 5663.98, 26257.46, 0.00, 0.000, 0.000, 0.000, 13:25:13.373
147, 0.00, 22346.89, 13791.23, 8208.23, -9736.15, 5657.70, 26249.46, 0.00, 0.000, 0.000, 0.000, 13:25:13.373
148, 0.00, 22341.24, 13784.52, 8274.03, -10031.40, 5647.68, 26260.17, 0.00, 0.000, 0.000, 0.000, 13:25:13.373
149, 0.00, 22338.33, 13781.01, 8351.71, -10071.09, 5648.15, 26274.90, 0.00, 0.000, 0.000, 0.000, 13:25:13.373
150, 0.00, 22343.65, 13786.87, 8309.75, -9824.02, 5658.43, 26272.08, 0.00, 0.000, 0.000, 0.000, 13:25:13.374
151, 0.00, 22349.78, 13794.67, 8225.62, -9627.88, 5664.47, 26257.91, 0.00, 0.028, -0.030, 0.996, 13:25:13.374
152, 0.00, 22347.14, 13794.18, 8207.99, -9737.02, 5657.52, 26248.86, 0.00, 0.000, 0.000, 0.000, 13:25:13.374
153, 0.00, 22342.00, 13789.64, 8277.72, -10035.08, 5649.45, 26259.41, 0.00, 0.000, 0.000, 0.000, 13:25:13.374
154, 0.00, 22339.32, 13785.13, 8358.75, -10074.09, 5650.03, 26273.36, 0.00, 0.000, 0.000, 0.000, 13:25:13.374
155, 0.00, 22343.32, 13787.74, 8317.24, -9824.51, 5657.99, 26270.74, 0.00, 0.000, 0.000, 0.000, 13:25:13.375
156, 0.00, 22348.37, 13791.05, 8228.46, -9623.81, 5661.79, 26255.70, 0.00, 0.000, 0.000, 0.000, 13:25:13.375
157, 0.00, 22346.78, 13787.99, 8206.29, -9729.20, 5654.01, 26248.05, 0.00, 0.000, 0.000, 0.000, 13:25:13.375
158, 0.00, 22342.60, 13781.55, 8271.49, -10023.57, 5645.09, 26260.53, 0.00, 0.000, 0.000, 0.000, 13:25:13.375
159, 0.00, 22341.08, 13782.33, 8352.15, -10069.82, 5650.72, 26276.08, 0.00, 0.000, 0.000, 0.000, 13:25:13.375
160, 0.00, 22346.60, 13789.84, 8317.51, -9827.17, 5661.47, 26274.38, 0.00, 0.000, 0.000, 0.000, 13:25:13.376
161, 0.00, 22349.58, 13795.56, 8239.05, -9624.82, 5665.38, 26257.76, 0.00, 0.028, -0.026, 0.994, 13:25:13.376
162, 0.00, 22348.77, 13793.24, 8221.84, -9721.71, 5658.10, 26249.66, 0.00, 0.000, 0.000, 0.000, 13:25:13.376
163, 0.00, 22343.79, 13786.42, 8281.79, -10022.79, 5648.82, 26261.80, 0.00, 0.000, 0.000, 0.000, 13:25:13.376
164, 0.00, 22340.37, 13783.16, 8357.88, -10075.85, 5649.02, 26276.13, 0.00, 0.000, 0.000, 0.000, 13:25:13.376
165, 0.00, 22343.47, 13787.65, 8323.41, -9824.53, 5656.91, 26272.15, 0.00, 0.000, 0.000, 0.000, 13:25:13.377
166, 0.00, 22348.39, 13793.64, 8236.53, -9624.33, 5661.96, 26256.01, 0.00, 0.000, 0.000, 0.000, 13:25:13.377
167, 0.00, 22348.53, 13793.46, 8218.74, -9722.27, 5658.99, 26249.91, 0.00, 0.000, 0.000, 0.000, 13:25:13.377
168, 0.00, 22343.09, 13788.10, 8286.35, -10017.11, 5650.45, 26261.35, 0.00, 0.000, 0.000, 0.000, 13:25:13.377
169, 0.00, 22338.51, 13782.15, 8362.97, -10073.17, 5647.53, 26275.06, 0.00, 0.000, 0.000, 0.000, 13:25:13.377
170, 0.00, 22344.66, 13786.26, 8327.79, -9822.99, 5656.20, 26273.96, 0.00, 0.000, 0.000, 0.000, 13:25:13.378
171, 0.00, 22349.11, 13790.15, 8238.36, -9623.74, 5660.82, 26257.42, 0.00, 0.022, -0.028, 0.996, 13:25:13.378
172, 0.00, 22347.68, 13785.97, 8211.72, -9726.36, 5652.29, 26248.50, 0.00, 0.000, 0.000, 0.000, 13:25:13.378
173, 0.00, 22342.83, 13781.71, 8280.74, -10017.63, 5645.94, 26259.05, 0.00, 0.000, 0.000, 0.000, 13:25:13.378
174, 0.00, 22339.18, 13782.33, 8363.33, -10076.48, 5646.90, 26273.13, 0.00, 0.000, 0.000, 0.000, 13:25:13.378
175, 0.00, 22345.37, 13787.25, 8325.98, -9835.71, 5655.57, 26274.07, 0.00, 0.000, 0.000, 0.000, 13:25:13.378
176, 0.00, 22348.59, 13790.06, 8238.76, -9630.27, 5658.14, 26256.28, 0.00, 0.000, 0.000, 0.000, 13:25:13.378
177, 0.00, 22347.03, 13788.63, 8213.10, -9727.55, 5653.52, 26248.08, 0.00, 0.000, 0.000, 0.000, 13:25:13.379
178, 0.00, 22342.83, 13783.92, 8273.97, -10029.76, 5645.78, 26259.79, 0.00, 0.000, 0.000, 0.000, 13:25:13.379
179, 0.00, 22339.79, 13780.72, 8355.06, -10085.26, 5646.50, 26274.09, 0.00, 0.000, 0.000, 0.000, 13:25:13.379
180, 0.00, 22345.44, 13785.80, 8320.68, -9839.59, 5654.01, 26273.54, 0.00, 0.000, 0.000, 0.000, 13:25:13.379
181, 0.00, 22350.29, 13792.52, 8234.87, -9637.02, 5661.14, 26258.52, 0.00, 0.028, -0.028, 0.992, 13:25:13.379
182, 0.00, 22349.46, 13790.82, 8213.21, -9732.71, 5655.82, 26250.40, 0.00, 0.000, 0.000, 0.000, 13:25:13.380
183, 0.00, 22344.23, 13785.55, 8281.46, -10025.27, 5645.96, 26260.13, 0.00, 0.000, 0.000, 0.000, 13:25:13.380
184, 0.00, 22340.48, 13782.89, 8362.77, -10086.16, 5646.77, 26274.45, 0.00, 0.000, 0.000, 0.000, 13:25:13.380
185, 0.00, 22344.37, 13787.65, 8329.74, -9841.83, 5654.86, 26273.33, 0.00, 0.000, 0.000, 0.000, 13:25:13.380
186, 0.00, 22349.38, 13792.21, 8244.46, -9630.52, 5657.87, 26257.85, 0.00, 0.000, 0.000, 0.000, 13:25:13.380
187, 0.00, 22349.55, 13790.22, 8215.96, -9725.96, 5654.50, 26249.87, 0.00, 0.000, 0.000, 0.000, 13:25:13.380
188, 0.00, 22344.79, 13782.04, 8276.49, -10024.78, 5644.66, 26260.37, 0.00, 0.000, 0.000, 0.000, 13:25:13.380
189, 0.00, 22338.98, 13776.30, 8351.30, -10095.14, 5641.89, 26273.16, 0.00, 0.000, 0.000, 0.000, 13:25:13.381
190, 0.00, 22345.33, 13786.13, 8324.75, -9850.26, 5654.28, 26274.34, 0.00, 0.000, 0.000, 0.000, 13:25:13.381
191, 0.00, 22350.76, 13791.03, 8242.76, -9638.38, 5659.46, 26258.36, 0.00, 0.028, -0.036, 0.992, 13:25:13.381
192, 0.00, 22350.25, 13788.50, 8217.42, -9724.26, 5652.47, 26249.75, 0.00, 0.000, 0.000, 0.000, 13:25:13.381
193, 0.00, 22343.96, 13782.46, 8275.93, -10023.24, 5643.12, 26259.86, 0.00, 0.000, 0.000, 0.000, 13:25:13.382
194, 0.00, 22340.63, 13778.64, 8355.04, -10089.40, 5642.74, 26275.28, 0.00, 0.000, 0.000, 0.000, 13:25:13.382
195, 0.00, 22346.07, 13784.75, 8326.25, -9840.80, 5651.06, 26275.10, 0.00, 0.000, 0.000, 0.000, 13:25:13.383
196, 0.00, 22350.98, 13789.44, 8238.92, -9629.96, 5656.15, 26259.52, 0.00, 0.000, 0.000, 0.000, 13:25:13.384
197, 0.00, 22349.55, 13789.75, 8213.28, -9719.75, 5651.06, 26250.69, 0.00, 0.000, 0.000, 0.000, 13:25:13.384
198, 0.00, 22344.19, 13785.73, 8279.24, -10017.47, 5643.35, 26261.20, 0.00, 0.000, 0.000, 0.000, 13:25:13.384
199, 0.00, 22341.84, 13781.44, 8359.33, -10087.32, 5642.54, 26277.04, 0.00, 0.000, 0.000, 0.000, 13:25:13.384
200, 0.00, 22345.40, 13785.37, 8326.72, -9846.12, 5650.50, 26275.17, 0.00, 0.000, 0.000, 0.000, 13:25:13.384
201, 0.00, 22349.17, 13790.09, 8240.44, -9636.22, 5656.06, 26258.22, 0.00, 0.028, -0.036, 0.988, 13:25:13.384
202, 0.00, 22349.38, 13788.59, 8217.46, -9715.61, 5650.32, 26249.06, 0.00, 0.000, 0.000, 0.000, 13:25:13.385
203, 0.00, 22344.61, 13782.29, 8276.47, -10014.81, 5642.32, 26259.59, 0.00, 0.000, 0.000, 0.000, 13:25:13.385
204, 0.00, 22341.08, 13781.15, 8359.31, -10093.00, 5643.01, 26275.39, 0.00, 0.000, 0.000, 0.000, 13:25:13.385
205, 0.00, 22345.62, 13785.73, 8332.86, -9850.19, 5651.66, 26274.50, 0.00, 0.000, 0.000, 0.000, 13:25:13.385
206, 0.00, 22349.53, 13789.46, 8239.99, -9645.29, 5657.76, 26257.85, 0.00, 0.000, 0.000, 0.000, 13:25:13.385
207, 0.00, 22346.27, 13787.47, 8215.63, -9724.28, 5650.70, 26246.69, 0.00, 0.000, 0.000, 0.000, 13:25:13.385
208, 0.00, 22341.95, 13783.40, 8281.86, -10012.44, 5640.82, 26257.17, 0.00, 0.000, 0.000, 0.000, 13:25:13.385
209, 0.00, 22339.74, 13780.25, 8361.63, -10090.38, 5643.17, 26274.29, 0.00, 0.000, 0.000, 0.000, 13:25:13.386
210, 0.00, 22345.24, 13784.90, 8331.23, -9851.73, 5655.06, 26275.39, 0.00, 0.000, 0.000, 0.000, 13:25:13.386
211, 0.00, 22350.71, 13789.37, 8242.99, -9639.93, 5659.28, 26258.76, 0.00, 0.032, -0.032, 0.994, 13:25:13.386
212, 0.00, 22349.64, 13787.36, 8217.40, -9719.07, 5652.69, 26249.42, 0.00, 0.000, 0.000, 0.000, 13:25:13.386
213, 0.00, 22344.52, 13781.59, 8283.18, -10005.96, 5644.73, 26260.17, 0.00, 0.000, 0.000, 0.000, 13:25:13.386
214, 0.00, 22341.60, 13779.09, 8361.92, -10089.96, 5644.84, 26274.99, 0.00, 0.000, 0.000, 0.000, 13:25:13.386
215, 0.00, 22347.56, 13784.37, 8333.29, -9854.71, 5654.57, 26276.13, 0.00, 0.000, 0.000, 0.000, 13:25:13.386
216, 0.00, 22354.04, 13789.48, 8247.82, -9638.23, 5659.93, 26262.85, 0.00, 0.000, 0.000, 0.000, 13:25:13.387
217, 0.00, 22351.86, 13789.10, 8221.82, -9712.70, 5653.00, 26253.20, 0.00, 0.000, 0.000, 0.000, 13:25:13.387
218, 0.00, 22346.56, 13785.01, 8284.72, -10006.85, 5643.90, 26261.76, 0.00, 0.000, 0.000, 0.000, 13:25:13.387
219, 0.00, 22343.59, 13781.59, 8365.21, -10092.84, 5643.44, 26276.82, 0.00, 0.000, 0.000, 0.000, 13:25:13.387
220, 0.00, 22349.46, 13786.69, 8337.13, -9856.83, 5653.83, 26278.45, 0.00, 0.000, 0.000, 0.000, 13:25:13.387
221, 0.00, 22353.17, 13790.27, 8250.05, -9641.83, 5659.77, 26261.82, 0.00, 0.032, -0.034, 0.998, 13:25:13.387
222, 0.00, 22352.12, 13788.70, 8224.35, -9708.97, 5654.01, 26252.75, 0.00, 0.000, 0.000, 0.000, 13:25:13.387
223, 0.00, 22346.02, 13783.72, 8285.93, -9998.72, 5645.04, 26261.64, 0.00, 0.000, 0.000, 0.000, 13:25:13.388
224, 0.00, 22342.58, 13779.98, 8364.27, -10086.65, 5645.25, 26276.96, 0.00, 0.000, 0.000, 0.000, 13:25:13.388
225, 0.00, 22347.99, 13784.50, 8336.82, -9852.00, 5655.15, 26278.50, 0.00, 0.000, 0.000, 0.000, 13:25:13.846
226, 0.00, 22352.62, 13787.96, 8248.69, -9636.82, 5659.86, 26261.71, 0.00, 0.000, 0.000, 0.000, 13:25:13.847
227, 0.00, 22350.83, 13788.05, 8220.32, -9711.54, 5652.33, 26250.31, 0.00, 0.000, 0.000, 0.000, 13:25:13.847
228, 0.00, 22346.04, 13784.68, 8285.59, -10004.51, 5643.84, 26260.26, 0.00, 0.000, 0.000, 0.000, 13:25:13.847
229, 0.00, 22342.71, 13779.65, 8367.67, -10090.05, 5642.83, 26275.86, 0.00, 0.000, 0.000, 0.000, 13:25:13.847
230, 0.00, 22346.56, 13783.90, 8342.14, -9851.55, 5651.73, 26275.79, 0.00, 0.000, 0.000, 0.000, 13:25:13.847
231, 0.00, 22351.23, 13788.63, 8252.84, -9633.07, 5656.38, 26260.88, 0.00, 0.036, -0.038, 1.004, 13:25:13.847
232, 0.00, 22350.31, 13786.80, 8217.55, -9710.98, 5650.77, 26251.30, 0.00, 0.000, 0.000, 0.000, 13:25:13.847
233, 0.00, 22345.66, 13784.83, 8281.32, -10011.32, 5642.18, 26260.39, 0.00, 0.000, 0.000, 0.000, 13:25:13.847
234, 0.00, 22339.65, 13779.02, 8366.88, -10099.17, 5639.84, 26274.50, 0.00, 0.000, 0.000, 0.000, 13:25:13.847
235, 0.00, 22344.61, 13783.74, 8343.57, -9856.90, 5652.42, 26276.15, 0.00, 0.000, 0.000, 0.000, 13:25:13.847
236, 0.00, 22351.54, 13789.53, 8254.16, -9639.77, 5658.79, 26261.87, 0.00, 0.000, 0.000, 0.000, 13:25:13.848
237, 0.00, 22349.98, 13786.69, 8222.92, -9711.63, 5651.95, 26250.13, 0.00, 0.000, 0.000, 0.000, 13:25:13.848
238, 0.00, 22344.17, 13781.37, 8287.04, -9995.95, 5643.93, 26258.52, 0.00, 0.000, 0.000, 0.000, 13:25:13.848
239, 0.00, 22342.54, 13779.22, 8369.50, -10086.16, 5645.13, 26275.32, 0.00, 0.000, 0.000, 0.000, 13:25:13.848
240, 0.00, 22346.58, 13784.01, 8343.15, -9857.59, 5654.57, 26275.99, 0.00, 0.000, 0.000, 0.000, 13:25:13.848
241, 0.00, 22350.60, 13789.42, 8251.88, -9646.45, 5661.09, 26259.90, 0.00, 0.036, -0.036, 1.004, 13:25:13.848
242, 0.00, 22348.41, 13788.19, 8224.84, -9709.66, 5655.42, 26249.69, 0.00, 0.000, 0.000, 0.000, 13:25:13.848
243, 0.00, 22343.45, 13781.77, 8287.22, -9998.74, 5645.51, 26259.19, 0.00, 0.000, 0.000, 0.000, 13:25:13.848
244, 0.00, 22339.96, 13776.12, 8370.04, -10092.80, 5644.40, 26274.29, 0.00, 0.000, 0.000, 0.000, 13:25:13.849
245, 0.00, 22343.79, 13779.18, 8343.48, -9860.25, 5652.47, 26274.34, 0.00, 0.000, 0.000, 0.000, 13:25:13.849
246, 0.00, 22348.53, 13785.86, 8257.38, -9637.04, 5658.54, 26259.07, 0.00, 0.000, 0.000, 0.000, 13:25:13.849
247, 0.00, 22347.81, 13786.31, 8228.84, -9698.02, 5653.56, 26248.01, 0.00, 0.000, 0.000, 0.000, 13:25:13.849
248, 0.00, 22342.87, 13781.68, 8291.18, -9986.40, 5646.41, 26257.40, 0.00, 0.000, 0.000, 0.000, 13:25:13.849
249, 0.00, 22339.70, 13777.75, 8373.88, -10081.44, 5645.60, 26272.55, 0.00, 0.000, 0.000, 0.000, 13:25:13.849
250, 0.00, 22343.47, 13782.13, 8348.47, -9853.57, 5654.50, 26272.64, 0.00, 0.000, 0.000, 0.000, 13:25:13.849
251, 0.00, 22349.08, 13787.07, 8257.47, -9636.89, 5659.89, 26257.29, 0.00, 0.034, -0.034, 0.998, 13:25:13.849
252, 0.00, 22348.14, 13788.70, 8230.96, -9696.46, 5655.42, 26247.56, 0.00, 0.000, 0.000, 0.000, 13:25:13.849
253, 0.00, 22342.51, 13782.62, 8291.13, -9983.96, 5645.94, 26256.95, 0.00, 0.000, 0.000, 0.000, 13:25:13.849
254, 0.00, 22338.98, 13778.26, 8372.61, -10086.31, 5643.99, 26271.86, 0.00, 0.000, 0.000, 0.000, 13:25:13.849
255, 0.00, 22343.92, 13780.01, 8344.29, -9862.71, 5651.15, 26271.93, 0.00, 0.000, 0.000, 0.000, 13:25:13.850
0, 0.00, 22350.54, 13786.31, 8256.00, -9639.01, 5657.20, 26259.83, 0.00, 0.000, 0.000, 0.000, 13:25:13.850
1, 0.00, 22350.47, 13786.91, 8223.70, -9701.26, 5652.49, 26249.26, 0.00, 0.000, 0.000, 0.000, 13:25:13.850
2, 0.00, 22344.95, 13784.05, 8288.43, -9990.22, 5642.61, 26257.89, 0.00, 0.000, 0.000, 0.000, 13:25:13.851
3, 0.00, 22340.39, 13779.69, 8374.59, -10092.97, 5640.62, 26273.83, 0.00, 0.000, 0.000, 0.000, 13:25:13.851
4, 0.00, 22344.99, 13782.71, 8348.47, -9869.90, 5649.60, 26276.13, 0.00, 0.036, -0.038, 0.996, 13:25:13.851
5, 0.00, 22351.47, 13787.20, 8256.64, -9652.87, 5655.46, 26261.38, 0.00, 0.000, 0.000, 0.000, 13:25:13.851
6, 0.00, 22349.89, 13786.62, 8227.45, -9710.63, 5651.24, 26250.02, 0.00, 0.000, 0.000, 0.000, 13:25:13.851
7, 0.00, 22344.72, 13781.24, 8289.75, -9997.85, 5641.98, 26258.78, 0.00, 0.000, 0.000, 0.000, 13:25:13.851
8, 0.00, 22340.03, 13775.85, 8373.72, -10099.99, 5640.95, 26273.11, 0.00, 0.000, 0.000, 0.000, 13:25:13.851
9, 0.00, 22345.46, 13781.10, 8350.95, -9871.78, 5650.21, 26274.56, 0.00, 0.000, 0.000, 0.000, 13:25:13.851
10, 0.00, 22350.58, 13787.58, 8263.01, -9648.91, 5656.40, 26259.99, 0.00, 0.000, 0.000, 0.000, 13:25:13.852
11, 0.00, 22349.33, 13786.18, 8232.44, -9698.29, 5650.45, 26248.68, 0.00, 0.000, 0.000, 0.000, 13:25:13.852
12, 0.00, 22343.70, 13780.01, 8291.96, -9979.14, 5639.64, 26257.02, 0.00, 0.000, 0.000, 0.000, 13:25:13.852
13, 0.00, 22340.63, 13777.26, 8372.72, -10088.84, 5638.79, 26274.43, 0.00, 0.000, 0.000, 0.000, 13:25:13.852
14, 0.00, 22344.30, 13780.32, 8351.08, -9865.39, 5645.20, 26275.10, 0.00, 0.032, -0.034, 0.992, 13:25:13.852
15, 0.00, 22349.24, 13784.39, 8260.15, -9645.76, 5653.29, 26259.54, 0.00, 0.000, 0.000, 0.000, 13:25:13.852
16, 0.00, 22348.48, 13784.28, 8226.11, -9699.58, 5650.61, 26249.46, 0.00, 0.000, 0.000, 0.000, 13:25:13.852
17, 0.00, 22343.18, 13778.49, 8283.82, -9985.11, 5641.98, 26258.25, 0.00, 0.000, 0.000, 0.000, 13:25:13.852
18, 0.00, 22338.98, 13774.66, 8364.51, -10099.81, 5642.43, 26272.49, 0.00, 0.000, 0.000, 0.000, 13:25:13.852
19, 0.00, 22344.61, 13780.90, 8350.63, -9869.57, 5651.84, 26274.63, 0.00, 0.000, 0.000, 0.000, 13:25:13.852
20, 0.00, 22351.47, 13787.07, 8260.22, -9647.73, 5656.69, 26260.59, 0.00, 0.000, 0.000, 0.000, 13:25:13.852
21, 0.00, 22350.18, 13785.97, 8222.07, -9705.66, 5651.73, 26249.80, 0.00, 0.000, 0.000, 0.000, 13:25:13.852
22, 0.00, 22344.86, 13781.64, 8286.69, -9988.14, 5644.20, 26259.16, 0.00, 0.000, 0.000, 0.000, 13:25:13.852
23, 0.00, 22342.47, 13777.70, 8370.04, -10100.84, 5645.89, 26276.17, 0.00, 0.000, 0.000, 0.000, 13:25:13.853
24, 0.00, 22347.29, 13781.64, 8352.53, -9873.95, 5654.16, 26277.98, 0.00, 0.032, -0.028, 0.994, 13:25:13.853
25, 0.00, 22351.16, 13787.14, 8266.08, -9642.48, 5659.62, 26261.94, 0.00, 0.000, 0.000, 0.000, 13:25:13.853
26, 0.00, 22349.60, 13787.38, 8229.98, -9695.16, 5655.33, 26250.47, 0.00, 0.000, 0.000, 0.000, 13:25:13.853
27, 0.00, 22344.59, 13781.82, 8291.98, -9978.00, 5645.45, 26258.29, 0.00, 0.000, 0.000, 0.000, 13:25:13.853
28, 0.00, 22340.25, 13776.59, 8373.77, -10093.02, 5643.46, 26273.22, 0.00, 0.000, 0.000, 0.000, 13:25:13.853
29, 0.00, 22343.65, 13777.32, 8350.97, -9874.20, 5651.03, 26274.14, 0.00, 0.000, 0.000, 0.000, 13:25:13.853
30, 0.00, 22349.89, 13786.24, 8264.96, -9646.77, 5658.10, 26260.01, 0.00, 0.000, 0.000, 0.000, 13:25:13.854
31, 0.00, 22349.71, 13787.81, 8233.69, -9695.78, 5653.34, 26249.02, 0.00, 0.000, 0.000, 0.000, 13:25:13.854
32, 0.00, 22344.79, 13780.43, 8290.60, -9981.19, 5644.28, 26257.58, 0.00, 0.000, 0.000, 0.000, 13:25:13.854
33, 0.00, 22340.88, 13775.09, 8372.99, -10101.63, 5644.31, 26273.33, 0.00, 0.000, 0.000, 0.000, 13:25:13.854
34, 0.00, 22344.61, 13778.58, 8357.18, -9878.22, 5652.17, 26274.90, 0.00, 0.034, -0.034, 0.994, 13:25:13.854
35, 0.00, 22349.82, 13784.16, 8269.88, -9647.35, 5658.32, 26259.46, 0.00, 0.000, 0.000, 0.000, 13:25:13.854
36, 0.00, 22349.13, 13783.94, 8232.10, -9694.08, 5653.69, 26249.13, 0.00, 0.000, 0.000, 0.000, 13:25:13.854
37, 0.00, 22343.88, 13778.53, 8290.40, -9975.43, 5644.31, 26258.13, 0.00, 0.000, 0.000, 0.000, 13:25:13.854
38, 0.00, 22340.99, 13775.89, 8374.57, -10097.18, 5644.98, 26275.32, 0.00, 0.000, 0.000, 0.000, 13:25:13.854
39, 0.00, 22343.43, 13778.93, 8359.35, -9877.28, 5652.78, 26275.44, 0.00, 0.000, 0.000, 0.000, 13:25:13.854
40, 0.00, 22347.70, 13782.71, 8268.18, -9652.53, 5655.46, 26259.05, 0.00, 0.000, 0.000, 0.000, 13:25:13.855
41, 0.00, 22348.44, 13785.39, 8235.30, -9695.07, 5652.06, 26249.53, 0.00, 0.000, 0.000, 0.000, 13:25:13.855
42, 0.00, 22342.22, 13780.70, 8293.97, -9979.25, 5643.10, 26256.44, 0.00, 0.000, 0.000, 0.000, 13:25:13.855
43, 0.00, 22339.18, 13775.80, 8376.74, -10104.28, 5639.48, 26272.04, 0.00, 0.000, 0.000, 0.000, 13:25:13.855
44, 0.00, 22343.72, 13778.49, 8359.82, -9885.62, 5644.84, 26273.38, 0.00, 0.028, -0.030, 0.994, 13:25:13.855
45, 0.00, 22348.73, 13784.12, 8270.73, -9655.55, 5651.08, 26257.85, 0.00, 0.000, 0.000, 0.000, 13:25:13.855
46, 0.00, 22349.38, 13784.41, 8233.91, -9691.65, 5648.96, 26247.27, 0.00, 0.000, 0.000, 0.000, 13:25:13.855
47, 0.00, 22343.63, 13777.23, 8284.07, -9977.04, 5642.32, 26255.43, 0.00, 0.000, 0.000, 0.000, 13:25:13.855
48, 0.00, 22339.96, 13774.02, 8367.84, -10103.90, 5641.04, 26272.33, 0.00, 0.000, 0.000, 0.000, 13:25:13.855
49, 0.00, 22343.14, 13779.07, 8354.77, -9889.84, 5649.60, 26274.23, 0.00, 0.000, 0.000, 0.000, 13:25:13.855
50, 0.00, 22347.56, 13784.12, 8268.87, -9656.53, 5655.24, 26258.85, 0.00, 0.000, 0.000, 0.000, 13:25:13.855
51, 0.00, 22348.77, 13785.59, 8232.62, -9692.66, 5650.36, 26249.51, 0.00, 0.000, 0.000, 0.000, 13:25:13.856
52, 0.00, 22343.52, 13778.96, 8287.33, -9974.24, 5639.70, 26256.68, 0.00, 0.000, 0.000, 0.000, 13:25:13.856
53, 0.00, 22339.09, 13773.73, 8372.45, -10098.16, 5637.56, 26271.44, 0.00, 0.000, 0.000, 0.000, 13:25:13.856
54, 0.00, 22344.10, 13778.20, 8356.96, -9883.49, 5647.08, 26274.63, 0.00, 0.030, -0.030, 0.994, 13:25:13.856
55, 0.00, 22349.58, 13785.42, 8268.22, -9652.73, 5654.48, 26259.81, 0.00, 0.000, 0.000, 0.000, 13:25:13.856
56, 0.00, 22351.39, 13787.58, 8228.57, -9689.79, 5653.27, 26250.67, 0.00, 0.000, 0.000, 0.000, 13:25:13.856
57, 0.00, 22347.18, 13778.87, 8281.90, -9971.98, 5643.23, 26258.92, 0.00, 0.000, 0.000, 0.000, 13:25:13.856
58, 0.00, 22342.94, 13774.62, 8365.99, -10105.38, 5640.78, 26274.23, 0.00, 0.000, 0.000, 0.000, 13:25:13.858
59, 0.00, 22346.74, 13780.14, 8356.27, -9887.79, 5650.41, 26276.46, 0.00, 0.000, 0.000, 0.000, 13:25:13.858
60, 0.00, 22352.08, 13785.75, 8266.17, -9660.63, 5656.42, 26262.07, 0.00, 0.000, 0.000, 0.000, 13:25:13.858
61, 0.00, 22350.80, 13785.28, 8229.55, -9691.67, 5651.06, 26250.02, 0.00, 0.000, 0.000, 0.000, 13:25:13.859
62, 0.00, 22344.97, 13780.54, 8289.32, -9967.40, 5640.22, 26256.37, 0.00, 0.000, 0.000, 0.000, 13:25:13.859
63, 0.00, 22341.55, 13776.34, 8374.15, -10100.04, 5637.58, 26273.45, 0.00, 0.000, 0.000, 0.000, 13:25:13.859
64, 0.00, 22345.11, 13777.95, 8361.50, -9886.04, 5645.18, 26275.95, 0.00, 0.034, -0.030, 1.002, 13:25:13.859
65, 0.00, 22350.16, 13783.14, 8270.26, -9656.83, 5650.50, 26260.48, 0.00, 0.000, 0.000, 0.000, 13:25:13.859
66, 0.00, 22350.63, 13783.83, 8230.31, -9690.98, 5648.38, 26249.73, 0.00, 0.000, 0.000, 0.000, 13:25:13.859
67, 0.00, 22345.73, 13778.00, 8284.07, -9971.54, 5641.04, 26256.79, 0.00, 0.000, 0.000, 0.000, 13:25:13.859
68, 0.00, 22340.52, 13771.36, 8365.72, -10111.01, 5636.98, 26271.05, 0.00, 0.000, 0.000, 0.000, 13:25:13.859
69, 0.00, 22344.01, 13774.13, 8354.03, -9898.18, 5644.91, 26273.54, 0.00, 0.000, 0.000, 0.000, 13:25:13.859
70, 0.00, 22350.36, 13782.40, 8269.36, -9658.95, 5654.30, 26260.71, 0.00, 0.000, 0.000, 0.000, 13:25:13.859
71, 0.00, 22349.66, 13782.71, 8230.72, -9682.46, 5649.67, 26248.93, 0.00, 0.000, 0.000, 0.000, 13:25:13.860
72, 0.00, 22344.05, 13775.00, 8278.21, -9966.51, 5638.14, 26254.56, 0.00, 0.000, 0.000, 0.000, 13:25:13.860
73, 0.00, 22339.76, 13772.45, 8364.27, -10105.51, 5637.69, 26270.05, 0.00, 0.000, 0.000, 0.000, 13:25:13.860
74, 0.00, 22343.50, 13778.13, 8359.95, -9891.96, 5646.61, 26273.47, 0.00, 0.036, -0.030, 0.998, 13:25:13.860
75, 0.00, 22348.44, 13783.67, 8269.47, -9663.02, 5654.37, 26257.87, 0.00, 0.000, 0.000, 0.000, 13:25:13.860
76, 0.00, 22347.59, 13781.17, 8226.80, -9687.78, 5649.36, 26245.04, 0.00, 0.000, 0.000, 0.000, 13:25:13.860
77, 0.00, 22341.82, 13776.61, 8280.96, -9966.49, 5639.90, 26252.03, 0.00, 0.000, 0.000, 0.000, 13:25:13.860
78, 0.00, 22339.09, 13773.95, 8369.90, -10107.84, 5638.45, 26269.42, 0.00, 0.000, 0.000, 0.000, 13:25:13.860
79, 0.00, 22343.38, 13777.48, 8362.66, -9897.04, 5647.53, 26272.91, 0.00, 0.000, 0.000, 0.000, 13:25:13.860
80, 0.00, 22348.01, 13784.25, 8273.10, -9661.68, 5654.45, 26258.56, 0.00, 0.000, 0.000, 0.000, 13:25:13.860
81, 0.00, 22348.57, 13783.85, 8229.00, -9686.71, 5650.05, 26247.96, 0.00, 0.000, 0.000, 0.000, 13:25:13.860
82, 0.00, 22342.42, 13778.20, 8281.30, -9963.27, 5638.79, 26254.47, 0.00, 0.000, 0.000, 0.000, 13:25:13.861
83, 0.00, 22339.70, 13776.03, 8365.56, -10105.74, 5639.59, 26272.29, 0.00, 0.000, 0.000, 0.000, 13:25:13.861
84, 0.00, 22343.59, 13779.83, 8358.46, -9899.50, 5648.67, 26275.53, 0.00, 0.036, -0.030, 1.000, 13:25:13.861
85, 0.00, 22346.56, 13783.40, 8271.13, -9660.00, 5654.23, 26258.96, 0.00, 0.000, 0.000, 0.000, 13:25:13.861
86, 0.00, 22345.55, 13782.73, 8227.83, -9680.14, 5650.01, 26247.00, 0.00, 0.000, 0.000, 0.000, 13:25:13.861
87, 0.00, 22341.60, 13777.35, 8282.44, -9956.27, 5641.27, 26254.76, 0.00, 0.000, 0.000, 0.000, 13:25:13.861
88, 0.00, 22338.22, 13771.33, 8366.59, -10105.96, 5638.09, 26270.88, 0.00, 0.000, 0.000, 0.000, 13:25:13.861
89, 0.00, 22339.96, 13772.21, 8359.06, -9899.77, 5643.14, 26273.18, 0.00, 0.000, 0.000, 0.000, 13:25:14.328
90, 0.00, 22345.57, 13778.26, 8273.12, -9656.76, 5649.52, 26258.83, 0.00, 0.000, 0.000, 0.000, 13:25:14.328
91, 0.00, 22345.24, 13778.64, 8227.74, -9675.78, 5644.84, 26245.73, 0.00, 0.000, 0.000, 0.000, 13:25:14.329
92, 0.00, 22340.28, 13774.22, 8277.03, -9956.52, 5636.66, 26252.19, 0.00, 0.000, 0.000, 0.000, 13:25:14.329
93, 0.00, 22335.29, 13769.23, 8361.03, -10110.07, 5634.38, 26268.10, 0.00, 0.000, 0.000, 0.000, 13:25:14.329
94, 0.00, 22338.24, 13771.45, 8353.99, -9909.96, 5642.36, 26271.41, 0.00, 0.032, -0.040, 0.996, 13:25:14.329
95, 0.00, 22345.80, 13776.74, 8267.82, -9666.46, 5649.81, 26258.11, 0.00, 0.000, 0.000, 0.000, 13:25:14.329
96, 0.00, 22347.65, 13780.34, 8223.56, -9680.45, 5647.70, 26247.63, 0.00, 0.000, 0.000, 0.000, 13:25:14.330
97, 0.00, 22341.75, 13779.92, 8276.18, -9961.73, 5640.10, 26253.75, 0.00, 0.000, 0.000, 0.000, 13:25:14.330
98, 0.00, 22337.39, 13773.61, 8362.46, -10117.20, 5635.30, 26270.79, 0.00, 0.000, 0.000, 0.000, 13:25:14.330
99, 0.00, 22338.73, 13775.40, 8362.95, -9904.44, 5643.12, 26274.29, 0.00, 0.000, 0.000, 0.000, 13:25:14.331
100, 0.00, 22344.30, 13781.46, 8276.49, -9660.25, 5651.24, 26258.78, 0.00, 0.000, 0.000, 0.000, 13:25:14.331
101, 0.00, 22345.15, 13781.57, 8230.43, -9677.66, 5648.67, 26244.93, 0.00, 0.000, 0.000, 0.000, 13:25:14.331
102, 0.00, 22341.55, 13774.13, 8275.24, -9957.32, 5639.01, 26252.48, 0.00, 0.000, 0.000, 0.000, 13:25:14.331
103, 0.00, 22337.46, 13768.96, 8360.18, -10112.46, 5634.38, 26268.51, 0.00, 0.000, 0.000, 0.000, 13:25:14.331
104, 0.00, 22342.56, 13772.97, 8358.97, -9907.32, 5645.56, 26273.94, 0.00, 0.034, -0.042, 0.992, 13:25:14.332
105, 0.00, 22349.38, 13778.49, 8270.44, -9665.18, 5652.89, 26261.91, 0.00, 0.000, 0.000, 0.000, 13:25:14.332
106, 0.00, 22348.82, 13779.65, 8226.67, -9674.73, 5649.16, 26248.95, 0.00, 0.000, 0.000, 0.000, 13:25:14.332
107, 0.00, 22344.95, 13775.45, 8276.05, -9946.66, 5641.13, 26256.95, 0.00, 0.000, 0.000, 0.000, 13:25:14.332
108, 0.00, 22341.98, 13771.98, 8356.58, -10111.01, 5639.43, 26274.41, 0.00, 0.000, 0.000, 0.000, 13:25:14.332
109, 0.00, 22344.90, 13776.92, 8356.67, -9910.92, 5647.64, 26277.60, 0.00, 0.000, 0.000, 0.000, 13:25:14.332
110, 0.00, 22348.79, 13784.14, 8275.04, -9664.65, 5654.79, 26261.69, 0.00, 0.000, 0.000, 0.000, 13:25:14.333
111, 0.00, 22348.19, 13784.05, 8225.69, -9677.21, 5649.83, 26248.52, 0.00, 0.000, 0.000, 0.000, 13:25:14.333
112, 0.00, 22343.94, 13780.92, 8274.06, -9953.95, 5641.22, 26256.32, 0.00, 0.000, 0.000, 0.000, 13:25:14.333
113, 0.00, 22340.70, 13778.69, 8362.06, -10119.17, 5639.99, 26273.76, 0.00, 0.000, 0.000, 0.000, 13:25:14.333
114, 0.00, 22343.27, 13777.57, 8361.34, -9916.98, 5646.18, 26276.51, 0.00, 0.030, -0.038, 0.998, 13:25:14.333
115, 0.00, 22349.20, 13782.26, 8274.68, -9669.74, 5653.40, 26263.25, 0.00, 0.000, 0.000, 0.000, 13:25:14.334
116, 0.00, 22351.65, 13783.52, 8229.84, -9673.25, 5651.66, 26253.64, 0.00, 0.000, 0.000, 0.000, 13:25:14.334
117, 0.00, 22345.44, 13777.06, 8275.08, -9948.87, 5641.71, 26259.32, 0.00, 0.000, 0.000, 0.000, 13:25:14.334
118, 0.00, 22339.41, 13768.96, 8357.07, -10111.91, 5637.76, 26274.03, 0.00, 0.000, 0.000, 0.000, 13:25:14.334
119, 0.00, 22342.83, 13772.54, 8354.72, -9918.12, 5646.52, 26277.04, 0.00, 0.000, 0.000, 0.000, 13:25:14.334
120, 0.00, 22348.01, 13779.04, 8269.32, -9674.53, 5652.64, 26263.59, 0.00, 0.000, 0.000, 0.000, 13:25:14.336
121, 0.00, 22347.94, 13779.25, 8224.53, -9673.37, 5646.68, 26251.07, 0.00, 0.000, 0.000, 0.000, 13:25:14.336
122, 0.00, 22343.23, 13776.56, 8274.71, -9940.94, 5637.31, 26256.46, 0.00, 0.000, 0.000, 0.000, 13:25:14.336
123, 0.00, 22339.43, 13773.01, 8360.20, -10104.89, 5637.11, 26273.20, 0.00, 0.000, 0.000, 0.000, 13:25:14.336
124, 0.00, 22342.31, 13775.54, 8363.75, -9903.03, 5643.06, 26277.40, 0.00, 0.032, -0.036, 1.000, 13:25:14.336
125, 0.00, 22348.55, 13779.54, 8270.57, -9662.14, 5649.09, 26263.32, 0.00, 0.000, 0.000, 0.000, 13:25:14.337
126, 0.00, 22350.09, 13778.17, 8216.30, -9671.51, 5645.67, 26250.31, 0.00, 0.000, 0.000, 0.000, 13:25:14.337
127, 0.00, 22346.54, 13776.41, 8265.21, -9945.05, 5638.25, 26256.73, 0.00, 0.000, 0.000, 0.000, 13:25:14.337
128, 0.00, 22341.55, 13773.39, 8353.45, -10119.91, 5635.66, 26272.91, 0.00, 0.000, 0.000, 0.000, 13:25:14.337
129, 0.00, 22346.18, 13776.43, 8361.85, -9921.63, 5645.74, 26277.96, 0.00, 0.000, 0.000, 0.000, 13:25:14.337
130, 0.00, 22351.70, 13780.79, 8273.92, -9677.68, 5652.85, 26264.95, 0.00, 0.000, 0.000, 0.000, 13:25:14.337
131, 0.00, 22350.34, 13779.94, 8228.10, -9669.99, 5648.64, 26252.12, 0.00, 0.000, 0.000, 0.000, 13:25:14.338
132, 0.00, 22345.80, 13775.56, 8272.87, -9937.36, 5639.77, 26256.32, 0.00, 0.000, 0.000, 0.000, 13:25:14.338
133, 0.00, 22340.95, 13771.60, 8356.78, -10108.29, 5637.38, 26271.75, 0.00, 0.000, 0.000, 0.000, 13:25:14.338
134, 0.00, 22343.38, 13774.89, 8361.14, -9911.10, 5644.69, 26276.42, 0.00, 0.030, -0.038, 0.998, 13:25:14.338
135, 0.00, 22350.18, 13781.91, 8275.98, -9662.64, 5649.96, 26263.03, 0.00, 0.000, 0.000, 0.000, 13:25:14.338
136, 0.00, 22351.72, 13783.83, 8227.79, -9661.23, 5646.34, 26250.85, 0.00, 0.000, 0.000, 0.000, 13:25:14.339
137, 0.00, 22346.71, 13778.31, 8272.69, -9930.79, 5636.53, 26255.90, 0.00, 0.000, 0.000, 0.000, 13:25:14.339
138, 0.00, 22342.22, 13773.61, 8355.51, -10107.66, 5634.94, 26271.14, 0.00, 0.000, 0.000, 0.000, 13:25:14.339
139, 0.00, 22344.70, 13775.13, 8359.75, -9917.65, 5643.12, 26275.57, 0.00, 0.000, 0.000, 0.000, 13:25:14.339
140, 0.00, 22348.57, 13781.64, 8276.69, -9668.40, 5649.09, 26260.42, 0.00, 0.000, 0.000, 0.000, 13:25:14.339
141, 0.00, 22348.28, 13783.11, 8225.02, -9669.27, 5645.80, 26246.22, 0.00, 0.000, 0.000, 0.000, 13:25:14.340
142, 0.00, 22344.30, 13775.96, 8268.04, -9938.12, 5634.34, 26252.46, 0.00, 0.000, 0.000, 0.000, 13:25:14.340
143, 0.00, 22341.30, 13770.10, 8351.89, -10113.58, 5632.15, 26269.15, 0.00, 0.000, 0.000, 0.000, 13:25:14.340
144, 0.00, 22341.91, 13774.51, 8361.47, -9915.39, 5641.85, 26273.49, 0.00, 0.026, -0.036, 0.992, 13:25:14.340
145, 0.00, 22346.47, 13778.60, 8269.81, -9667.96, 5648.75, 26260.97, 0.00, 0.000, 0.000, 0.000, 13:25:14.340
146, 0.00, 22348.05, 13778.96, 8214.85, -9669.41, 5644.84, 26248.84, 0.00, 0.000, 0.000, 0.000, 13:25:14.341
147, 0.00, 22345.02, 13779.18, 8268.80, -9935.39, 5638.43, 26254.98, 0.00, 0.000, 0.000, 0.000, 13:25:14.341
148, 0.00, 22339.21, 13774.69, 8359.06, -10110.97, 5637.02, 26270.54, 0.00, 0.000, 0.000, 0.000, 13:25:14.341
149, 0.00, 22342.65, 13778.24, 8367.26, -9920.67, 5645.83, 26276.02, 0.00, 0.000, 0.000, 0.000, 13:25:14.341
150, 0.00, 22347.99, 13784.75, 8284.09, -9670.19, 5653.38, 26261.76, 0.00, 0.000, 0.000, 0.000, 13:25:14.342
151, 0.00, 22348.08, 13784.66, 8232.77, -9662.23, 5649.47, 26247.38, 0.00, 0.000, 0.000, 0.000, 13:25:14.343
152, 0.00, 22341.89, 13777.55, 8274.62, -9927.33, 5639.21, 26252.88, 0.00, 0.000, 0.000, 0.000, 13:25:14.343
153, 0.00, 22338.76, 13773.66, 8356.67, -10113.56, 5637.24, 26270.14, 0.00, 0.000, 0.000, 0.000, 13:25:14.343
154, 0.00, 22340.14, 13773.86, 8365.01, -9925.22, 5642.12, 26272.82, 0.00, 0.036, -0.048, 0.990, 13:25:14.343
155, 0.00, 22345.82, 13779.56, 8278.01, -9674.42, 5649.60, 26259.32, 0.00, 0.000, 0.000, 0.000, 13:25:14.343
156, 0.00, 22347.18, 13781.44, 8227.88, -9662.68, 5648.20, 26247.07, 0.00, 0.000, 0.000, 0.000, 13:25:14.344
157, 0.00, 22342.78, 13775.36, 8271.96, -9927.77, 5638.88, 26252.41, 0.00, 0.000, 0.000, 0.000, 13:25:14.344
158, 0.00, 22338.40, 13768.88, 8356.31, -10108.80, 5635.90, 26268.44, 0.00, 0.000, 0.000, 0.000, 13:25:14.344
159, 0.00, 22341.64, 13772.00, 8362.77, -9925.78, 5640.93, 26273.18, 0.00, 0.000, 0.000, 0.000, 13:25:14.344
160, 0.00, 22347.41, 13778.49, 8278.13, -9673.25, 5649.36, 26259.74, 0.00, 0.000, 0.000, 0.000, 13:25:14.345
161, 0.00, 22349.26, 13780.21, 8229.04, -9652.62, 5646.68, 26246.74, 0.00, 0.000, 0.000, 0.000, 13:25:14.345
162, 0.00, 22344.66, 13775.13, 8268.85, -9920.60, 5637.29, 26251.92, 0.00, 0.000, 0.000, 0.000, 13:25:14.345
163, 0.00, 22338.76, 13767.85, 8350.01, -10111.12, 5631.66, 26266.63, 0.00, 0.000, 0.000, 0.000, 13:25:14.345
164, 0.00, 22340.50, 13768.83, 8356.45, -9927.73, 5639.59, 26272.55, 0.00, 0.028, -0.042, 0.990, 13:25:14.345
165, 0.00, 22346.74, 13778.80, 8274.68, -9676.87, 5649.94, 26261.15, 0.00, 0.000, 0.000, 0.000, 13:25:14.345
166, 0.00, 22348.32, 13779.96, 8225.17, -9660.89, 5648.82, 26247.34, 0.00, 0.000, 0.000, 0.000, 13:25:14.346
167, 0.00, 22343.52, 13774.06, 8269.05, -9918.18, 5639.30, 26251.21, 0.00, 0.000, 0.000, 0.000, 13:25:14.346
168, 0.00, 22340.34, 13769.52, 8350.14, -10109.78, 5635.50, 26267.77, 0.00, 0.000, 0.000, 0.000, 13:25:14.346
169, 0.00, 22340.90, 13771.38, 8361.14, -9924.46, 5641.45, 26272.46, 0.00, 0.000, 0.000, 0.000, 13:25:14.346
170, 0.00, 22346.40, 13777.21, 8275.04, -9673.37, 5650.32, 26259.23, 0.00, 0.000, 0.000, 0.000, 13:25:14.346
171, 0.00, 22348.30, 13779.47, 8222.96, -9654.88, 5647.84, 26246.96, 0.00, 0.000, 0.000, 0.000, 13:25:14.347
172, 0.00, 22343.54, 13776.45, 8266.19, -9921.80, 5637.33, 26251.10, 0.00, 0.000, 0.000, 0.000, 13:25:14.347
173, 0.00, 22338.36, 13770.64, 8351.59, -10114.59, 5634.90, 26266.36, 0.00, 0.000, 0.000, 0.000, 13:25:14.347
174, 0.00, 22339.32, 13771.29, 8362.23, -9930.23, 5641.31, 26271.30, 0.00, 0.032, -0.036, 0.988, 13:25:14.347
175, 0.00, 22346.29, 13778.35, 8275.51, -9680.94, 5649.31, 26259.97, 0.00, 0.000, 0.000, 0.000, 13:25:14.347
176, 0.00, 22347.83, 13780.30, 8226.31, -9657.27, 5648.26, 26246.60, 0.00, 0.000, 0.000, 0.000, 13:25:14.348
177, 0.00, 22342.76, 13774.96, 8271.71, -9910.92, 5641.85, 26251.07, 0.00, 0.000, 0.000, 0.000, 13:25:14.348
178, 0.00, 22339.96, 13771.58, 8354.46, -10105.67, 5638.54, 26269.78, 0.00, 0.000, 0.000, 0.000, 13:25:14.348
179, 0.00, 22341.22, 13773.68, 8367.24, -9933.81, 5644.73, 26274.94, 0.00, 0.000, 0.000, 0.000, 13:25:14.348
180, 0.00, 22347.90, 13778.96, 8285.52, -9678.10, 5652.78, 26260.30, 0.00, 0.000, 0.000, 0.000, 13:25:14.351
181, 0.00, 22347.74, 13777.26, 8229.17, -9651.30, 5649.09, 26246.85, 0.00, 0.000, 0.000, 0.000, 13:25:14.351
182, 0.00, 22341.89, 13772.21, 8266.75, -9911.41, 5640.08, 26250.18, 0.00, 0.000, 0.000, 0.000, 13:25:14.351
183, 0.00, 22335.83, 13766.55, 8347.84, -10110.63, 5634.58, 26264.35, 0.00, 0.000, 0.000, 0.000, 13:25:14.351
184, 0.00, 22338.87, 13770.17, 8364.27, -9935.39, 5640.42, 26270.92, 0.00, 0.032, -0.038, 0.984, 13:25:14.352
185, 0.00, 22345.35, 13777.59, 8282.75, -9682.80, 5648.58, 26258.98, 0.00, 0.000, 0.000, 0.000, 13:25:14.352
186, 0.00, 22345.22, 13778.42, 8226.80, -9660.85, 5646.23, 26245.10, 0.00, 0.000, 0.000, 0.000, 13:25:14.352
187, 0.00, 22341.64, 13773.17, 8268.65, -9918.03, 5636.77, 26249.33, 0.00, 0.000, 0.000, 0.000, 13:25:14.352
188, 0.00, 22337.17, 13768.41, 8355.69, -10109.67, 5632.21, 26264.84, 0.00, 0.000, 0.000, 0.000, 13:25:14.353
189, 0.00, 22339.85, 13769.72, 8368.29, -9933.92, 5640.37, 26271.52, 0.00, 0.000, 0.000, 0.000, 13:25:14.353
190, 0.00, 22346.36, 13775.74, 8282.66, -9677.88, 5649.07, 26258.47, 0.00, 0.000, 0.000, 0.000, 13:25:14.353
191, 0.00, 22348.41, 13778.60, 8226.72, -9647.59, 5647.17, 26245.66, 0.00, 0.000, 0.000, 0.000, 13:25:14.353
192, 0.00, 22343.50, 13773.70, 8262.81, -9909.98, 5637.13, 26250.20, 0.00, 0.000, 0.000, 0.000, 13:25:14.354
193, 0.00, 22339.29, 13769.14, 8347.39, -10114.10, 5632.37, 26266.34, 0.00, 0.000, 0.000, 0.000, 13:25:14.354
194, 0.00, 22341.02, 13769.14, 8364.47, -9941.07, 5637.53, 26272.04, 0.00, 0.028, -0.034, 0.982, 13:25:14.354
195, 0.00, 22346.85, 13775.04, 8278.26, -9686.40, 5646.36, 26260.08, 0.00, 0.000, 0.000, 0.000, 13:25:14.355
196, 0.00, 22347.81, 13777.06, 8222.69, -9658.77, 5644.17, 26247.41, 0.00, 0.000, 0.000, 0.000, 13:25:14.355
197, 0.00, 22343.27, 13771.80, 8263.15, -9914.34, 5634.49, 26251.14, 0.00, 0.000, 0.000, 0.000, 13:25:14.355
198, 0.00, 22338.09, 13767.02, 8347.39, -10121.14, 5631.59, 26266.21, 0.00, 0.000, 0.000, 0.000, 13:25:14.356
199, 0.00, 22340.90, 13768.70, 8367.62, -9946.62, 5638.54, 26273.56, 0.00, 0.000, 0.000, 0.000, 13:25:14.356
200, 0.00, 22346.85, 13774.33, 8283.31, -9685.41, 5646.52, 26261.35, 0.00, 0.000, 0.000, 0.000, 13:25:14.356
201, 0.00, 22348.19, 13776.39, 8223.18, -9650.28, 5646.07, 26246.78, 0.00, 0.000, 0.000, 0.000, 13:25:14.356
202, 0.00, 22343.25, 13773.66, 8265.07, -9905.31, 5636.01, 26249.80, 0.00, 0.000, 0.000, 0.000, 13:25:14.357
203, 0.00, 22338.51, 13768.54, 8352.02, -10111.17, 5631.50, 26265.56, 0.00, 0.000, 0.000, 0.000, 13:25:14.357
204, 0.00, 22341.60, 13768.58, 8367.73, -9943.60, 5637.27, 26272.80, 0.00, 0.030, -0.036, 0.988, 13:25:14.357
205, 0.00, 22347.65, 13773.73, 8277.61, -9696.48, 5643.39, 26260.55, 0.00, 0.000, 0.000, 0.000, 13:25:14.357
206, 0.00, 22350.02, 13776.25, 8224.53, -9659.24, 5642.61, 26247.92, 0.00, 0.000, 0.000, 0.000, 13:25:14.358
207, 0.00, 22346.29, 13771.36, 8260.31, -9911.37, 5634.90, 26252.88, 0.00, 0.000, 0.000, 0.000, 13:25:14.358
208, 0.00, 22341.91, 13767.31, 8341.94, -10122.97, 5632.42, 26269.63, 0.00, 0.000, 0.000, 0.000, 13:25:14.358
209, 0.00, 22343.27, 13770.06, 8369.95, -9949.70, 5641.02, 26276.44, 0.00, 0.000, 0.000, 0.000, 13:25:14.808
210, 0.00, 22350.16, 13777.12, 8288.65, -9687.76, 5648.91, 26265.49, 0.00, 0.000, 0.000, 0.000, 13:25:14.808
211, 0.00, 22351.36, 13779.76, 8230.60, -9652.11, 5647.32, 26250.31, 0.00, 0.000, 0.000, 0.000, 13:25:14.808
212, 0.00, 22346.22, 13775.85, 8272.36, -9897.71, 5638.99, 26252.64, 0.00, 0.000, 0.000, 0.000, 13:25:14.808
213, 0.00, 22341.60, 13770.26, 8354.41, -10110.52, 5635.84, 26269.00, 0.00, 0.000, 0.000, 0.000, 13:25:14.809
214, 0.00, 22341.64, 13769.68, 8369.61, -9954.24, 5640.08, 26274.12, 0.00, 0.028, -0.040, 0.992, 13:25:14.810
215, 0.00, 22347.47, 13774.37, 8285.66, -9696.72, 5646.41, 26261.76, 0.00, 0.000, 0.000, 0.000, 13:25:14.810
216, 0.00, 22348.90, 13777.03, 8229.38, -9654.92, 5645.89, 26247.61, 0.00, 0.000, 0.000, 0.000, 13:25:14.810
217, 0.00, 22343.23, 13771.54, 8262.77, -9908.80, 5636.53, 26250.20, 0.00, 0.000, 0.000, 0.000, 13:25:14.810
218, 0.00, 22339.09, 13765.75, 8346.32, -10123.46, 5632.73, 26266.76, 0.00, 0.000, 0.000, 0.000, 13:25:14.810
219, 0.00, 22338.29, 13764.74, 8365.99, -9958.06, 5636.75, 26272.33, 0.00, 0.000, 0.000, 0.000, 13:25:14.810
220, 0.00, 22344.70, 13771.22, 8279.96, -9700.92, 5646.65, 26261.64, 0.00, 0.000, 0.000, 0.000, 13:25:14.810
221, 0.00, 22346.60, 13773.46, 8224.08, -9652.27, 5646.34, 26247.32, 0.00, 0.000, 0.000, 0.000, 13:25:14.810
222, 0.00, 22341.69, 13770.64, 8263.28, -9895.94, 5636.48, 26248.55, 0.00, 0.000, 0.000, 0.000, 13:25:14.810
223, 0.00, 22336.68, 13766.80, 8350.43, -10104.42, 5632.95, 26264.80, 0.00, 0.000, 0.000, 0.000, 13:25:14.811
224, 0.00, 22337.82, 13767.11, 8364.87, -9952.92, 5637.65, 26270.99, 0.00, 0.032, -0.034, 0.990, 13:25:14.812
225, 0.00, 22344.32, 13773.46, 8283.85, -9695.63, 5646.01, 26259.74, 0.00, 0.000, 0.000, 0.000, 13:25:14.812
226, 0.00, 22346.80, 13776.01, 8230.20, -9644.08, 5646.01, 26247.07, 0.00, 0.000, 0.000, 0.000, 13:25:14.812
227, 0.00, 22343.54, 13770.84, 8266.30, -9889.37, 5637.74, 26250.98, 0.00, 0.000, 0.000, 0.000, 13:25:14.812
228, 0.00, 22337.51, 13764.23, 8348.55, -10105.58, 5631.07, 26264.44, 0.00, 0.000, 0.000, 0.000, 13:25:14.812
229, 0.00, 22339.41, 13767.47, 8371.31, -9950.86, 5637.33, 26271.44, 0.00, 0.000, 0.000, 0.000, 13:25:14.812
230, 0.00, 22344.55, 13773.95, 8288.72, -9692.77, 5645.47, 26260.24, 0.00, 0.000, 0.000, 0.000, 13:25:14.812
231, 0.00, 22347.38, 13776.59, 8230.00, -9642.12, 5645.02, 26245.66, 0.00, 0.000, 0.000, 0.000, 13:25:14.812
232, 0.00, 22343.43, 13773.10, 8267.13, -9886.87, 5636.28, 26247.99, 0.00, 0.000, 0.000, 0.000, 13:25:14.812
233, 0.00, 22339.18, 13767.40, 8351.13, -10108.31, 5631.70, 26265.29, 0.00, 0.000, 0.000, 0.000, 13:25:14.812
234, 0.00, 22339.63, 13766.86, 8371.53, -9958.31, 5637.62, 26272.66, 0.00, 0.030, -0.034, 0.996, 13:25:14.813
235, 0.00, 22345.22, 13772.32, 8287.54, -9700.66, 5645.78, 26260.04, 0.00, 0.000, 0.000, 0.000, 13:25:14.813
236, 0.00, 22346.18, 13774.26, 8228.57, -9647.82, 5643.68, 26245.44, 0.00, 0.000, 0.000, 0.000, 13:25:14.813
237, 0.00, 22340.86, 13769.32, 8262.93, -9887.54, 5632.33, 26246.49, 0.00, 0.000, 0.000, 0.000, 13:25:14.813
238, 0.00, 22337.84, 13768.63, 8347.57, -10112.40, 5631.30, 26262.09, 0.00, 0.000, 0.000, 0.000, 13:25:14.814
239, 0.00, 22338.76, 13769.70, 8377.17, -9957.97, 5639.70, 26269.04, 0.00, 0.000, 0.000, 0.000, 13:25:14.814
240, 0.00, 22343.92, 13773.39, 8291.89, -9701.73, 5645.89, 26257.17, 0.00, 0.000, 0.000, 0.000, 13:25:14.815
241, 0.00, 22346.07, 13774.24, 8231.23, -9646.28, 5645.51, 26244.03, 0.00, 0.000, 0.000, 0.000, 13:25:14.815
242, 0.00, 22341.89, 13770.04, 8264.87, -9886.31, 5638.09, 26247.25, 0.00, 0.000, 0.000, 0.000, 13:25:14.815
243, 0.00, 22337.13, 13764.23, 8346.57, -10109.18, 5632.48, 26263.52, 0.00, 0.000, 0.000, 0.000, 13:25:14.816
244, 0.00, 22337.46, 13764.94, 8371.04, -9959.18, 5637.24, 26270.81, 0.00, 0.030, -0.036, 0.994, 13:25:14.816
245, 0.00, 22344.99, 13773.50, 8291.98, -9700.88, 5645.69, 26260.13, 0.00, 0.000, 0.000, 0.000, 13:25:14.816
246, 0.00, 22346.31, 13775.22, 8235.52, -9639.82, 5643.55, 26244.61, 0.00, 0.000, 0.000, 0.000, 13:25:14.817
247, 0.00, 22340.88, 13769.88, 8263.84, -9884.90, 5634.23, 26246.96, 0.00, 0.000, 0.000, 0.000, 13:25:14.817
248, 0.00, 22336.01, 13764.27, 8349.47, -10109.11, 5628.88, 26262.27, 0.00, 0.000, 0.000, 0.000, 13:25:14.817
249, 0.00, 22338.31, 13764.65, 8375.78, -9960.14, 5636.04, 26271.21, 0.00, 0.000, 0.000, 0.000, 13:25:14.817
250, 0.00, 22343.41, 13768.14, 8288.94, -9704.61, 5641.31, 26258.81, 0.00, 0.000, 0.000, 0.000, 13:25:14.817
251, 0.00, 22343.90, 13771.27, 8227.54, -9649.65, 5640.10, 26243.61, 0.00, 0.000, 0.000, 0.000, 13:25:14.817
252, 0.00, 22338.85, 13767.71, 8264.20, -9884.05, 5631.77, 26244.59, 0.00, 0.000, 0.000, 0.000, 13:25:14.818
253, 0.00, 22333.50, 13760.92, 8344.58, -10113.90, 5625.55, 26261.31, 0.00, 0.000, 0.000, 0.000, 13:25:14.818
254, 0.00, 22335.61, 13761.05, 8370.59, -9967.11, 5630.76, 26268.93, 0.00, 0.030, -0.036, 0.992, 13:25:14.818
255, 0.00, 22341.48, 13770.08, 8290.46, -9707.81, 5642.00, 26258.13, 0.00, 0.000, 0.000, 0.000, 13:25:14.818
0, 0.00, 22344.28, 13773.30, 8230.45, -9644.75, 5642.99, 26242.53, 0.00, 0.000, 0.000, 0.000, 13:25:14.818
1, 0.00, 22339.96, 13768.54, 8259.71, -9886.38, 5631.88, 26243.45, 0.00, 0.000, 0.000, 0.000, 13:25:14.819
2, 0.00, 22334.55, 13764.16, 8345.25, -10113.87, 5627.23, 26260.19, 0.00, 0.000, 0.000, 0.000, 13:25:14.819
3, 0.00, 22334.78, 13763.29, 8372.29, -9969.46, 5632.39, 26267.48, 0.00, 0.000, 0.000, 0.000, 13:25:14.819
4, 0.00, 22342.11, 13767.11, 8283.65, -9717.69, 5639.37, 26257.20, 0.00, 0.000, 0.000, 0.000, 13:25:14.819
5, 0.00, 22345.42, 13772.09, 8227.61, -9650.43, 5641.71, 26244.12, 0.00, 0.000, 0.000, 0.000, 13:25:14.819
6, 0.00, 22341.82, 13771.11, 8266.08, -9881.93, 5636.46, 26247.23, 0.00, 0.000, 0.000, 0.000, 13:25:14.819
7, 0.00, 22337.44, 13765.59, 8349.43, -10114.48, 5632.44, 26264.37, 0.00, 0.000, 0.000, 0.000, 13:25:14.819
8, 0.00, 22339.09, 13765.01, 8374.59, -9979.25, 5636.80, 26272.33, 0.00, 0.028, -0.036, 0.990, 13:25:14.820
9, 0.00, 22343.34, 13769.90, 8295.22, -9714.38, 5643.41, 26260.35, 0.00, 0.000, 0.000, 0.000, 13:25:14.820
10, 0.00, 22344.21, 13772.43, 8233.02, -9641.92, 5642.23, 26245.73, 0.00, 0.000, 0.000, 0.000, 13:25:14.820
11, 0.00, 22341.84, 13770.40, 8264.24, -9876.36, 5634.79, 26247.05, 0.00, 0.000, 0.000, 0.000, 13:25:14.820
12, 0.00, 22336.66, 13765.30, 8344.38, -10114.39, 5629.94, 26262.09, 0.00, 0.000, 0.000, 0.000, 13:25:14.820
13, 0.00, 22336.77, 13764.74, 8372.65, -9978.58, 5635.37, 26270.38, 0.00, 0.000, 0.000, 0.000, 13:25:14.820
14, 0.00, 22343.56, 13771.78, 8295.80, -9712.28, 5646.01, 26259.81, 0.00, 0.000, 0.000, 0.000, 13:25:14.821
15, 0.00, 22345.78, 13774.58, 8234.65, -9639.48, 5646.48, 26245.71, 0.00, 0.000, 0.000, 0.000, 13:25:14.821
16, 0.00, 22340.59, 13769.84, 8261.47, -9872.70, 5635.97, 26246.85, 0.00, 0.000, 0.000, 0.000, 13:25:14.822
17, 0.00, 22336.72, 13765.48, 8340.04, -10115.06, 5632.06, 26263.70, 0.00, 0.000, 0.000, 0.000, 13:25:14.822
18, 0.00, 22337.24, 13765.28, 8376.65, -9972.21, 5637.78, 26271.84, 0.00, 0.030, -0.036, 0.992, 13:25:14.825
19, 0.00, 22342.27, 13768.47, 8296.25, -9704.64, 5644.80, 26259.12, 0.00, 0.000, 0.000, 0.000, 13:25:14.825
20, 0.00, 22344.32, 13771.65, 8231.28, -9635.79, 5643.55, 26243.85, 0.00, 0.000, 0.000, 0.000, 13:25:14.825
21, 0.00, 22339.34, 13766.80, 8260.62, -9868.05, 5632.57, 26244.57, 0.00, 0.000, 0.000, 0.000, 13:25:14.826
22, 0.00, 22333.37, 13759.49, 8341.18, -10109.54, 5627.41, 26260.13, 0.00, 0.000, 0.000, 0.000, 13:25:14.826
23, 0.00, 22332.52, 13760.14, 8373.97, -9975.34, 5632.62, 26267.08, 0.00, 0.000, 0.000, 0.000, 13:25:14.826
24, 0.00, 22339.81, 13767.53, 8299.40, -9704.43, 5642.63, 26257.40, 0.00, 0.000, 0.000, 0.000, 13:25:14.826
25, 0.00, 22341.78, 13769.41, 8231.21, -9631.75, 5642.47, 26242.65, 0.00, 0.000, 0.000, 0.000, 13:25:14.826
26, 0.00, 22337.71, 13763.85, 8256.38, -9859.89, 5633.06, 26243.56, 0.00, 0.000, 0.000, 0.000, 13:25:14.826
27, 0.00, 22333.82, 13760.76, 8337.40, -10101.96, 5629.02, 26259.46, 0.00, 0.000, 0.000, 0.000, 13:25:14.826
28, 0.00, 22336.14, 13762.37, 8374.73, -9969.46, 5633.85, 26267.50, 0.00, 0.036, -0.032, 0.994, 13:25:14.826
29, 0.00, 22341.60, 13770.33, 8299.85, -9706.78, 5642.72, 26256.50, 0.00, 0.000, 0.000, 0.000, 13:25:14.827
30, 0.00, 22342.71, 13774.62, 8237.38, -9635.72, 5644.58, 26242.13, 0.00, 0.000, 0.000, 0.000, 13:25:14.827
31, 0.00, 22338.18, 13769.95, 8268.09, -9863.94, 5634.94, 26243.50, 0.00, 0.000, 0.000, 0.000, 13:25:14.828
32, 0.00, 22332.39, 13763.91, 8349.58, -10104.80, 5629.67, 26259.41, 0.00, 0.000, 0.000, 0.000, 13:25:14.828
33, 0.00, 22334.06, 13763.58, 8379.53, -9978.44, 5635.50, 26268.02, 0.00, 0.000, 0.000, 0.000, 13:25:14.828
34, 0.00, 22339.14, 13768.92, 8300.05, -9716.26, 5643.23, 26256.01, 0.00, 0.000, 0.000, 0.000, 13:25:14.828
35, 0.00, 22339.92, 13770.37, 8234.16, -9637.60, 5642.45, 26240.81, 0.00, 0.000, 0.000, 0.000, 13:25:14.828
36, 0.00, 22335.49, 13767.53, 8261.81, -9866.60, 5634.52, 26241.19, 0.00, 0.000, 0.000, 0.000, 13:25:14.828
37, 0.00, 22329.95, 13761.88, 8345.65, -10106.88, 5627.92, 26255.45, 0.00, 0.000, 0.000, 0.000, 13:25:14.828
38, 0.00, 22332.74, 13763.71, 8379.83, -9978.53, 5636.24, 26266.52, 0.00, 0.032, -0.036, 0.996, 13:25:14.828
39, 0.00, 22338.42, 13769.99, 8300.72, -9716.84, 5646.88, 26255.81, 0.00, 0.000, 0.000, 0.000, 13:25:14.828
40, 0.00, 22340.52, 13774.69, 8239.63, -9629.20, 5648.49, 26240.25, 0.00, 0.000, 0.000, 0.000, 13:25:14.829
41, 0.00, 22337.01, 13771.67, 8265.47, -9853.52, 5639.14, 26241.30, 0.00, 0.000, 0.000, 0.000, 13:25:14.829
42, 0.00, 22331.09, 13765.05, 8345.02, -10103.90, 5632.15, 26256.66, 0.00, 0.000, 0.000, 0.000, 13:25:14.829
43, 0.00, 22329.48, 13764.03, 8383.16, -9975.94, 5636.73, 26263.66, 0.00, 0.000, 0.000, 0.000, 13:25:14.829
44, 0.00, 22333.86, 13768.90, 8303.43, -9714.13, 5643.95, 26251.92, 0.00, 0.000, 0.000, 0.000, 13:25:14.830
45, 0.00, 22335.99, 13769.88, 8236.39, -9630.61, 5642.68, 26237.21, 0.00, 0.000, 0.000, 0.000, 13:25:14.830
46, 0.00, 22332.70, 13764.85, 8256.69, -9861.08, 5633.85, 26238.40, 0.00, 0.000, 0.000, 0.000, 13:25:14.830
47, 0.00, 22327.29, 13759.71, 8342.43, -10110.23, 5629.09, 26253.04, 0.00, 0.000, 0.000, 0.000, 13:25:14.830
48, 0.00, 22328.36, 13760.34, 8382.24, -9987.43, 5635.17, 26262.31, 0.00, 0.032, -0.032, 0.992, 13:25:14.830
49, 0.00, 22335.47, 13765.57, 8304.70, -9725.71, 5643.37, 26253.20, 0.00, 0.000, 0.000, 0.000, 13:25:14.830
50, 0.00, 22336.46, 13764.87, 8234.67, -9642.27, 5641.87, 26236.79, 0.00, 0.000, 0.000, 0.000, 13:25:14.831
51, 0.00, 22333.10, 13763.49, 8259.82, -9862.13, 5633.69, 26236.68, 0.00, 0.000, 0.000, 0.000, 13:25:14.831
52, 0.00, 22328.95, 13762.66, 8346.63, -10111.91, 5627.50, 26252.93, 0.00, 0.000, 0.000, 0.000, 13:25:14.831
53, 0.00, 22328.07, 13764.07, 8389.48, -9989.46, 5632.91, 26263.14, 0.00, 0.000, 0.000, 0.000, 13:25:14.831
54, 0.00, 22332.21, 13770.86, 8315.83, -9721.13, 5641.87, 26252.93, 0.00, 0.000, 0.000, 0.000, 13:25:14.831
55, 0.00, 22334.60, 13774.11, 8248.64, -9630.41, 5642.65, 26236.01, 0.00, 0.000, 0.000, 0.000, 13:25:14.831
56, 0.00, 22332.45, 13772.27, 8272.27, -9850.95, 5634.92, 26236.37, 0.00, 0.000, 0.000, 0.000, 13:25:14.831
57, 0.00, 22326.69, 13765.39, 8351.06, -10105.38, 5628.37, 26250.42, 0.00, 0.000, 0.000, 0.000, 13:25:14.832
58, 0.00, 22327.45, 13764.16, 8387.04, -9992.84, 5632.95, 26260.75, 0.00, 0.028, -0.034, 0.992, 13:25:14.832
59, 0.00, 22333.35, 13768.70, 8309.19, -9732.93, 5640.37, 26251.21, 0.00, 0.000, 0.000, 0.000, 13:25:14.832
60, 0.00, 22335.90, 13770.02, 8248.80, -9628.48, 5639.93, 26235.67, 0.00, 0.000, 0.000, 0.000, 13:25:14.832
61, 0.00, 22331.36, 13764.72, 8264.92, -9850.66, 5630.54, 26235.27, 0.00, 0.000, 0.000, 0.000, 13:25:14.832
62, 0.00, 22326.69, 13758.17, 8339.75, -10113.07, 5624.44, 26250.85, 0.00, 0.000, 0.000, 0.000, 13:25:14.833
63, 0.00, 22326.82, 13758.35, 8381.97, -9995.90, 5629.91, 26260.19, 0.00, 0.000, 0.000, 0.000, 13:25:14.833
64, 0.00, 22330.82, 13765.90, 8309.51, -9727.68, 5638.47, 26248.64, 0.00, 0.000, 0.000, 0.000, 13:25:14.833
65, 0.00, 22332.99, 13769.75, 8245.04, -9627.81, 5638.47, 26232.81, 0.00, 0.000, 0.000, 0.000, 13:25:14.833
66, 0.00, 22329.68, 13767.18, 8267.69, -9841.81, 5632.55, 26232.97, 0.00, 0.000, 0.000, 0.000, 13:25:14.833
67, 0.00, 22324.45, 13763.04, 8344.89, -10105.00, 5628.15, 26247.38, 0.00, 0.000, 0.000, 0.000, 13:25:14.833
68, 0.00, 22325.08, 13761.32, 8384.61, -9996.17, 5632.15, 26258.13, 0.00, 0.030, -0.032, 0.990, 13:25:14.833
69, 0.00, 22330.55, 13766.68, 8307.25, -9733.63, 5639.14, 26247.85, 0.00, 0.000, 0.000, 0.000, 13:25:14.833
70, 0.00, 22333.79, 13769.10, 8241.47, -9634.03, 5637.04, 26232.03, 0.00, 0.000, 0.000, 0.000, 13:25:14.833
71, 0.00, 22329.64, 13765.77, 8264.16, -9842.97, 5628.57, 26231.87, 0.00, 0.000, 0.000, 0.000, 13:25:14.834
72, 0.00, 22325.55, 13760.65, 8343.55, -10104.24, 5623.72, 26248.72, 0.00, 0.000, 0.000, 0.000, 13:25:14.834
73, 0.00, 22327.25, 13760.58, 8389.50, -9993.13, 5629.53, 26260.06, 0.00, 0.000, 0.000, 0.000, 13:25:14.834
74, 0.00, 22333.73, 13765.79, 8312.86, -9729.31, 5640.48, 26251.68, 0.00, 0.000, 0.000, 0.000, 13:25:15.289
75, 0.00, 22335.16, 13768.47, 8245.00, -9629.96, 5641.96, 26236.19, 0.00, 0.000, 0.000, 0.000, 13:25:15.289
76, 0.00, 22331.20, 13765.34, 8266.75, -9841.23, 5633.44, 26235.54, 0.00, 0.000, 0.000, 0.000, 13:25:15.289
77, 0.00, 22325.79, 13760.47, 8343.53, -10106.61, 5627.30, 26250.09, 0.00, 0.000, 0.000, 0.000, 13:25:15.290
78, 0.00, 22324.34, 13760.49, 8388.25, -10001.27, 5631.99, 26258.11, 0.00, 0.034, -0.038, 0.988, 13:25:15.290
79, 0.00, 22329.19, 13766.55, 8316.70, -9733.20, 5640.44, 26246.96, 0.00, 0.000, 0.000, 0.000, 13:25:15.290
80, 0.00, 22331.22, 13769.19, 8250.01, -9630.03, 5639.84, 26230.64, 0.00, 0.000, 0.000, 0.000, 13:25:15.290
81, 0.00, 22330.73, 13766.28, 8269.79, -9840.27, 5632.15, 26232.92, 0.00, 0.000, 0.000, 0.000, 13:25:15.290
82, 0.00, 22327.31, 13760.07, 8345.27, -10104.42, 5626.56, 26249.98, 0.00, 0.000, 0.000, 0.000, 13:25:15.291
83, 0.00, 22327.56, 13759.24, 8386.02, -10003.59, 5630.87, 26259.30, 0.00, 0.000, 0.000, 0.000, 13:25:15.291
84, 0.00, 22334.04, 13765.17, 8313.46, -9736.51, 5637.78, 26251.59, 0.00, 0.000, 0.000, 0.000, 13:25:15.291
85, 0.00, 22336.28, 13767.53, 8247.35, -9628.21, 5638.99, 26236.66, 0.00, 0.000, 0.000, 0.000, 13:25:15.291
86, 0.00, 22332.05, 13763.29, 8261.74, -9840.89, 5630.58, 26236.32, 0.00, 0.000, 0.000, 0.000, 13:25:15.291
87, 0.00, 22327.51, 13759.53, 8338.63, -10111.53, 5624.79, 26251.52, 0.00, 0.000, 0.000, 0.000, 13:25:15.292
88, 0.00, 22326.02, 13759.17, 8387.58, -10006.96, 5628.93, 26258.07, 0.00, 0.032, -0.036, 0.988, 13:25:15.292
89, 0.00, 22332.61, 13765.75, 8315.34, -9737.29, 5637.49, 26248.30, 0.00, 0.000, 0.000, 0.000, 13:25:15.292
90, 0.00, 22334.33, 13768.81, 8243.28, -9633.85, 5637.42, 26231.18, 0.00, 0.000, 0.000, 0.000, 13:25:15.292
91, 0.00, 22330.53, 13766.26, 8262.28, -9842.81, 5629.71, 26229.59, 0.00, 0.000, 0.000, 0.000, 13:25:15.293
92, 0.00, 22325.50, 13761.88, 8341.72, -10109.85, 5623.83, 26246.69, 0.00, 0.000, 0.000, 0.000, 13:25:15.293
93, 0.00, 22325.12, 13761.14, 8388.90, -10007.23, 5628.15, 26258.52, 0.00, 0.000, 0.000, 0.000, 13:25:15.293
94, 0.00, 22330.64, 13765.46, 8316.28, -9738.68, 5634.90, 26248.72, 0.00, 0.000, 0.000, 0.000, 13:25:15.293
95, 0.00, 22334.67, 13768.18, 8247.39, -9625.87, 5636.42, 26234.64, 0.00, 0.000, 0.000, 0.000, 13:25:15.293
96, 0.00, 22332.45, 13764.94, 8260.74, -9838.25, 5628.82, 26234.82, 0.00, 0.000, 0.000, 0.000, 13:25:15.294
97, 0.00, 22327.20, 13758.75, 8338.38, -10109.11, 5621.08, 26249.69, 0.00, 0.000, 0.000, 0.000, 13:25:15.294
98, 0.00, 22327.40, 13758.75, 8387.92, -10009.16, 5625.96, 26260.55, 0.00, 0.032, -0.034, 0.986, 13:25:15.295
99, 0.00, 22332.92, 13764.61, 8316.21, -9738.90, 5634.32, 26251.52, 0.00, 0.000, 0.000, 0.000, 13:25:15.295
100, 0.00, 22334.09, 13767.65, 8244.62, -9627.21, 5636.06, 26233.93, 0.00, 0.000, 0.000, 0.000, 13:25:15.295
101, 0.00, 22330.20, 13764.85, 8259.66, -9834.12, 5627.14, 26231.51, 0.00, 0.000, 0.000, 0.000, 13:25:15.295
102, 0.00, 22325.17, 13758.97, 8333.65, -10109.89, 5621.62, 26246.60, 0.00, 0.000, 0.000, 0.000, 13:25:15.295
103, 0.00, 22327.04, 13759.02, 8381.61, -10021.45, 5625.51, 26257.89, 0.00, 0.000, 0.000, 0.000, 13:25:15.296
104, 0.00, 22334.29, 13765.01, 8311.14, -9756.45, 5634.65, 26250.22, 0.00, 0.000, 0.000, 0.000, 13:25:15.298
105, 0.00, 22335.81, 13766.48, 8243.14, -9635.66, 5633.20, 26234.53, 0.00, 0.000, 0.000, 0.000, 13:25:15.298
106, 0.00, 22332.14, 13761.48, 8255.79, -9835.91, 5622.89, 26233.21, 0.00, 0.000, 0.000, 0.000, 13:25:15.298
107, 0.00, 22328.14, 13757.74, 8327.99, -10116.87, 5618.42, 26249.60, 0.00, 0.000, 0.000, 0.000, 13:25:15.298
108, 0.00, 22327.45, 13757.36, 8383.22, -10024.09, 5623.27, 26260.44, 0.00, 0.032, -0.032, 0.988, 13:25:15.299
109, 0.00, 22332.25, 13761.70, 8316.88, -9747.35, 5630.87, 26250.42, 0.00, 0.000, 0.000, 0.000, 13:25:15.299
110, 0.00, 22333.19, 13764.56, 8244.87, -9626.81, 5631.57, 26232.30, 0.00, 0.000, 0.000, 0.000, 13:25:15.299
111, 0.00, 22329.35, 13762.17, 8260.67, -9825.49, 5623.63, 26231.02, 0.00, 0.000, 0.000, 0.000, 13:25:15.299
112, 0.00, 22325.62, 13758.50, 8334.83, -10101.40, 5619.90, 26247.74, 0.00, 0.000, 0.000, 0.000, 13:25:15.300
113, 0.00, 22324.77, 13755.96, 8379.94, -10023.08, 5624.68, 26258.96, 0.00, 0.000, 0.000, 0.000, 13:25:15.300
114, 0.00, 22329.59, 13760.49, 8312.97, -9753.12, 5631.66, 26251.03, 0.00, 0.000, 0.000, 0.000, 13:25:15.300
115, 0.00, 22332.65, 13764.67, 8246.43, -9630.00, 5633.22, 26232.97, 0.00, 0.000, 0.000, 0.000, 13:25:15.301
116, 0.00, 22329.48, 13762.44, 8261.50, -9821.11, 5627.36, 26230.24, 0.00, 0.000, 0.000, 0.000, 13:25:15.301
117, 0.00, 22325.26, 13758.97, 8336.84, -10098.61, 5621.42, 26246.47, 0.00, 0.000, 0.000, 0.000, 13:25:15.301
118, 0.00, 22323.87, 13758.01, 8389.82, -10017.56, 5627.10, 26256.44, 0.00, 0.034, -0.036, 0.992, 13:25:15.301
119, 0.00, 22328.41, 13763.56, 8322.72, -9750.99, 5633.71, 26246.18, 0.00, 0.000, 0.000, 0.000, 13:25:15.302
120, 0.00, 22329.64, 13766.19, 8251.66, -9629.67, 5632.17, 26228.30, 0.00, 0.000, 0.000, 0.000, 13:25:15.302
121, 0.00, 22327.63, 13762.66, 8263.86, -9824.31, 5625.44, 26228.14, 0.00, 0.000, 0.000, 0.000, 13:25:15.302
122, 0.00, 22323.04, 13756.76, 8336.33, -10105.69, 5620.21, 26244.48, 0.00, 0.000, 0.000, 0.000, 13:25:15.303
123, 0.00, 22320.83, 13754.28, 8387.45, -10029.70, 5622.31, 26253.84, 0.00, 0.000, 0.000, 0.000, 13:25:15.303
124, 0.00, 22325.23, 13757.16, 8319.01, -9758.93, 5628.24, 26244.37, 0.00, 0.000, 0.000, 0.000, 13:25:15.303
125, 0.00, 22328.88, 13760.67, 8244.17, -9637.40, 5628.59, 26228.97, 0.00, 0.000, 0.000, 0.000, 13:25:15.303
126, 0.00, 22324.34, 13757.92, 8259.26, -9824.11, 5619.47, 26226.82, 0.00, 0.000, 0.000, 0.000, 13:25:15.303
127, 0.00, 22320.81, 13753.68, 8330.32, -10108.42, 5615.12, 26243.63, 0.00, 0.000, 0.000, 0.000, 13:25:15.303
128, 0.00, 22320.41, 13751.98, 8382.75, -10035.53, 5619.18, 26253.89, 0.00, 0.028, -0.032, 0.988, 13:25:15.303
129, 0.00, 22327.02, 13758.42, 8318.34, -9764.00, 5629.26, 26247.45, 0.00, 0.000, 0.000, 0.000, 13:25:15.304
130, 0.00, 22329.12, 13760.61, 8250.36, -9624.28, 5630.18, 26230.78, 0.00, 0.000, 0.000, 0.000, 13:25:15.304
131, 0.00, 22327.34, 13756.02, 8256.02, -9814.47, 5622.67, 26228.45, 0.00, 0.000, 0.000, 0.000, 13:25:15.304
132, 0.00, 22324.12, 13751.33, 8328.17, -10098.72, 5617.69, 26244.34, 0.00, 0.000, 0.000, 0.000, 13:25:15.304
133, 0.00, 22321.19, 13750.19, 8380.96, -10028.49, 5619.36, 26253.64, 0.00, 0.000, 0.000, 0.000, 13:25:15.304
134, 0.00, 22326.40, 13757.61, 8319.61, -9755.89, 5627.14, 26246.87, 0.00, 0.000, 0.000, 0.000, 13:25:15.305
135, 0.00, 22328.97, 13763.18, 8252.96, -9615.63, 5629.31, 26231.51, 0.00, 0.000, 0.000, 0.000, 13:25:15.305
136, 0.00, 22328.14, 13759.93, 8260.38, -9805.62, 5623.52, 26229.30, 0.00, 0.000, 0.000, 0.000, 13:25:15.305
137, 0.00, 22322.22, 13751.87, 8326.43, -10093.62, 5616.39, 26242.20, 0.00, 0.000, 0.000, 0.000, 13:25:15.305
138, 0.00, 22320.88, 13751.11, 8379.74, -10025.43, 5621.11, 26253.67, 0.00, 0.034, -0.034, 0.990, 13:25:15.305
139, 0.00, 22328.52, 13758.55, 8318.36, -9759.11, 5632.21, 26247.92, 0.00, 0.000, 0.000, 0.000, 13:25:15.305
140, 0.00, 22331.16, 13762.93, 8250.61, -9624.12, 5632.46, 26232.25, 0.00, 0.000, 0.000, 0.000, 13:25:15.305
141, 0.00, 22328.01, 13760.00, 8258.37, -9812.46, 5623.65, 26230.49, 0.00, 0.000, 0.000, 0.000, 13:25:15.305
142, 0.00, 22323.40, 13754.17, 8328.89, -10097.15, 5618.20, 26245.60, 0.00, 0.000, 0.000, 0.000, 13:25:15.306
143, 0.00, 22321.57, 13750.90, 8378.73, -10031.31, 5620.21, 26255.30, 0.00, 0.000, 0.000, 0.000, 13:25:15.306
144, 0.00, 22326.44, 13756.65, 8314.13, -9764.56, 5628.93, 26247.43, 0.00, 0.000, 0.000, 0.000, 13:25:15.306
145, 0.00, 22329.97, 13759.53, 8241.16, -9626.85, 5630.07, 26231.63, 0.00, 0.000, 0.000, 0.000, 13:25:15.306
146, 0.00, 22325.82, 13754.77, 8244.73, -9812.04, 5621.53, 26227.51, 0.00, 0.000, 0.000, 0.000, 13:25:15.306
147, 0.00, 22322.42, 13750.61, 8314.87, -10098.27, 5616.81, 26242.60, 0.00, 0.000, 0.000, 0.000, 13:25:15.306
148, 0.00, 22321.93, 13748.65, 8367.98, -10038.15, 5619.21, 26253.98, 0.00, 0.042, -0.026, 0.994, 13:25:15.306
149, 0.00, 22328.63, 13755.08, 8308.30, -9766.55, 5628.26, 26246.40, 0.00, 0.000, 0.000, 0.000, 13:25:15.306
150, 0.00, 22331.83, 13760.02, 8237.91, -9626.63, 5630.94, 26232.34, 0.00, 0.000, 0.000, 0.000, 13:25:15.306
151, 0.00, 22329.12, 13757.90, 8245.22, -9809.84, 5625.00, 26230.35, 0.00, 0.000, 0.000, 0.000, 13:25:15.307
152, 0.00, 22323.60, 13751.98, 8317.46, -10091.90, 5617.22, 26243.45, 0.00, 0.000, 0.000, 0.000, 13:25:15.307
153, 0.00, 22322.42, 13750.50, 8369.36, -10037.14, 5618.63, 26254.36, 0.00, 0.000, 0.000, 0.000, 13:25:15.307
154, 0.00, 22328.21, 13755.89, 8309.17, -9767.26, 5626.00, 26248.50, 0.00, 0.000, 0.000, 0.000, 13:25:15.307
155, 0.00, 22331.31, 13757.79, 8235.86, -9622.07, 5628.42, 26232.32, 0.00, 0.000, 0.000, 0.000, 13:25:15.308
156, 0.00, 22328.92, 13755.24, 8237.11, -9811.50, 5621.69, 26231.29, 0.00, 0.000, 0.000, 0.000, 13:25:15.308
157, 0.00, 22324.21, 13750.64, 8310.67, -10100.75, 5616.26, 26245.35, 0.00, 0.000, 0.000, 0.000, 13:25:15.308
158, 0.00, 22324.83, 13749.32, 8370.10, -10042.39, 5617.91, 26257.13, 0.00, 0.036, -0.030, 0.990, 13:25:15.308
159, 0.00, 22331.74, 13752.40, 8303.00, -9778.69, 5626.85, 26251.68, 0.00, 0.000, 0.000, 0.000, 13:25:15.308
160, 0.00, 22334.38, 13758.57, 8234.18, -9633.85, 5631.10, 26236.28, 0.00, 0.000, 0.000, 0.000, 13:25:15.308
161, 0.00, 22331.52, 13756.72, 8243.37, -9807.50, 5623.05, 26232.90, 0.00, 0.000, 0.000, 0.000, 13:25:15.308
162, 0.00, 22326.33, 13752.04, 8315.70, -10098.25, 5616.28, 26247.65, 0.00, 0.000, 0.000, 0.000, 13:25:15.308
163, 0.00, 22324.32, 13749.76, 8372.43, -10045.75, 5619.52, 26258.49, 0.00, 0.000, 0.000, 0.000, 13:25:15.308
164, 0.00, 22330.13, 13754.01, 8307.20, -9774.98, 5628.01, 26251.54, 0.00, 0.000, 0.000, 0.000, 13:25:15.308
165, 0.00, 22333.44, 13760.81, 8238.81, -9629.22, 5631.83, 26235.13, 0.00, 0.000, 0.000, 0.000, 13:25:15.310
166, 0.00, 22330.40, 13760.00, 8246.25, -9807.01, 5625.62, 26231.69, 0.00, 0.000, 0.000, 0.000, 13:25:15.310
167, 0.00, 22326.29, 13755.69, 8318.27, -10093.89, 5619.18, 26247.29, 0.00, 0.000, 0.000, 0.000, 13:25:15.310
168, 0.00, 22325.82, 13753.94, 8374.91, -10045.14, 5623.97, 26259.63, 0.00, 0.028, -0.032, 0.996, 13:25:15.311
169, 0.00, 22329.77, 13758.35, 8315.94, -9773.68, 5631.28, 26250.92, 0.00, 0.000, 0.000, 0.000, 13:25:15.311
170, 0.00, 22333.66, 13761.19, 8241.20, -9625.87, 5630.83, 26235.43, 0.00, 0.000, 0.000, 0.000, 13:25:15.311
171, 0.00, 22330.46, 13757.41, 8245.96, -9794.06, 5623.34, 26231.29, 0.00, 0.000, 0.000, 0.000, 13:25:15.311
172, 0.00, 22328.90, 13753.23, 8313.71, -10089.15, 5619.05, 26249.24, 0.00, 0.000, 0.000, 0.000, 13:25:15.311
173, 0.00, 22326.53, 13749.03, 8373.88, -10040.83, 5620.88, 26260.26, 0.00, 0.000, 0.000, 0.000, 13:25:15.311
174, 0.00, 22331.63, 13755.38, 8314.16, -9773.10, 5628.97, 26253.78, 0.00, 0.000, 0.000, 0.000, 13:25:15.311
175, 0.00, 22334.15, 13759.17, 8240.37, -9625.09, 5630.05, 26236.90, 0.00, 0.000, 0.000, 0.000, 13:25:15.311
176, 0.00, 22331.58, 13757.12, 8242.67, -9798.24, 5623.68, 26233.04, 0.00, 0.000, 0.000, 0.000, 13:25:15.312
177, 0.00, 22327.49, 13753.05, 8311.32, -10096.35, 5617.86, 26247.45, 0.00, 0.030, -0.030, 0.990, 13:25:15.312
178, 0.00, 22326.22, 13751.22, 8370.79, -10052.27, 5620.97, 26259.81, 0.00, 0.000, 0.000, 0.000, 13:25:15.312
179, 0.00, 22331.13, 13756.22, 8311.34, -9784.88, 5630.43, 26252.68, 0.00, 0.000, 0.000, 0.000, 13:25:15.312
180, 0.00, 22335.11, 13761.61, 8240.78, -9631.41, 5631.37, 26236.39, 0.00, 0.000, 0.000, 0.000, 13:25:15.312
181, 0.00, 22332.83, 13759.89, 8243.52, -9800.66, 5624.24, 26233.04, 0.00, 0.000, 0.000, 0.000, 13:25:15.312
182, 0.00, 22327.76, 13754.17, 8313.89, -10090.00, 5617.80, 26247.63, 0.00, 0.000, 0.000, 0.000, 13:25:15.313
183, 0.00, 22326.29, 13752.11, 8373.77, -10046.82, 5620.99, 26260.39, 0.00, 0.000, 0.000, 0.000, 13:25:15.313
184, 0.00, 22331.61, 13759.51, 8318.63, -9777.59, 5631.25, 26254.04, 0.00, 0.000, 0.000, 0.000, 13:25:15.313
185, 0.00, 22333.39, 13760.83, 8239.84, -9624.44, 5631.57, 26235.45, 0.00, 0.000, 0.000, 0.000, 13:25:15.313
186, 0.00, 22330.60, 13756.58, 8236.75, -9798.02, 5624.30, 26231.07, 0.00, 0.000, 0.000, 0.000, 13:25:15.313
187, 0.00, 22326.29, 13752.54, 8312.68, -10086.56, 5619.14, 26245.62, 0.00, 0.028, -0.034, 0.996, 13:25:15.313
188, 0.00, 22326.40, 13753.56, 8377.57, -10044.29, 5623.59, 26259.97, 0.00, 0.000, 0.000, 0.000, 13:25:15.314
189, 0.00, 22332.39, 13760.96, 8322.05, -9779.89, 5632.33, 26252.88, 0.00, 0.000, 0.000, 0.000, 13:25:15.314
190, 0.00, 22337.57, 13763.76, 8249.40, -9621.29, 5635.50, 26237.35, 0.00, 0.000, 0.000, 0.000, 13:25:15.314
191, 0.00, 22333.59, 13760.27, 8249.89, -9786.82, 5629.76, 26232.65, 0.00, 0.000, 0.000, 0.000, 13:25:15.314
192, 0.00, 22328.36, 13756.36, 8325.33, -10075.05, 5622.54, 26247.18, 0.00, 0.000, 0.000, 0.000, 13:25:15.314
193, 0.00, 22325.79, 13753.56, 8388.50, -10036.85, 5623.39, 26257.89, 0.00, 0.000, 0.000, 0.000, 13:25:15.314
194, 0.00, 22331.54, 13759.17, 8329.91, -9775.40, 5631.77, 26251.59, 0.00, 0.000, 0.000, 0.000, 13:25:15.770
195, 0.00, 22336.68, 13763.18, 8251.46, -9618.09, 5634.16, 26237.06, 0.00, 0.000, 0.000, 0.000, 13:25:15.770
196, 0.00, 22334.94, 13759.93, 8245.47, -9785.93, 5627.68, 26234.73, 0.00, 0.000, 0.000, 0.000, 13:25:15.770
197, 0.00, 22330.91, 13757.77, 8321.15, -10075.70, 5623.16, 26250.51, 0.00, 0.036, -0.028, 0.996, 13:25:15.770
198, 0.00, 22328.65, 13754.39, 8383.60, -10043.80, 5625.87, 26262.52, 0.00, 0.000, 0.000, 0.000, 13:25:15.770
199, 0.00, 22334.62, 13757.45, 8323.25, -9784.03, 5633.22, 26255.81, 0.00, 0.000, 0.000, 0.000, 13:25:15.770
200, 0.00, 22338.76, 13759.64, 8247.37, -9622.92, 5635.68, 26240.23, 0.00, 0.000, 0.000, 0.000, 13:25:15.770
201, 0.00, 22334.94, 13757.79, 8246.32, -9782.98, 5629.29, 26234.87, 0.00, 0.000, 0.000, 0.000, 13:25:15.771
202, 0.00, 22327.58, 13752.85, 8316.86, -10074.98, 5620.64, 26247.00, 0.00, 0.000, 0.000, 0.000, 13:25:15.771
203, 0.00, 22328.27, 13751.75, 8377.17, -10050.62, 5624.32, 26262.14, 0.00, 0.000, 0.000, 0.000, 13:25:15.771
204, 0.00, 22334.20, 13758.93, 8325.87, -9785.68, 5634.81, 26256.44, 0.00, 0.000, 0.000, 0.000, 13:25:15.771
205, 0.00, 22336.57, 13760.49, 8247.44, -9623.45, 5636.66, 26239.83, 0.00, 0.000, 0.000, 0.000, 13:25:15.771
206, 0.00, 22335.52, 13758.46, 8241.80, -9785.35, 5628.15, 26236.54, 0.00, 0.000, 0.000, 0.000, 13:25:15.771
207, 0.00, 22330.31, 13756.11, 8317.15, -10081.35, 5622.25, 26249.40, 0.00, 0.034, -0.032, 0.990, 13:25:15.771
208, 0.00, 22327.85, 13753.01, 8383.78, -10051.56, 5623.99, 26261.80, 0.00, 0.000, 0.000, 0.000, 13:25:15.771
209, 0.00, 22336.05, 13760.49, 8328.30, -9785.01, 5633.67, 26258.05, 0.00, 0.000, 0.000, 0.000, 13:25:15.772
210, 0.00, 22339.63, 13763.29, 8249.38, -9623.30, 5635.34, 26241.35, 0.00, 0.000, 0.000, 0.000, 13:25:15.772
211, 0.00, 22336.39, 13761.72, 8247.86, -9779.76, 5628.53, 26236.21, 0.00, 0.000, 0.000, 0.000, 13:25:15.772
212, 0.00, 22330.64, 13756.89, 8318.04, -10074.22, 5621.04, 26249.98, 0.00, 0.000, 0.000, 0.000, 13:25:15.772
213, 0.00, 22328.79, 13756.54, 8385.21, -10052.85, 5623.61, 26262.74, 0.00, 0.000, 0.000, 0.000, 13:25:15.772
214, 0.00, 22333.06, 13759.46, 8328.33, -9789.55, 5632.33, 26256.28, 0.00, 0.000, 0.000, 0.000, 13:25:15.772
215, 0.00, 22336.61, 13766.42, 8254.75, -9621.55, 5636.64, 26241.37, 0.00, 0.000, 0.000, 0.000, 13:25:15.772
216, 0.00, 22335.56, 13764.29, 8252.35, -9775.11, 5630.23, 26238.64, 0.00, 0.000, 0.000, 0.000, 13:25:15.773
217, 0.00, 22331.05, 13754.57, 8316.01, -10074.83, 5621.55, 26251.18, 0.00, 0.034, -0.030, 0.988, 13:25:15.773
218, 0.00, 22327.67, 13749.63, 8376.25, -10054.02, 5622.16, 26261.24, 0.00, 0.000, 0.000, 0.000, 13:25:15.773
219, 0.00, 22331.69, 13761.99, 8325.51, -9794.76, 5632.55, 26255.50, 0.00, 0.000, 0.000, 0.000, 13:25:15.773
220, 0.00, 22336.19, 13766.71, 8254.19, -9625.87, 5636.64, 26240.57, 0.00, 0.000, 0.000, 0.000, 13:25:15.773
221, 0.00, 22335.11, 13766.91, 8256.42, -9774.15, 5630.20, 26236.28, 0.00, 0.000, 0.000, 0.000, 13:25:15.773
222, 0.00, 22329.86, 13760.36, 8327.16, -10071.49, 5620.30, 26250.27, 0.00, 0.000, 0.000, 0.000, 13:25:15.773
223, 0.00, 22327.02, 13756.51, 8392.14, -10050.39, 5625.62, 26262.67, 0.00, 0.000, 0.000, 0.000, 13:25:15.773
224, 0.00, 22331.25, 13760.87, 8339.95, -9781.39, 5633.04, 26255.01, 0.00, 0.000, 0.000, 0.000, 13:25:15.774
225, 0.00, 22334.98, 13762.15, 8257.09, -9611.34, 5634.45, 26238.40, 0.00, 0.000, 0.000, 0.000, 13:25:15.774
226, 0.00, 22333.10, 13759.87, 8244.15, -9771.42, 5628.24, 26234.58, 0.00, 0.000, 0.000, 0.000, 13:25:15.774
227, 0.00, 22329.24, 13753.99, 8310.24, -10074.40, 5621.08, 26248.48, 0.00, 0.038, -0.038, 0.992, 13:25:15.774
228, 0.00, 22327.00, 13751.46, 8374.84, -10064.25, 5622.54, 26261.87, 0.00, 0.000, 0.000, 0.000, 13:25:15.775
229, 0.00, 22331.13, 13759.04, 8325.44, -9804.21, 5632.13, 26257.58, 0.00, 0.000, 0.000, 0.000, 13:25:15.775
230, 0.00, 22335.76, 13764.23, 8250.88, -9632.35, 5636.04, 26242.15, 0.00, 0.000, 0.000, 0.000, 13:25:15.775
231, 0.00, 22332.43, 13760.69, 8247.55, -9776.14, 5626.56, 26235.31, 0.00, 0.000, 0.000, 0.000, 13:25:15.775
232, 0.00, 22326.58, 13755.31, 8317.96, -10068.66, 5617.57, 26247.05, 0.00, 0.000, 0.000, 0.000, 13:25:15.775
233, 0.00, 22327.11, 13754.10, 8383.33, -10060.34, 5620.08, 26260.93, 0.00, 0.000, 0.000, 0.000, 13:25:15.775
234, 0.00, 22331.40, 13757.65, 8328.21, -9805.00, 5625.87, 26254.67, 0.00, 0.000, 0.000, 0.000, 13:25:15.775
235, 0.00, 22334.06, 13762.33, 8252.31, -9627.43, 5627.23, 26239.16, 0.00, 0.000, 0.000, 0.000, 13:25:15.776
236, 0.00, 22331.54, 13761.77, 8245.85, -9773.75, 5623.52, 26233.10, 0.00, 0.000, 0.000, 0.000, 13:25:15.776
237, 0.00, 22326.60, 13756.34, 8312.79, -10076.66, 5615.25, 26245.73, 0.00, 0.032, -0.034, 0.992, 13:25:15.776
238, 0.00, 22323.40, 13752.83, 8383.09, -10064.03, 5615.94, 26258.63, 0.00, 0.000, 0.000, 0.000, 13:25:15.776
239, 0.00, 22329.57, 13758.73, 8330.03, -9801.93, 5626.22, 26254.40, 0.00, 0.000, 0.000, 0.000, 13:25:15.776
240, 0.00, 22333.93, 13763.44, 8249.09, -9633.20, 5629.87, 26237.62, 0.00, 0.000, 0.000, 0.000, 13:25:15.776
241, 0.00, 22332.88, 13763.06, 8241.04, -9779.87, 5625.42, 26233.59, 0.00, 0.000, 0.000, 0.000, 13:25:15.776
242, 0.00, 22326.29, 13758.01, 8314.54, -10071.83, 5617.51, 26244.88, 0.00, 0.000, 0.000, 0.000, 13:25:15.776
243, 0.00, 22324.68, 13754.66, 8380.56, -10068.59, 5620.12, 26256.93, 0.00, 0.000, 0.000, 0.000, 13:25:15.777
244, 0.00, 22328.90, 13757.36, 8326.36, -9811.01, 5626.81, 26250.54, 0.00, 0.000, 0.000, 0.000, 13:25:15.777
245, 0.00, 22332.95, 13761.97, 8251.95, -9632.10, 5630.25, 26235.87, 0.00, 0.000, 0.000, 0.000, 13:25:15.777
246, 0.00, 22331.54, 13757.86, 8245.60, -9769.21, 5622.29, 26231.63, 0.00, 0.000, 0.000, 0.000, 13:25:15.777
247, 0.00, 22329.10, 13750.66, 8310.98, -10067.65, 5613.75, 26246.51, 0.00, 0.026, -0.028, 0.994, 13:25:15.781
248, 0.00, 22327.43, 13748.33, 8378.64, -10066.26, 5617.91, 26262.11, 0.00, 0.000, 0.000, 0.000, 13:25:15.781
249, 0.00, 22332.32, 13753.50, 8327.10, -9806.40, 5625.82, 26256.82, 0.00, 0.000, 0.000, 0.000, 13:25:15.781
250, 0.00, 22336.39, 13758.86, 8243.35, -9638.21, 5627.48, 26238.67, 0.00, 0.000, 0.000, 0.000, 13:25:15.782
251, 0.00, 22333.06, 13758.84, 8241.83, -9773.95, 5621.22, 26231.96, 0.00, 0.000, 0.000, 0.000, 13:25:15.782
252, 0.00, 22329.37, 13755.33, 8315.72, -10062.80, 5616.93, 26247.92, 0.00, 0.000, 0.000, 0.000, 13:25:15.782
253, 0.00, 22325.77, 13752.27, 8383.16, -10061.50, 5620.93, 26260.17, 0.00, 0.000, 0.000, 0.000, 13:25:15.782
254, 0.00, 22329.75, 13757.07, 8329.51, -9804.50, 5630.27, 26253.98, 0.00, 0.000, 0.000, 0.000, 13:25:15.782
255, 0.00, 22334.38, 13766.64, 8250.74, -9629.27, 5636.46, 26238.80, 0.00, 0.000, 0.000, 0.000, 13:25:15.782
0, 0.00, 22332.21, 13766.75, 8250.72, -9758.26, 5629.26, 26233.01, 0.00, 0.000, 0.000, 0.000, 13:25:15.782
1, 0.00, 22327.65, 13760.76, 8317.42, -10051.31, 5619.72, 26245.78, 0.00, 0.028, -0.030, 0.994, 13:25:15.782
2, 0.00, 22325.57, 13757.79, 8384.16, -10059.22, 5621.64, 26259.81, 0.00, 0.000, 0.000, 0.000, 13:25:15.783
3, 0.00, 22329.57, 13763.33, 8335.28, -9805.58, 5629.04, 26253.93, 0.00, 0.000, 0.000, 0.000, 13:25:15.783
4, 0.00, 22334.04, 13766.62, 8255.57, -9625.69, 5632.17, 26237.82, 0.00, 0.000, 0.000, 0.000, 13:25:15.783
5, 0.00, 22331.49, 13763.49, 8244.44, -9762.50, 5623.79, 26232.95, 0.00, 0.000, 0.000, 0.000, 13:25:15.783
6, 0.00, 22325.75, 13756.67, 8315.63, -10054.91, 5616.77, 26245.66, 0.00, 0.000, 0.000, 0.000, 13:25:15.783
7, 0.00, 22322.87, 13753.09, 8382.55, -10066.13, 5619.34, 26259.28, 0.00, 0.000, 0.000, 0.000, 13:25:15.783
8, 0.00, 22329.12, 13757.14, 8331.30, -9814.14, 5628.95, 26256.37, 0.00, 0.000, 0.000, 0.000, 13:25:15.783
9, 0.00, 22333.64, 13762.04, 8253.63, -9628.55, 5631.86, 26239.79, 0.00, 0.000, 0.000, 0.000, 13:25:15.784
10, 0.00, 22330.51, 13760.18, 8246.65, -9753.99, 5625.80, 26232.19, 0.00, 0.000, 0.000, 0.000, 13:25:15.784
11, 0.00, 22326.46, 13754.06, 8312.70, -10049.28, 5616.57, 26243.36, 0.00, 0.034, -0.034, 0.992, 13:25:15.784
12, 0.00, 22324.77, 13751.22, 8382.11, -10063.60, 5617.91, 26256.28, 0.00, 0.000, 0.000, 0.000, 13:25:15.784
13, 0.00, 22326.82, 13750.48, 8329.96, -9812.46, 5624.06, 26249.89, 0.00, 0.000, 0.000, 0.000, 13:25:15.784
14, 0.00, 22334.69, 13759.46, 8249.60, -9627.88, 5630.63, 26238.20, 0.00, 0.000, 0.000, 0.000, 13:25:15.784
15, 0.00, 22333.62, 13761.88, 8242.83, -9756.92, 5624.46, 26233.10, 0.00, 0.000, 0.000, 0.000, 13:25:15.784
16, 0.00, 22327.47, 13756.25, 8315.21, -10049.81, 5616.64, 26245.44, 0.00, 0.000, 0.000, 0.000, 13:25:15.784
17, 0.00, 22324.25, 13750.30, 8383.78, -10068.14, 5617.57, 26258.22, 0.00, 0.000, 0.000, 0.000, 13:25:15.785
18, 0.00, 22329.48, 13755.75, 8337.20, -9812.59, 5627.10, 26254.45, 0.00, 0.000, 0.000, 0.000, 13:25:15.785
19, 0.00, 22332.16, 13759.71, 8257.90, -9624.42, 5631.88, 26237.64, 0.00, 0.000, 0.000, 0.000, 13:25:15.785
20, 0.00, 22333.42, 13762.71, 8248.55, -9747.13, 5627.52, 26233.71, 0.00, 0.000, 0.000, 0.000, 13:25:15.785
21, 0.00, 22326.33, 13754.82, 8310.76, -10048.09, 5616.52, 26243.65, 0.00, 0.028, -0.036, 0.990, 13:25:15.785
22, 0.00, 22322.20, 13748.58, 8380.34, -10068.05, 5617.40, 26255.88, 0.00, 0.000, 0.000, 0.000, 13:25:15.785
23, 0.00, 22330.29, 13760.31, 8337.85, -9814.72, 5630.54, 26255.65, 0.00, 0.000, 0.000, 0.000, 13:25:15.785
24, 0.00, 22334.67, 13764.20, 8262.19, -9620.55, 5634.87, 26240.32, 0.00, 0.000, 0.000, 0.000, 13:25:15.786
25, 0.00, 22331.27, 13762.82, 8247.57, -9744.42, 5627.83, 26233.06, 0.00, 0.000, 0.000, 0.000, 13:25:15.786
26, 0.00, 22325.62, 13758.01, 8312.79, -10046.97, 5619.94, 26244.10, 0.00, 0.000, 0.000, 0.000, 13:25:15.786
27, 0.00, 22325.62, 13758.35, 8386.33, -10069.26, 5622.89, 26260.48, 0.00, 0.000, 0.000, 0.000, 13:25:15.786
28, 0.00, 22330.02, 13762.04, 8338.56, -9822.29, 5629.51, 26256.84, 0.00, 0.000, 0.000, 0.000, 13:25:15.786
29, 0.00, 22334.35, 13766.86, 8258.68, -9631.28, 5631.48, 26242.11, 0.00, 0.000, 0.000, 0.000, 13:25:15.787
30, 0.00, 22333.26, 13765.41, 8244.75, -9750.14, 5624.91, 26234.71, 0.00, 0.000, 0.000, 0.000, 13:25:15.787
31, 0.00, 22327.25, 13759.53, 8311.25, -10045.41, 5617.73, 26244.59, 0.00, 0.032, -0.038, 0.988, 13:25:15.787
32, 0.00, 22326.17, 13755.02, 8380.54, -10073.06, 5617.71, 26260.08, 0.00, 0.000, 0.000, 0.000, 13:25:15.787
33, 0.00, 22333.73, 13760.36, 8346.95, -9818.16, 5628.24, 26259.81, 0.00, 0.000, 0.000, 0.000, 13:25:15.788
34, 0.00, 22336.39, 13761.70, 8286.35, -9629.18, 5630.83, 26242.24, 0.00, 0.000, 0.000, 0.000, 13:25:15.788
35, 0.00, 22335.00, 13763.69, 8271.17, -9743.84, 5625.64, 26235.34, 0.00, 0.000, 0.000, 0.000, 13:25:15.788
36, 0.00, 22328.72, 13761.99, 8335.70, -10039.89, 5617.60, 26247.12, 0.00, 0.000, 0.000, 0.000, 13:25:15.788
37, 0.00, 22325.06, 13755.20, 8404.01, -10074.07, 5617.93, 26259.63, 0.00, 0.000, 0.000, 0.000, 13:25:15.788
38, 0.00, 22330.46, 13757.97, 8358.59, -9820.66, 5625.80, 26255.86, 0.00, 0.000, 0.000, 0.000, 13:25:15.788
39, 0.00, 22338.24, 13766.62, 8277.99, -9624.82, 5633.49, 26243.76, 0.00, 0.000, 0.000, 0.000, 13:25:15.788
40, 0.00, 22335.47, 13763.85, 8262.50, -9737.38, 5627.81, 26235.85, 0.00, 0.000, 0.000, 0.000, 13:25:15.788
41, 0.00, 22330.60, 13758.37, 8323.59, -10037.86, 5619.54, 26249.40, 0.00, 0.028, -0.034, 0.990, 13:25:15.789
42, 0.00, 22326.96, 13754.64, 8394.11, -10077.93, 5619.52, 26262.92, 0.00, 0.000, 0.000, 0.000, 13:25:15.789
43, 0.00, 22330.85, 13759.29, 8354.05, -9829.74, 5629.91, 26258.29, 0.00, 0.000, 0.000, 0.000, 13:25:15.789
44, 0.00, 22331.76, 13760.72, 8273.39, -9631.01, 5631.39, 26238.02, 0.00, 0.000, 0.000, 0.000, 13:25:15.789
45, 0.00, 22329.48, 13758.62, 8256.13, -9738.97, 5625.58, 26230.22, 0.00, 0.000, 0.000, 0.000, 13:25:15.789
46, 0.00, 22325.17, 13752.13, 8319.12, -10039.62, 5617.62, 26243.36, 0.00, 0.000, 0.000, 0.000, 13:25:15.789
47, 0.00, 22324.01, 13750.37, 8391.63, -10078.83, 5618.25, 26258.22, 0.00, 0.000, 0.000, 0.000, 13:25:15.789
48, 0.00, 22329.68, 13761.16, 8357.00, -9824.15, 5629.87, 26257.13, 0.00, 0.000, 0.000, 0.000, 13:25:15.790
49, 0.00, 22333.19, 13765.97, 8278.21, -9622.27, 5634.79, 26240.52, 0.00, 0.000, 0.000, 0.000, 13:25:15.790
50, 0.00, 22331.69, 13764.76, 8258.90, -9735.62, 5628.48, 26232.77, 0.00, 0.000, 0.000, 0.000, 13:25:15.790
51, 0.00, 22324.65, 13758.75, 8322.81, -10032.51, 5617.91, 26242.49, 0.00, 0.028, -0.030, 0.990, 13:25:15.790
52, 0.00, 22321.61, 13756.49, 8394.96, -10075.23, 5620.03, 26257.69, 0.00, 0.000, 0.000, 0.000, 13:25:15.790
53, 0.00, 22327.18, 13760.76, 8355.73, -9830.48, 5629.87, 26256.35, 0.00, 0.000, 0.000, 0.000, 13:25:15.790
54, 0.00, 22330.02, 13760.14, 8270.46, -9630.74, 5629.94, 26235.96, 0.00, 0.000, 0.000, 0.000, 13:25:15.790
55, 0.00, 22329.97, 13761.99, 8257.58, -9732.73, 5624.84, 26228.86, 0.00, 0.000, 0.000, 0.000, 13:25:15.790
56, 0.00, 22326.20, 13757.03, 8319.18, -10033.32, 5618.02, 26242.71, 0.00, 0.000, 0.000, 0.000, 13:25:15.791
57, 0.00, 22324.63, 13756.89, 8398.51, -10078.33, 5618.49, 26257.85, 0.00, 0.000, 0.000, 0.000, 13:25:15.791
58, 0.00, 22330.38, 13760.52, 8362.44, -9828.64, 5626.69, 26255.74, 0.00, 0.000, 0.000, 0.000, 13:25:16.249
59, 0.00, 22335.31, 13764.54, 8276.22, -9631.39, 5632.33, 26241.06, 0.00, 0.000, 0.000, 0.000, 13:25:16.250
60, 0.00, 22333.71, 13761.83, 8256.76, -9731.88, 5624.55, 26234.26, 0.00, 0.000, 0.000, 0.000, 13:25:16.250
61, 0.00, 22329.75, 13756.47, 8315.81, -10036.04, 5615.23, 26245.84, 0.00, 0.030, -0.032, 0.990, 13:25:16.250
62, 0.00, 22325.84, 13754.50, 8390.13, -10090.29, 5615.96, 26259.03, 0.00, 0.000, 0.000, 0.000, 13:25:16.250
63, 0.00, 22328.81, 13757.88, 8356.29, -9839.57, 5624.68, 26255.81, 0.00, 0.000, 0.000, 0.000, 13:25:16.250
64, 0.00, 22332.10, 13760.36, 8276.14, -9625.31, 5628.66, 26238.94, 0.00, 0.000, 0.000, 0.000, 13:25:16.250
