%OpenBCI Raw EEG Data
%
%Sample Rate = 250.0 Hz
%First Column = SampleIndex
%Last Column = Timestamp 
%Other Columns = EEG data in microvolts followed by Accel Data (in G) interleaved with Aux Data
0, 0.00, 0.00, 0.00, 0.00, 0.00, 0.00, 0.00, 0.00, 0.020, -0.034, 0.998, 13:09:29.067
1, 0.00, 30755.08, 17444.78, 10454.85, -174.39, 17298.75, 35179.66, 0.00, 0.000, 0.000, 0.000, 13:09:29.548
2, 0.00, 30752.06, 17443.23, 10507.38, -193.81, 17292.43, 35188.71, 0.00, 0.000, 0.000, 0.000, 13:09:29.548
3, 0.00, 30748.98, 17439.03, 10563.75, -115.76, 17292.43, 35205.16, 0.00, 0.000, 0.000, 0.000, 13:09:29.548
4, 0.00, 30751.37, 17440.13, 10535.56, -68.96, 17296.27, 35206.37, 0.00, 0.000, 0.000, 0.000, 13:09:29.548
5, 0.00, 30753.56, 17440.82, 10467.21, -107.15, 17296.94, 35187.66, 0.00, 0.000, 0.000, 0.000, 13:09:29.549
6, 0.00, 30752.18, 17442.09, 10447.23, -180.62, 17292.47, 35175.21, 0.00, 0.000, 0.000, 0.000, 13:09:29.549
7, 0.00, 30745.90, 17436.89, 10496.89, -200.20, 17286.15, 35182.65, 0.00, 0.000, 0.000, 0.000, 13:09:29.550
8, 0.00, 30745.52, 17435.66, 10557.13, -118.20, 17288.69, 35202.39, 0.00, 0.024, -0.032, 0.994, 13:09:29.550
9, 0.00, 30752.33, 17439.23, 10531.52, -68.46, 17296.61, 35206.43, 0.00, 0.000, 0.000, 0.000, 13:09:29.550
10, 0.00, 30756.07, 17443.55, 10469.15, -100.65, 17300.16, 35190.65, 0.00, 0.000, 0.000, 0.000, 13:09:29.550
11, 0.00, 30754.57, 17443.64, 10453.11, -173.78, 17297.63, 35179.75, 0.00, 0.000, 0.000, 0.000, 13:09:29.550
12, 0.00, 30750.63, 17438.14, 10501.09, -197.95, 17289.54, 35189.00, 0.00, 0.000, 0.000, 0.000, 13:09:29.550
13, 0.00, 30745.52, 17432.26, 10555.03, -121.82, 17284.36, 35202.90, 0.00, 0.000, 0.000, 0.000, 13:09:29.551
14, 0.00, 30751.62, 17438.12, 10530.00, -76.78, 17291.38, 35206.77, 0.00, 0.000, 0.000, 0.000, 13:09:29.551
15, 0.00, 30755.26, 17443.23, 10463.90, -113.95, 17292.38, 35190.05, 0.00, 0.000, 0.000, 0.000, 13:09:29.551
16, 0.00, 30753.00, 17444.82, 10447.29, -184.09, 17289.61, 35176.46, 0.00, 0.000, 0.000, 0.000, 13:09:29.551
17, 0.00, 30749.43, 17440.46, 10495.91, -200.88, 17284.69, 35185.69, 0.00, 0.000, 0.000, 0.000, 13:09:29.551
18, 0.00, 30747.33, 17439.97, 10556.75, -118.84, 17285.90, 35202.86, 0.00, 0.028, -0.034, 1.002, 13:09:29.552
19, 0.00, 30749.05, 17442.88, 10532.41, -72.22, 17293.16, 35203.35, 0.00, 0.000, 0.000, 0.000, 13:09:29.552
20, 0.00, 30751.08, 17446.29, 10468.46, -105.59, 17296.96, 35185.60, 0.00, 0.000, 0.000, 0.000, 13:09:29.552
21, 0.00, 30748.38, 17444.26, 10451.85, -176.65, 17289.28, 35172.68, 0.00, 0.000, 0.000, 0.000, 13:09:29.552
22, 0.00, 30744.98, 17438.88, 10499.71, -195.29, 17286.48, 35182.72, 0.00, 0.000, 0.000, 0.000, 13:09:29.552
23, 0.00, 30744.62, 17438.96, 10559.30, -111.40, 17291.00, 35201.20, 0.00, 0.000, 0.000, 0.000, 13:09:29.552
24, 0.00, 30749.41, 17444.44, 10535.83, -67.28, 17298.04, 35203.01, 0.00, 0.000, 0.000, 0.000, 13:09:29.552
25, 0.00, 30754.84, 17450.28, 10470.81, -101.07, 17302.84, 35188.08, 0.00, 0.000, 0.000, 0.000, 13:09:29.552
26, 0.00, 30752.65, 17446.68, 10449.71, -174.30, 17294.68, 35175.45, 0.00, 0.000, 0.000, 0.000, 13:09:29.553
27, 0.00, 30747.68, 17441.18, 10498.14, -198.15, 17283.75, 35183.39, 0.00, 0.000, 0.000, 0.000, 13:09:29.553
28, 0.00, 30745.94, 17438.67, 10552.66, -119.34, 17281.79, 35200.96, 0.00, 0.030, -0.034, 0.990, 13:09:29.553
29, 0.00, 30749.99, 17445.00, 10528.32, -75.03, 17289.65, 35202.83, 0.00, 0.000, 0.000, 0.000, 13:09:29.553
30, 0.00, 30751.71, 17448.24, 10468.33, -111.60, 17290.64, 35185.02, 0.00, 0.000, 0.000, 0.000, 13:09:29.553
31, 0.00, 30749.74, 17447.12, 10449.35, -187.67, 17284.89, 35172.39, 0.00, 0.000, 0.000, 0.000, 13:09:29.554
32, 0.00, 30743.95, 17442.68, 10500.83, -204.56, 17278.17, 35180.82, 0.00, 0.000, 0.000, 0.000, 13:09:29.554
33, 0.00, 30742.43, 17441.38, 10557.06, -124.03, 17279.46, 35197.94, 0.00, 0.000, 0.000, 0.000, 13:09:29.554
34, 0.00, 30746.41, 17443.59, 10530.60, -76.69, 17286.48, 35198.74, 0.00, 0.000, 0.000, 0.000, 13:09:29.554
35, 0.00, 30750.59, 17448.42, 10464.57, -111.74, 17289.88, 35183.07, 0.00, 0.000, 0.000, 0.000, 13:09:29.554
36, 0.00, 30749.54, 17450.43, 10451.05, -181.79, 17285.72, 35171.74, 0.00, 0.000, 0.000, 0.000, 13:09:29.555
37, 0.00, 30745.85, 17446.03, 10501.86, -200.83, 17278.41, 35181.04, 0.00, 0.000, 0.000, 0.000, 13:09:29.555
38, 0.00, 30743.59, 17441.71, 10555.48, -120.79, 17280.38, 35198.88, 0.00, 0.032, -0.032, 0.984, 13:09:29.555
39, 0.00, 30750.59, 17450.19, 10532.12, -74.27, 17288.85, 35203.13, 0.00, 0.000, 0.000, 0.000, 13:09:29.555
40, 0.00, 30753.52, 17455.01, 10471.61, -109.41, 17292.61, 35184.89, 0.00, 0.000, 0.000, 0.000, 13:09:29.555
41, 0.00, 30751.28, 17454.95, 10456.68, -182.64, 17289.05, 35172.84, 0.00, 0.000, 0.000, 0.000, 13:09:29.556
42, 0.00, 30743.50, 17446.94, 10504.36, -201.57, 17278.75, 35179.86, 0.00, 0.000, 0.000, 0.000, 13:09:29.556
43, 0.00, 30741.56, 17443.30, 10559.39, -119.07, 17279.66, 35196.29, 0.00, 0.000, 0.000, 0.000, 13:09:29.556
44, 0.00, 30744.62, 17445.20, 10531.61, -76.89, 17284.83, 35196.38, 0.00, 0.000, 0.000, 0.000, 13:09:29.556
45, 0.00, 30748.04, 17450.56, 10467.28, -116.81, 17288.85, 35179.59, 0.00, 0.000, 0.000, 0.000, 13:09:29.556
46, 0.00, 30748.11, 17450.70, 10453.51, -184.25, 17283.66, 35169.30, 0.00, 0.000, 0.000, 0.000, 13:09:29.557
47, 0.00, 30740.38, 17441.63, 10500.83, -205.12, 17272.40, 35175.39, 0.00, 0.032, -0.032, 0.988, 13:09:29.557
48, 0.00, 30739.59, 17439.17, 10554.40, -123.74, 17276.85, 35194.90, 0.00, 0.000, 0.000, 0.000, 13:09:29.557
49, 0.00, 30745.85, 17447.66, 10531.18, -77.05, 17284.38, 35197.00, 0.00, 0.000, 0.000, 0.000, 13:09:29.557
50, 0.00, 30748.31, 17452.93, 10470.70, -114.69, 17286.32, 35178.61, 0.00, 0.000, 0.000, 0.000, 13:09:29.557
51, 0.00, 30746.28, 17452.42, 10456.12, -187.78, 17280.83, 35166.87, 0.00, 0.000, 0.000, 0.000, 13:09:29.558
52, 0.00, 30743.50, 17449.16, 10505.70, -204.63, 17276.33, 35177.31, 0.00, 0.000, 0.000, 0.000, 13:09:29.558
53, 0.00, 30738.83, 17443.37, 10555.01, -121.48, 17273.56, 35192.11, 0.00, 0.000, 0.000, 0.000, 13:09:29.559
54, 0.00, 30743.19, 17448.51, 10530.67, -78.10, 17279.46, 35194.34, 0.00, 0.000, 0.000, 0.000, 13:09:29.559
55, 0.00, 30746.10, 17451.41, 10467.50, -119.85, 17282.90, 35178.52, 0.00, 0.000, 0.000, 0.000, 13:09:29.559
56, 0.00, 30746.54, 17452.31, 10452.93, -190.84, 17280.11, 35169.38, 0.00, 0.000, 0.000, 0.000, 13:09:29.559
57, 0.00, 30741.11, 17444.71, 10501.65, -208.52, 17271.55, 35177.15, 0.00, 0.032, -0.034, 0.990, 13:09:29.560
58, 0.00, 30740.44, 17440.26, 10553.67, -127.18, 17272.98, 35196.26, 0.00, 0.000, 0.000, 0.000, 13:09:29.560
59, 0.00, 30746.23, 17443.99, 10526.00, -81.96, 17282.21, 35199.26, 0.00, 0.000, 0.000, 0.000, 13:09:29.560
60, 0.00, 30750.28, 17447.97, 10462.47, -119.96, 17285.18, 35182.11, 0.00, 0.000, 0.000, 0.000, 13:09:29.560
61, 0.00, 30747.64, 17446.94, 10449.02, -191.26, 17278.70, 35169.38, 0.00, 0.000, 0.000, 0.000, 13:09:29.560
62, 0.00, 30742.83, 17443.41, 10500.60, -208.52, 17271.04, 35178.92, 0.00, 0.000, 0.000, 0.000, 13:09:29.560
63, 0.00, 30741.00, 17439.86, 10553.71, -125.97, 17270.83, 35196.24, 0.00, 0.000, 0.000, 0.000, 13:09:29.560
64, 0.00, 30745.70, 17445.67, 10526.31, -81.85, 17278.46, 35197.36, 0.00, 0.000, 0.000, 0.000, 13:09:29.561
65, 0.00, 30746.79, 17450.21, 10461.62, -119.31, 17279.42, 35177.98, 0.00, 0.000, 0.000, 0.000, 13:09:29.561
66, 0.00, 30742.66, 17448.84, 10444.48, -192.63, 17273.49, 35165.06, 0.00, 0.000, 0.000, 0.000, 13:09:29.561
67, 0.00, 30736.69, 17441.27, 10489.03, -211.76, 17266.23, 35173.42, 0.00, 0.034, -0.026, 0.988, 13:09:29.562
68, 0.00, 30734.81, 17440.02, 10544.05, -127.85, 17266.97, 35190.54, 0.00, 0.000, 0.000, 0.000, 13:09:29.562
69, 0.00, 30741.56, 17450.74, 10525.77, -83.80, 17274.08, 35193.56, 0.00, 0.000, 0.000, 0.000, 13:09:29.562
70, 0.00, 30743.62, 17454.95, 10464.10, -125.21, 17272.13, 35174.87, 0.00, 0.000, 0.000, 0.000, 13:09:29.563
71, 0.00, 30742.12, 17455.10, 10452.77, -198.17, 17258.97, 35164.72, 0.00, 0.000, 0.000, 0.000, 13:09:29.563
72, 0.00, 30738.88, 17453.61, 10507.17, -210.80, 17255.12, 35176.30, 0.00, 0.000, 0.000, 0.000, 13:09:29.563
73, 0.00, 30735.86, 17442.25, 10551.61, -128.19, 17251.59, 35191.10, 0.00, 0.000, 0.000, 0.000, 13:09:29.563
74, 0.00, 30736.80, 17442.88, 10518.04, -91.96, 17254.29, 35188.15, 0.00, 0.000, 0.000, 0.000, 13:09:29.563
75, 0.00, 30743.91, 17452.60, 10463.83, -124.63, 17266.19, 35174.58, 0.00, 0.000, 0.000, 0.000, 13:09:29.566
76, 0.00, 30740.20, 17449.29, 10449.84, -195.58, 17260.33, 35162.38, 0.00, 0.000, 0.000, 0.000, 13:09:29.566
77, 0.00, 30734.59, 17443.77, 10500.16, -213.26, 17251.99, 35171.50, 0.00, 0.032, -0.034, 0.990, 13:09:29.566
78, 0.00, 30733.83, 17439.79, 10549.98, -128.16, 17253.71, 35188.73, 0.00, 0.000, 0.000, 0.000, 13:09:29.566
79, 0.00, 30738.77, 17441.87, 10514.95, -90.50, 17260.29, 35190.16, 0.00, 0.000, 0.000, 0.000, 13:09:29.567
80, 0.00, 30741.72, 17446.25, 10453.33, -128.95, 17263.50, 35172.84, 0.00, 0.000, 0.000, 0.000, 13:09:29.567
81, 0.00, 30740.69, 17444.82, 10442.20, -197.08, 17258.65, 35163.29, 0.00, 0.000, 0.000, 0.000, 13:09:29.567
82, 0.00, 30735.19, 17438.32, 10491.89, -212.43, 17248.91, 35172.35, 0.00, 0.000, 0.000, 0.000, 13:09:29.567
83, 0.00, 30734.56, 17437.58, 10547.05, -128.39, 17254.00, 35190.77, 0.00, 0.000, 0.000, 0.000, 13:09:29.567
84, 0.00, 30738.92, 17442.65, 10514.68, -90.70, 17260.04, 35191.05, 0.00, 0.000, 0.000, 0.000, 13:09:29.568
85, 0.00, 30741.58, 17447.35, 10454.29, -128.57, 17264.06, 35173.29, 0.00, 0.000, 0.000, 0.000, 13:09:29.568
86, 0.00, 30739.66, 17448.38, 10444.57, -198.62, 17258.47, 35161.55, 0.00, 0.000, 0.000, 0.000, 13:09:29.568
87, 0.00, 30734.27, 17444.31, 10498.23, -214.62, 17250.61, 35170.91, 0.00, 0.036, -0.034, 0.992, 13:09:29.568
88, 0.00, 30732.06, 17443.28, 10552.19, -128.23, 17252.84, 35188.24, 0.00, 0.000, 0.000, 0.000, 13:09:29.569
89, 0.00, 30737.74, 17451.66, 10524.50, -84.11, 17260.93, 35189.47, 0.00, 0.000, 0.000, 0.000, 13:09:29.569
90, 0.00, 30741.05, 17455.66, 10460.55, -123.65, 17264.82, 35171.68, 0.00, 0.000, 0.000, 0.000, 13:09:29.569
91, 0.00, 30738.23, 17453.65, 10447.67, -193.92, 17259.99, 35160.23, 0.00, 0.000, 0.000, 0.000, 13:09:29.569
92, 0.00, 30732.57, 17451.59, 10505.25, -207.18, 17252.24, 35169.55, 0.00, 0.000, 0.000, 0.000, 13:09:29.570
93, 0.00, 30730.65, 17448.84, 10558.00, -124.70, 17252.93, 35185.85, 0.00, 0.000, 0.000, 0.000, 13:09:29.570
94, 0.00, 30732.33, 17450.41, 10526.06, -86.99, 17258.85, 35183.28, 0.00, 0.000, 0.000, 0.000, 13:09:29.570
95, 0.00, 30737.58, 17458.28, 10468.73, -122.80, 17263.12, 35166.73, 0.00, 0.000, 0.000, 0.000, 13:09:29.570
96, 0.00, 30737.18, 17458.59, 10454.11, -195.47, 17259.61, 35157.46, 0.00, 0.000, 0.000, 0.000, 13:09:29.570
97, 0.00, 30730.79, 17451.73, 10501.77, -210.49, 17249.18, 35165.73, 0.00, 0.032, -0.032, 0.992, 13:09:29.571
98, 0.00, 30728.53, 17447.88, 10554.63, -124.90, 17249.58, 35181.78, 0.00, 0.000, 0.000, 0.000, 13:09:29.571
99, 0.00, 30734.70, 17453.49, 10523.11, -86.70, 17258.03, 35183.28, 0.00, 0.000, 0.000, 0.000, 13:09:29.571
100, 0.00, 30736.06, 17456.33, 10459.79, -128.10, 17260.38, 35163.96, 0.00, 0.000, 0.000, 0.000, 13:09:29.571
101, 0.00, 30730.65, 17451.10, 10447.65, -202.02, 17253.18, 35150.91, 0.00, 0.000, 0.000, 0.000, 13:09:29.572
102, 0.00, 30727.86, 17445.42, 10500.71, -212.61, 17247.12, 35164.12, 0.00, 0.000, 0.000, 0.000, 13:09:29.572
103, 0.00, 30729.58, 17444.17, 10549.62, -128.72, 17250.18, 35184.35, 0.00, 0.000, 0.000, 0.000, 13:09:29.572
104, 0.00, 30732.40, 17445.78, 10513.86, -93.81, 17255.23, 35182.63, 0.00, 0.000, 0.000, 0.000, 13:09:29.572
105, 0.00, 30735.01, 17452.11, 10459.28, -133.86, 17256.75, 35163.94, 0.00, 0.000, 0.000, 0.000, 13:09:29.572
106, 0.00, 30731.26, 17450.52, 10451.45, -203.58, 17251.05, 35150.73, 0.00, 0.000, 0.000, 0.000, 13:09:29.573
107, 0.00, 30727.05, 17445.31, 10504.34, -213.30, 17245.24, 35161.26, 0.00, 0.026, -0.036, 0.990, 13:09:29.573
108, 0.00, 30723.41, 17440.26, 10552.21, -130.91, 17242.74, 35176.08, 0.00, 0.000, 0.000, 0.000, 13:09:29.573
109, 0.00, 30729.27, 17444.42, 10517.75, -94.46, 17251.59, 35177.18, 0.00, 0.000, 0.000, 0.000, 13:09:29.573
110, 0.00, 30733.27, 17452.17, 10459.34, -131.43, 17257.16, 35161.42, 0.00, 0.000, 0.000, 0.000, 13:09:29.573
111, 0.00, 30730.83, 17453.54, 10451.61, -203.60, 17251.52, 35150.71, 0.00, 0.000, 0.000, 0.000, 13:09:29.573
112, 0.00, 30726.94, 17451.32, 10503.55, -215.16, 17244.95, 35162.71, 0.00, 0.000, 0.000, 0.000, 13:09:29.574
113, 0.00, 30722.20, 17445.51, 10551.99, -129.64, 17241.82, 35177.69, 0.00, 0.000, 0.000, 0.000, 13:09:29.574
114, 0.00, 30722.20, 17450.03, 10518.64, -93.68, 17251.08, 35173.11, 0.00, 0.000, 0.000, 0.000, 13:09:29.574
115, 0.00, 30725.58, 17458.79, 10460.64, -132.23, 17257.98, 35156.05, 0.00, 0.000, 0.000, 0.000, 13:09:29.575
116, 0.00, 30720.42, 17455.19, 10446.33, -205.28, 17248.17, 35141.23, 0.00, 0.000, 0.000, 0.000, 13:09:29.575
117, 0.00, 30713.93, 17447.73, 10497.00, -218.73, 17236.75, 35150.11, 0.00, 0.028, -0.036, 0.990, 13:09:29.575
118, 0.00, 30715.05, 17450.74, 10553.93, -129.73, 17244.08, 35170.25, 0.00, 0.000, 0.000, 0.000, 13:09:29.575
119, 0.00, 30714.63, 17454.70, 10520.27, -91.96, 17254.43, 35165.08, 0.00, 0.000, 0.000, 0.000, 13:09:29.575
120, 0.00, 30714.94, 17457.27, 10460.28, -133.95, 17257.42, 35145.52, 0.00, 0.000, 0.000, 0.000, 13:09:29.576
121, 0.00, 30710.96, 17455.44, 10451.54, -205.17, 17251.25, 35133.61, 0.00, 0.000, 0.000, 0.000, 13:09:30.030
122, 0.00, 30702.33, 17449.87, 10501.65, -219.43, 17242.69, 35140.83, 0.00, 0.000, 0.000, 0.000, 13:09:30.030
123, 0.00, 30698.20, 17446.83, 10553.89, -131.45, 17243.45, 35154.02, 0.00, 0.000, 0.000, 0.000, 13:09:30.031
124, 0.00, 30697.48, 17447.01, 10516.74, -99.47, 17247.14, 35148.05, 0.00, 0.000, 0.000, 0.000, 13:09:30.031
125, 0.00, 30698.69, 17451.59, 10457.67, -139.56, 17248.30, 35129.41, 0.00, 0.000, 0.000, 0.000, 13:09:30.031
126, 0.00, 30695.81, 17453.16, 10446.33, -210.93, 17246.58, 35119.37, 0.00, 0.000, 0.000, 0.000, 13:09:30.031
127, 0.00, 30691.02, 17449.13, 10501.03, -218.38, 17242.00, 35128.96, 0.00, 0.026, -0.038, 0.988, 13:09:30.032
128, 0.00, 30689.35, 17444.49, 10551.72, -132.88, 17241.60, 35144.54, 0.00, 0.000, 0.000, 0.000, 13:09:30.032
129, 0.00, 30690.82, 17449.69, 10518.48, -97.65, 17250.83, 35140.34, 0.00, 0.000, 0.000, 0.000, 13:09:30.032
130, 0.00, 30690.87, 17452.46, 10455.59, -139.45, 17251.54, 35119.48, 0.00, 0.000, 0.000, 0.000, 13:09:30.032
131, 0.00, 30689.66, 17450.16, 10439.63, -212.95, 17246.40, 35110.54, 0.00, 0.000, 0.000, 0.000, 13:09:30.032
132, 0.00, 30684.81, 17445.49, 10495.55, -220.68, 17239.72, 35122.26, 0.00, 0.000, 0.000, 0.000, 13:09:30.033
133, 0.00, 30683.87, 17445.71, 10551.32, -130.24, 17240.77, 35140.25, 0.00, 0.000, 0.000, 0.000, 13:09:30.033
134, 0.00, 30690.75, 17451.79, 10517.70, -95.82, 17246.85, 35141.55, 0.00, 0.000, 0.000, 0.000, 13:09:30.033
135, 0.00, 30693.26, 17453.78, 10456.44, -138.85, 17248.55, 35123.08, 0.00, 0.000, 0.000, 0.000, 13:09:30.033
136, 0.00, 30688.01, 17446.12, 10439.18, -217.57, 17239.63, 35108.87, 0.00, 0.000, 0.000, 0.000, 13:09:30.033
137, 0.00, 30685.84, 17440.87, 10488.18, -230.09, 17233.28, 35122.05, 0.00, 0.030, -0.032, 0.994, 13:09:30.034
138, 0.00, 30690.26, 17445.40, 10545.28, -136.84, 17238.09, 35144.96, 0.00, 0.000, 0.000, 0.000, 13:09:30.034
139, 0.00, 30696.14, 17448.96, 10511.31, -103.87, 17243.39, 35146.06, 0.00, 0.000, 0.000, 0.000, 13:09:30.034
140, 0.00, 30702.53, 17455.24, 10451.81, -143.43, 17246.45, 35132.38, 0.00, 0.000, 0.000, 0.000, 13:09:30.034
141, 0.00, 30701.01, 17454.37, 10443.29, -213.55, 17241.15, 35123.62, 0.00, 0.000, 0.000, 0.000, 13:09:30.034
142, 0.00, 30696.07, 17441.87, 10491.28, -224.77, 17233.62, 35133.43, 0.00, 0.000, 0.000, 0.000, 13:09:30.035
143, 0.00, 30695.67, 17437.33, 10533.55, -138.18, 17232.55, 35151.09, 0.00, 0.000, 0.000, 0.000, 13:09:30.035
144, 0.00, 30701.42, 17448.11, 10504.05, -103.76, 17242.49, 35151.38, 0.00, 0.000, 0.000, 0.000, 13:09:30.035
145, 0.00, 30705.73, 17455.95, 10452.82, -148.95, 17244.95, 35133.57, 0.00, 0.000, 0.000, 0.000, 13:09:30.035
146, 0.00, 30707.52, 17450.32, 10443.74, -218.69, 17240.53, 35127.38, 0.00, 0.000, 0.000, 0.000, 13:09:30.035
147, 0.00, 30704.23, 17446.70, 10498.66, -223.88, 17234.00, 35141.90, 0.00, 0.030, -0.030, 0.996, 13:09:30.036
148, 0.00, 30706.80, 17449.54, 10552.97, -132.97, 17238.00, 35163.00, 0.00, 0.000, 0.000, 0.000, 13:09:30.036
149, 0.00, 30713.44, 17456.33, 10519.25, -99.89, 17245.73, 35162.82, 0.00, 0.000, 0.000, 0.000, 13:09:30.036
150, 0.00, 30715.47, 17459.86, 10454.20, -147.90, 17245.38, 35143.38, 0.00, 0.000, 0.000, 0.000, 13:09:30.037
151, 0.00, 30713.40, 17456.09, 10444.17, -219.52, 17237.11, 35133.05, 0.00, 0.000, 0.000, 0.000, 13:09:30.037
152, 0.00, 30709.24, 17449.85, 10499.89, -223.58, 17231.81, 35145.17, 0.00, 0.000, 0.000, 0.000, 13:09:30.037
153, 0.00, 30708.08, 17449.20, 10551.01, -135.70, 17236.08, 35162.33, 0.00, 0.000, 0.000, 0.000, 13:09:30.037
154, 0.00, 30713.35, 17451.26, 10512.76, -103.91, 17238.63, 35160.95, 0.00, 0.000, 0.000, 0.000, 13:09:30.038
155, 0.00, 30715.65, 17454.21, 10451.81, -149.35, 17241.33, 35142.04, 0.00, 0.000, 0.000, 0.000, 13:09:30.038
156, 0.00, 30712.79, 17451.26, 10446.07, -221.35, 17234.85, 35131.15, 0.00, 0.000, 0.000, 0.000, 13:09:30.038
157, 0.00, 30710.83, 17447.75, 10500.76, -224.10, 17234.38, 35146.35, 0.00, 0.026, -0.032, 0.994, 13:09:30.038
158, 0.00, 30709.20, 17445.76, 10547.54, -137.82, 17234.54, 35162.80, 0.00, 0.000, 0.000, 0.000, 13:09:30.039
159, 0.00, 30716.01, 17449.65, 10507.71, -109.05, 17239.56, 35162.85, 0.00, 0.000, 0.000, 0.000, 13:09:30.039
160, 0.00, 30718.02, 17451.15, 10446.56, -153.91, 17239.10, 35145.55, 0.00, 0.000, 0.000, 0.000, 13:09:30.039
161, 0.00, 30716.19, 17454.14, 10444.95, -221.60, 17237.06, 35137.25, 0.00, 0.000, 0.000, 0.000, 13:09:30.039
162, 0.00, 30711.56, 17454.12, 10507.67, -224.84, 17232.66, 35147.58, 0.00, 0.000, 0.000, 0.000, 13:09:30.039
163, 0.00, 30711.16, 17452.80, 10556.46, -134.67, 17235.25, 35164.72, 0.00, 0.000, 0.000, 0.000, 13:09:30.040
164, 0.00, 30715.74, 17454.61, 10511.33, -107.49, 17240.15, 35162.73, 0.00, 0.000, 0.000, 0.000, 13:09:30.040
165, 0.00, 30719.63, 17459.42, 10453.04, -151.08, 17242.89, 35146.11, 0.00, 0.000, 0.000, 0.000, 13:09:30.040
166, 0.00, 30716.19, 17456.40, 10449.24, -216.59, 17240.19, 35135.73, 0.00, 0.000, 0.000, 0.000, 13:09:30.040
167, 0.00, 30712.68, 17450.39, 10502.84, -219.45, 17234.27, 35147.74, 0.00, 0.028, -0.030, 0.994, 13:09:30.040
168, 0.00, 30711.09, 17447.97, 10552.75, -132.64, 17234.20, 35163.96, 0.00, 0.000, 0.000, 0.000, 13:09:30.041
169, 0.00, 30714.51, 17450.88, 10512.38, -104.81, 17239.47, 35161.02, 0.00, 0.000, 0.000, 0.000, 13:09:30.041
170, 0.00, 30720.08, 17456.51, 10452.55, -150.74, 17241.93, 35146.39, 0.00, 0.000, 0.000, 0.000, 13:09:30.041
171, 0.00, 30717.67, 17456.55, 10449.46, -221.39, 17239.39, 35138.13, 0.00, 0.000, 0.000, 0.000, 13:09:30.041
172, 0.00, 30713.40, 17454.05, 10503.84, -224.95, 17234.00, 35149.97, 0.00, 0.000, 0.000, 0.000, 13:09:30.041
173, 0.00, 30714.45, 17449.85, 10552.59, -132.55, 17237.26, 35167.45, 0.00, 0.000, 0.000, 0.000, 13:09:30.042
174, 0.00, 30718.96, 17454.61, 10509.88, -107.27, 17243.12, 35166.13, 0.00, 0.000, 0.000, 0.000, 13:09:30.042
175, 0.00, 30721.04, 17459.08, 10448.70, -151.14, 17244.21, 35147.40, 0.00, 0.000, 0.000, 0.000, 13:09:30.043
176, 0.00, 30716.97, 17456.96, 10445.10, -220.72, 17235.16, 35137.03, 0.00, 0.000, 0.000, 0.000, 13:09:30.043
177, 0.00, 30713.60, 17451.97, 10500.18, -226.83, 17230.09, 35151.05, 0.00, 0.024, -0.036, 0.996, 13:09:30.043
178, 0.00, 30713.91, 17446.90, 10544.48, -135.70, 17236.28, 35168.88, 0.00, 0.000, 0.000, 0.000, 13:09:30.043
179, 0.00, 30718.96, 17453.09, 10504.78, -108.74, 17240.88, 35166.07, 0.00, 0.000, 0.000, 0.000, 13:09:30.043
180, 0.00, 30721.47, 17458.48, 10447.38, -155.59, 17242.38, 35147.98, 0.00, 0.000, 0.000, 0.000, 13:09:30.043
181, 0.00, 30718.76, 17454.66, 10440.48, -228.03, 17234.16, 35138.08, 0.00, 0.000, 0.000, 0.000, 13:09:30.043
182, 0.00, 30713.93, 17449.20, 10497.81, -229.02, 17228.70, 35151.20, 0.00, 0.000, 0.000, 0.000, 13:09:30.044
183, 0.00, 30715.86, 17450.77, 10546.92, -135.70, 17235.56, 35171.54, 0.00, 0.000, 0.000, 0.000, 13:09:30.044
184, 0.00, 30719.10, 17455.24, 10505.97, -108.94, 17242.04, 35168.08, 0.00, 0.000, 0.000, 0.000, 13:09:30.044
185, 0.00, 30719.48, 17458.57, 10445.98, -155.99, 17244.39, 35148.59, 0.00, 0.000, 0.000, 0.000, 13:09:30.044
186, 0.00, 30716.08, 17456.78, 10440.59, -224.39, 17236.84, 35139.36, 0.00, 0.000, 0.000, 0.000, 13:09:30.046
187, 0.00, 30712.17, 17451.91, 10498.19, -225.60, 17231.16, 35151.87, 0.00, 0.028, -0.036, 1.002, 13:09:30.046
188, 0.00, 30713.26, 17452.20, 10547.70, -134.74, 17233.55, 35168.97, 0.00, 0.000, 0.000, 0.000, 13:09:30.046
189, 0.00, 30717.11, 17454.39, 10506.46, -108.67, 17236.59, 35165.15, 0.00, 0.000, 0.000, 0.000, 13:09:30.046
190, 0.00, 30719.25, 17458.77, 10448.26, -154.63, 17238.71, 35147.67, 0.00, 0.000, 0.000, 0.000, 13:09:30.046
191, 0.00, 30715.79, 17456.80, 10446.74, -223.09, 17237.58, 35138.42, 0.00, 0.000, 0.000, 0.000, 13:09:30.046
192, 0.00, 30709.93, 17451.32, 10502.12, -226.71, 17234.60, 35148.59, 0.00, 0.000, 0.000, 0.000, 13:09:30.047
193, 0.00, 30707.61, 17448.44, 10546.42, -138.60, 17237.62, 35162.85, 0.00, 0.000, 0.000, 0.000, 13:09:30.047
194, 0.00, 30711.86, 17454.50, 10508.54, -108.94, 17244.55, 35160.14, 0.00, 0.000, 0.000, 0.000, 13:09:30.047
195, 0.00, 30714.25, 17458.48, 10449.91, -157.83, 17244.95, 35141.88, 0.00, 0.000, 0.000, 0.000, 13:09:30.047
196, 0.00, 30711.83, 17456.11, 10445.35, -228.14, 17236.86, 35132.89, 0.00, 0.000, 0.000, 0.000, 13:09:30.047
197, 0.00, 30707.36, 17450.52, 10500.76, -229.37, 17232.81, 35146.30, 0.00, 0.024, -0.034, 0.994, 13:09:30.048
198, 0.00, 30707.18, 17448.80, 10547.97, -138.69, 17236.14, 35164.25, 0.00, 0.000, 0.000, 0.000, 13:09:30.048
199, 0.00, 30709.98, 17454.72, 10509.10, -111.69, 17245.46, 35159.76, 0.00, 0.000, 0.000, 0.000, 13:09:30.048
200, 0.00, 30711.21, 17458.03, 10450.69, -159.35, 17248.08, 35140.47, 0.00, 0.000, 0.000, 0.000, 13:09:30.048
201, 0.00, 30706.91, 17455.08, 10445.42, -227.25, 17241.31, 35129.14, 0.00, 0.000, 0.000, 0.000, 13:09:30.048
202, 0.00, 30697.35, 17448.71, 10503.55, -227.18, 17235.16, 35137.30, 0.00, 0.000, 0.000, 0.000, 13:09:30.049
203, 0.00, 30694.04, 17447.95, 10549.89, -137.87, 17238.94, 35152.54, 0.00, 0.000, 0.000, 0.000, 13:09:30.049
204, 0.00, 30695.07, 17454.43, 10505.21, -114.98, 17244.41, 35146.75, 0.00, 0.000, 0.000, 0.000, 13:09:30.049
205, 0.00, 30694.89, 17457.58, 10445.73, -162.47, 17243.57, 35125.25, 0.00, 0.000, 0.000, 0.000, 13:09:30.050
206, 0.00, 30690.98, 17455.57, 10442.87, -231.88, 17237.29, 35115.35, 0.00, 0.000, 0.000, 0.000, 13:09:30.050
207, 0.00, 30684.09, 17451.68, 10501.54, -232.32, 17229.57, 35125.77, 0.00, 0.028, -0.036, 0.992, 13:09:30.050
208, 0.00, 30680.05, 17451.77, 10548.37, -141.78, 17231.47, 35137.30, 0.00, 0.000, 0.000, 0.000, 13:09:30.050
209, 0.00, 30676.94, 17457.18, 10506.73, -117.41, 17240.03, 35125.72, 0.00, 0.000, 0.000, 0.000, 13:09:30.050
210, 0.00, 30676.94, 17459.86, 10448.03, -166.12, 17242.56, 35104.93, 0.00, 0.000, 0.000, 0.000, 13:09:30.051
211, 0.00, 30674.44, 17456.62, 10447.41, -236.28, 17232.37, 35095.28, 0.00, 0.000, 0.000, 0.000, 13:09:30.051
212, 0.00, 30664.85, 17450.21, 10503.73, -236.66, 17226.18, 35103.57, 0.00, 0.000, 0.000, 0.000, 13:09:30.051
213, 0.00, 30659.02, 17444.89, 10544.86, -147.23, 17228.03, 35116.00, 0.00, 0.000, 0.000, 0.000, 13:09:30.051
214, 0.00, 30666.44, 17453.38, 10504.72, -119.60, 17236.19, 35116.58, 0.00, 0.000, 0.000, 0.000, 13:09:30.051
215, 0.00, 30664.54, 17455.59, 10444.95, -169.56, 17235.88, 35092.89, 0.00, 0.000, 0.000, 0.000, 13:09:30.052
216, 0.00, 30661.76, 17454.41, 10445.04, -238.07, 17229.82, 35083.61, 0.00, 0.000, 0.000, 0.000, 13:09:30.052
217, 0.00, 30659.64, 17450.07, 10501.86, -236.64, 17224.66, 35098.50, 0.00, 0.032, -0.034, 0.998, 13:09:30.052
218, 0.00, 30659.04, 17448.87, 10548.82, -144.55, 17228.39, 35115.75, 0.00, 0.000, 0.000, 0.000, 13:09:30.052
219, 0.00, 30662.93, 17452.85, 10507.17, -119.69, 17235.99, 35110.48, 0.00, 0.000, 0.000, 0.000, 13:09:30.052
220, 0.00, 30667.13, 17457.96, 10448.23, -168.04, 17237.73, 35092.39, 0.00, 0.000, 0.000, 0.000, 13:09:30.053
221, 0.00, 30664.87, 17457.03, 10447.85, -234.83, 17231.36, 35086.14, 0.00, 0.000, 0.000, 0.000, 13:09:30.053
222, 0.00, 30660.31, 17452.76, 10503.93, -234.58, 17225.57, 35101.04, 0.00, 0.000, 0.000, 0.000, 13:09:30.053
223, 0.00, 30661.47, 17451.84, 10551.19, -140.46, 17227.20, 35118.25, 0.00, 0.000, 0.000, 0.000, 13:09:30.054
224, 0.00, 30666.95, 17454.70, 10507.40, -119.76, 17234.09, 35114.37, 0.00, 0.000, 0.000, 0.000, 13:09:30.054
225, 0.00, 30674.21, 17462.05, 10450.85, -167.21, 17240.57, 35102.09, 0.00, 0.000, 0.000, 0.000, 13:09:30.054
226, 0.00, 30673.92, 17461.54, 10449.44, -234.96, 17234.80, 35096.51, 0.00, 0.000, 0.000, 0.000, 13:09:30.054
227, 0.00, 30671.38, 17454.70, 10505.59, -233.84, 17225.88, 35109.67, 0.00, 0.032, -0.032, 0.992, 13:09:30.054
228, 0.00, 30673.48, 17453.87, 10551.32, -142.58, 17226.47, 35125.90, 0.00, 0.000, 0.000, 0.000, 13:09:30.055
229, 0.00, 30679.24, 17459.24, 10508.18, -120.99, 17232.14, 35122.48, 0.00, 0.000, 0.000, 0.000, 13:09:30.055
230, 0.00, 30682.35, 17463.02, 10450.33, -170.72, 17234.16, 35106.54, 0.00, 0.000, 0.000, 0.000, 13:09:30.056
231, 0.00, 30680.67, 17458.30, 10445.77, -239.30, 17228.79, 35100.26, 0.00, 0.000, 0.000, 0.000, 13:09:30.056
232, 0.00, 30679.80, 17453.72, 10504.40, -237.76, 17222.11, 35116.45, 0.00, 0.000, 0.000, 0.000, 13:09:30.056
233, 0.00, 30683.49, 17454.59, 10552.01, -144.53, 17225.10, 35135.82, 0.00, 0.000, 0.000, 0.000, 13:09:30.056
234, 0.00, 30690.31, 17459.19, 10505.01, -121.37, 17233.93, 35134.73, 0.00, 0.000, 0.000, 0.000, 13:09:30.056
235, 0.00, 30691.63, 17463.30, 10446.80, -170.16, 17235.52, 35117.67, 0.00, 0.000, 0.000, 0.000, 13:09:30.056
236, 0.00, 30693.95, 17466.61, 10452.64, -234.07, 17231.70, 35115.33, 0.00, 0.000, 0.000, 0.000, 13:09:30.056
237, 0.00, 30690.58, 17461.21, 10513.99, -227.74, 17226.15, 35128.80, 0.00, 0.036, -0.034, 0.990, 13:09:30.057
238, 0.00, 30688.86, 17456.11, 10550.56, -139.43, 17227.63, 35143.47, 0.00, 0.000, 0.000, 0.000, 13:09:30.057
239, 0.00, 30696.86, 17460.87, 10505.12, -117.66, 17236.68, 35143.20, 0.00, 0.000, 0.000, 0.000, 13:09:30.057
240, 0.00, 30700.48, 17466.50, 10452.39, -165.83, 17239.41, 35126.12, 0.00, 0.000, 0.000, 0.000, 13:09:30.057
241, 0.00, 30697.62, 17461.96, 10448.75, -232.66, 17229.86, 35117.85, 0.00, 0.000, 0.000, 0.000, 13:09:30.509
242, 0.00, 30695.89, 17456.64, 10503.78, -230.98, 17224.05, 35134.26, 0.00, 0.000, 0.000, 0.000, 13:09:30.509
243, 0.00, 30697.28, 17457.14, 10547.97, -142.36, 17226.78, 35152.39, 0.00, 0.000, 0.000, 0.000, 13:09:30.509
244, 0.00, 30702.91, 17462.21, 10506.46, -116.50, 17234.18, 35149.55, 0.00, 0.000, 0.000, 0.000, 13:09:30.509
245, 0.00, 30706.85, 17466.05, 10447.99, -169.29, 17238.16, 35133.16, 0.00, 0.000, 0.000, 0.000, 13:09:30.509
246, 0.00, 30704.39, 17467.26, 10453.91, -236.06, 17230.56, 35125.41, 0.00, 0.000, 0.000, 0.000, 13:09:30.509
247, 0.00, 30699.56, 17460.45, 10512.54, -230.83, 17225.26, 35138.80, 0.00, 0.034, -0.032, 0.992, 13:09:30.510
248, 0.00, 30703.63, 17460.91, 10554.34, -136.57, 17232.77, 35159.36, 0.00, 0.000, 0.000, 0.000, 13:09:30.510
249, 0.00, 30710.67, 17467.13, 10509.63, -114.91, 17239.92, 35157.10, 0.00, 0.000, 0.000, 0.000, 13:09:30.510
250, 0.00, 30711.88, 17466.28, 10447.72, -170.30, 17235.50, 35137.77, 0.00, 0.000, 0.000, 0.000, 13:09:30.510
251, 0.00, 30708.79, 17463.57, 10446.56, -238.63, 17228.08, 35128.74, 0.00, 0.000, 0.000, 0.000, 13:09:30.510
252, 0.00, 30704.99, 17458.88, 10505.34, -230.58, 17223.34, 35143.16, 0.00, 0.000, 0.000, 0.000, 13:09:30.510
253, 0.00, 30705.33, 17456.24, 10549.44, -135.05, 17226.64, 35160.12, 0.00, 0.000, 0.000, 0.000, 13:09:30.510
254, 0.00, 30709.55, 17462.10, 10504.00, -118.78, 17234.31, 35155.07, 0.00, 0.000, 0.000, 0.000, 13:09:30.511
255, 0.00, 30711.70, 17465.36, 10446.15, -172.09, 17235.45, 35137.21, 0.00, 0.000, 0.000, 0.000, 13:09:30.511
0, 0.00, 30707.67, 17462.32, 10443.49, -240.88, 17226.33, 35128.63, 0.00, 0.000, 0.000, 0.000, 13:09:30.511
1, 0.00, 30703.32, 17457.14, 10500.89, -233.67, 17222.33, 35141.59, 0.00, 0.036, -0.032, 0.992, 13:09:30.511
2, 0.00, 30701.75, 17454.88, 10542.69, -142.43, 17225.60, 35156.57, 0.00, 0.000, 0.000, 0.000, 13:09:30.511
3, 0.00, 30707.23, 17460.47, 10495.51, -124.88, 17232.81, 35152.57, 0.00, 0.000, 0.000, 0.000, 13:09:30.511
4, 0.00, 30714.09, 17466.97, 10440.30, -174.79, 17235.36, 35138.66, 0.00, 0.000, 0.000, 0.000, 13:09:30.511
5, 0.00, 30710.60, 17461.61, 10441.71, -239.66, 17228.14, 35131.73, 0.00, 0.000, 0.000, 0.000, 13:09:30.512
6, 0.00, 30707.23, 17455.13, 10497.74, -235.39, 17220.10, 35146.24, 0.00, 0.000, 0.000, 0.000, 13:09:30.512
7, 0.00, 30707.90, 17455.97, 10542.38, -143.79, 17221.28, 35162.06, 0.00, 0.000, 0.000, 0.000, 13:09:30.512
8, 0.00, 30711.03, 17460.31, 10492.27, -128.01, 17227.54, 35156.01, 0.00, 0.000, 0.000, 0.000, 13:09:30.512
9, 0.00, 30713.93, 17464.00, 10432.72, -179.86, 17230.94, 35137.81, 0.00, 0.000, 0.000, 0.000, 13:09:30.512
10, 0.00, 30709.26, 17459.77, 10438.76, -245.40, 17222.04, 35128.29, 0.00, 0.000, 0.000, 0.000, 13:09:30.512
11, 0.00, 30704.77, 17457.18, 10498.14, -240.35, 17215.85, 35141.81, 0.00, 0.036, -0.028, 0.994, 13:09:30.512
12, 0.00, 30703.00, 17454.28, 10539.05, -147.41, 17218.08, 35156.45, 0.00, 0.000, 0.000, 0.000, 13:09:30.512
13, 0.00, 30708.70, 17461.94, 10493.38, -131.47, 17225.88, 35152.21, 0.00, 0.000, 0.000, 0.000, 13:09:30.513
14, 0.00, 30711.27, 17468.36, 10443.18, -179.31, 17228.01, 35135.29, 0.00, 0.000, 0.000, 0.000, 13:09:30.513
15, 0.00, 30709.64, 17466.32, 10447.21, -243.21, 17224.23, 35130.08, 0.00, 0.000, 0.000, 0.000, 13:09:30.513
16, 0.00, 30704.26, 17461.03, 10503.11, -237.96, 17218.82, 35142.73, 0.00, 0.000, 0.000, 0.000, 13:09:30.513
17, 0.00, 30703.72, 17459.48, 10542.54, -146.23, 17220.37, 35158.58, 0.00, 0.000, 0.000, 0.000, 13:09:30.513
18, 0.00, 30710.49, 17464.69, 10496.60, -128.97, 17229.33, 35155.45, 0.00, 0.000, 0.000, 0.000, 13:09:30.513
19, 0.00, 30711.16, 17467.04, 10438.00, -181.12, 17227.81, 35134.84, 0.00, 0.000, 0.000, 0.000, 13:09:30.514
20, 0.00, 30710.65, 17467.28, 10439.81, -247.41, 17223.83, 35130.32, 0.00, 0.000, 0.000, 0.000, 13:09:30.514
21, 0.00, 30707.54, 17462.01, 10500.76, -237.69, 17218.13, 35145.43, 0.00, 0.028, -0.030, 0.998, 13:09:30.514
22, 0.00, 30705.73, 17459.46, 10540.99, -147.50, 17218.22, 35159.83, 0.00, 0.000, 0.000, 0.000, 13:09:30.514
23, 0.00, 30710.54, 17462.88, 10492.49, -131.14, 17226.24, 35154.55, 0.00, 0.000, 0.000, 0.000, 13:09:30.514
24, 0.00, 30711.41, 17465.61, 10435.54, -183.49, 17230.51, 35135.51, 0.00, 0.000, 0.000, 0.000, 13:09:30.517
25, 0.00, 30707.90, 17462.95, 10440.57, -248.57, 17222.78, 35128.47, 0.00, 0.000, 0.000, 0.000, 13:09:30.517
26, 0.00, 30703.23, 17458.97, 10500.54, -240.93, 17214.80, 35141.43, 0.00, 0.000, 0.000, 0.000, 13:09:30.517
27, 0.00, 30703.07, 17459.04, 10539.81, -146.96, 17218.33, 35156.70, 0.00, 0.000, 0.000, 0.000, 13:09:30.517
28, 0.00, 30707.79, 17464.49, 10491.98, -128.66, 17225.77, 35152.77, 0.00, 0.000, 0.000, 0.000, 13:09:30.517
29, 0.00, 30711.27, 17470.37, 10439.27, -180.22, 17229.64, 35136.58, 0.00, 0.000, 0.000, 0.000, 13:09:30.517
30, 0.00, 30708.79, 17467.40, 10446.56, -241.53, 17221.44, 35130.41, 0.00, 0.000, 0.000, 0.000, 13:09:30.517
31, 0.00, 30706.63, 17463.04, 10507.46, -230.67, 17213.95, 35145.57, 0.00, 0.028, -0.026, 0.998, 13:09:30.518
32, 0.00, 30705.84, 17461.49, 10545.58, -140.53, 17219.40, 35160.14, 0.00, 0.000, 0.000, 0.000, 13:09:30.518
33, 0.00, 30709.26, 17464.98, 10496.83, -126.31, 17227.27, 35154.58, 0.00, 0.000, 0.000, 0.000, 13:09:30.518
34, 0.00, 30710.87, 17468.67, 10439.90, -182.99, 17226.53, 35135.78, 0.00, 0.000, 0.000, 0.000, 13:09:30.518
35, 0.00, 30704.95, 17463.13, 10442.09, -248.73, 17216.07, 35125.61, 0.00, 0.000, 0.000, 0.000, 13:09:30.518
36, 0.00, 30704.41, 17463.24, 10504.05, -238.67, 17212.41, 35143.07, 0.00, 0.000, 0.000, 0.000, 13:09:30.518
37, 0.00, 30708.12, 17465.72, 10549.49, -142.74, 17217.50, 35161.42, 0.00, 0.000, 0.000, 0.000, 13:09:30.518
38, 0.00, 30713.33, 17466.99, 10497.07, -127.96, 17225.21, 35156.19, 0.00, 0.000, 0.000, 0.000, 13:09:30.518
39, 0.00, 30712.93, 17466.95, 10435.78, -188.76, 17222.76, 35135.89, 0.00, 0.000, 0.000, 0.000, 13:09:30.519
40, 0.00, 30710.16, 17464.78, 10449.04, -250.47, 17219.31, 35130.75, 0.00, 0.000, 0.000, 0.000, 13:09:30.519
41, 0.00, 30706.74, 17460.31, 10513.95, -236.06, 17217.53, 35145.26, 0.00, 0.032, -0.028, 0.994, 13:09:30.519
42, 0.00, 30706.02, 17460.42, 10552.21, -145.69, 17221.48, 35159.81, 0.00, 0.000, 0.000, 0.000, 13:09:30.519
43, 0.00, 30707.50, 17462.77, 10499.20, -132.23, 17225.01, 35152.41, 0.00, 0.000, 0.000, 0.000, 13:09:30.519
44, 0.00, 30709.48, 17464.67, 10443.81, -186.91, 17227.23, 35134.95, 0.00, 0.000, 0.000, 0.000, 13:09:30.519
45, 0.00, 30705.55, 17462.34, 10451.14, -249.36, 17219.72, 35128.40, 0.00, 0.000, 0.000, 0.000, 13:09:30.519
46, 0.00, 30703.67, 17460.40, 10514.24, -235.57, 17218.44, 35145.30, 0.00, 0.000, 0.000, 0.000, 13:09:30.519
47, 0.00, 30705.26, 17462.19, 10556.82, -140.44, 17222.18, 35161.55, 0.00, 0.000, 0.000, 0.000, 13:09:30.520
48, 0.00, 30716.53, 17468.36, 10508.87, -130.13, 17225.84, 35153.79, 0.00, 0.000, 0.000, 0.000, 13:09:30.520
49, 0.00, 30726.49, 17466.46, 10445.86, -188.11, 17223.61, 35133.21, 0.00, 0.000, 0.000, 0.000, 13:09:30.520
50, 0.00, 30727.48, 17459.39, 10447.05, -254.34, 17212.32, 35129.09, 0.00, 0.000, 0.000, 0.000, 13:09:30.520
51, 0.00, 30722.61, 17456.94, 10508.45, -243.34, 17206.95, 35139.80, 0.00, 0.030, -0.030, 0.998, 13:09:30.520
52, 0.00, 30715.95, 17459.19, 10550.58, -148.50, 17212.18, 35145.84, 0.00, 0.000, 0.000, 0.000, 13:09:30.520
53, 0.00, 30720.93, 17462.32, 10496.04, -137.60, 17219.29, 35139.80, 0.00, 0.000, 0.000, 0.000, 13:09:30.520
54, 0.00, 30723.10, 17464.67, 10438.24, -193.81, 17219.98, 35122.61, 0.00, 0.000, 0.000, 0.000, 13:09:30.521
55, 0.00, 30718.02, 17464.00, 10447.56, -257.25, 17214.49, 35115.84, 0.00, 0.000, 0.000, 0.000, 13:09:30.521
56, 0.00, 30711.25, 17456.71, 10505.34, -243.79, 17210.57, 35125.34, 0.00, 0.000, 0.000, 0.000, 13:09:30.521
57, 0.00, 30710.85, 17458.48, 10544.95, -151.08, 17214.96, 35139.18, 0.00, 0.000, 0.000, 0.000, 13:09:30.521
58, 0.00, 30715.63, 17467.31, 10500.60, -134.76, 17222.15, 35133.43, 0.00, 0.000, 0.000, 0.000, 13:09:30.521
59, 0.00, 30714.67, 17468.07, 10443.07, -192.81, 17219.98, 35112.93, 0.00, 0.000, 0.000, 0.000, 13:09:30.521
60, 0.00, 30711.34, 17465.29, 10451.14, -255.08, 17213.57, 35105.94, 0.00, 0.000, 0.000, 0.000, 13:09:30.521
61, 0.00, 30705.73, 17458.81, 10507.46, -241.91, 17207.00, 35118.86, 0.00, 0.038, -0.034, 0.994, 13:09:30.522
62, 0.00, 30704.84, 17455.48, 10539.21, -153.82, 17209.68, 35135.15, 0.00, 0.000, 0.000, 0.000, 13:09:30.522
63, 0.00, 30707.38, 17459.26, 10486.25, -142.29, 17216.61, 35130.55, 0.00, 0.000, 0.000, 0.000, 13:09:30.522
64, 0.00, 30709.04, 17463.62, 10436.74, -196.54, 17215.04, 35113.74, 0.00, 0.000, 0.000, 0.000, 13:09:30.522
65, 0.00, 30706.63, 17459.82, 10447.03, -257.16, 17210.20, 35109.98, 0.00, 0.000, 0.000, 0.000, 13:09:30.522
66, 0.00, 30701.88, 17452.76, 10503.44, -244.22, 17209.35, 35126.30, 0.00, 0.000, 0.000, 0.000, 13:09:30.522
67, 0.00, 30700.43, 17450.88, 10538.80, -154.52, 17208.00, 35140.88, 0.00, 0.000, 0.000, 0.000, 13:09:30.522
68, 0.00, 30704.28, 17455.73, 10487.80, -145.89, 17211.49, 35134.46, 0.00, 0.000, 0.000, 0.000, 13:09:30.523
69, 0.00, 30706.36, 17461.18, 10433.19, -202.91, 17212.94, 35117.79, 0.00, 0.000, 0.000, 0.000, 13:09:30.523
70, 0.00, 30703.90, 17461.32, 10442.78, -262.72, 17206.93, 35113.34, 0.00, 0.000, 0.000, 0.000, 13:09:30.523
71, 0.00, 30699.03, 17456.69, 10503.24, -244.84, 17203.20, 35127.73, 0.00, 0.030, -0.032, 0.994, 13:09:30.523
72, 0.00, 30697.64, 17455.77, 10539.38, -153.94, 17206.26, 35140.65, 0.00, 0.000, 0.000, 0.000, 13:09:30.523
73, 0.00, 30701.73, 17458.92, 10483.10, -145.40, 17211.54, 35134.28, 0.00, 0.000, 0.000, 0.000, 13:09:30.523
74, 0.00, 30703.54, 17463.51, 10429.10, -201.72, 17212.61, 35116.67, 0.00, 0.000, 0.000, 0.000, 13:09:30.523
75, 0.00, 30701.15, 17464.29, 10444.10, -260.53, 17206.64, 35112.87, 0.00, 0.000, 0.000, 0.000, 13:09:30.523
76, 0.00, 30696.39, 17459.06, 10503.62, -244.75, 17204.25, 35128.20, 0.00, 0.000, 0.000, 0.000, 13:09:30.523
77, 0.00, 30695.78, 17458.95, 10537.60, -152.30, 17208.09, 35142.89, 0.00, 0.000, 0.000, 0.000, 13:09:30.524
78, 0.00, 30701.24, 17463.02, 10485.23, -142.07, 17214.75, 35136.81, 0.00, 0.000, 0.000, 0.000, 13:09:30.524
79, 0.00, 30701.82, 17465.23, 10429.99, -199.31, 17215.96, 35117.25, 0.00, 0.000, 0.000, 0.000, 13:09:30.524
80, 0.00, 30694.60, 17459.30, 10435.89, -265.02, 17205.32, 35107.48, 0.00, 0.000, 0.000, 0.000, 13:09:30.524
81, 0.00, 30691.96, 17455.39, 10496.20, -247.55, 17200.99, 35124.04, 0.00, 0.034, -0.032, 0.992, 13:09:30.524
82, 0.00, 30692.70, 17454.88, 10535.47, -154.43, 17209.23, 35140.09, 0.00, 0.000, 0.000, 0.000, 13:09:30.524
83, 0.00, 30699.18, 17463.30, 10483.26, -144.21, 17218.13, 35135.09, 0.00, 0.000, 0.000, 0.000, 13:09:30.524
84, 0.00, 30700.86, 17466.84, 10432.05, -198.86, 17216.83, 35116.42, 0.00, 0.000, 0.000, 0.000, 13:09:30.524
85, 0.00, 30697.71, 17462.54, 10439.52, -260.20, 17209.79, 35111.93, 0.00, 0.000, 0.000, 0.000, 13:09:30.525
86, 0.00, 30692.03, 17459.62, 10500.60, -246.07, 17203.27, 35125.90, 0.00, 0.000, 0.000, 0.000, 13:09:30.525
87, 0.00, 30691.00, 17459.91, 10533.42, -157.11, 17204.85, 35139.71, 0.00, 0.000, 0.000, 0.000, 13:09:30.525
88, 0.00, 30695.56, 17463.62, 10481.16, -148.68, 17210.04, 35133.50, 0.00, 0.000, 0.000, 0.000, 13:09:30.525
89, 0.00, 30699.54, 17467.93, 10433.08, -201.97, 17213.08, 35117.52, 0.00, 0.000, 0.000, 0.000, 13:09:30.525
90, 0.00, 30697.08, 17464.67, 10439.74, -263.62, 17206.64, 35113.00, 0.00, 0.000, 0.000, 0.000, 13:09:30.525
91, 0.00, 30692.28, 17460.82, 10499.73, -242.78, 17201.81, 35127.78, 0.00, 0.032, -0.036, 0.996, 13:09:30.525
92, 0.00, 30694.26, 17461.32, 10534.73, -152.30, 17207.27, 35143.22, 0.00, 0.000, 0.000, 0.000, 13:09:30.525
93, 0.00, 30698.51, 17463.33, 10477.96, -147.97, 17214.84, 35134.97, 0.00, 0.000, 0.000, 0.000, 13:09:30.526
94, 0.00, 30700.14, 17465.56, 10424.16, -206.40, 17215.89, 35116.98, 0.00, 0.000, 0.000, 0.000, 13:09:30.526
95, 0.00, 30695.92, 17461.14, 10436.88, -262.34, 17207.47, 35111.41, 0.00, 0.000, 0.000, 0.000, 13:09:30.526
96, 0.00, 30691.38, 17457.16, 10498.39, -242.43, 17202.60, 35126.61, 0.00, 0.000, 0.000, 0.000, 13:09:30.526
97, 0.00, 30692.14, 17457.83, 10527.89, -155.64, 17205.46, 35141.50, 0.00, 0.000, 0.000, 0.000, 13:09:30.526
98, 0.00, 30696.10, 17462.14, 10475.01, -148.21, 17209.70, 35133.50, 0.00, 0.000, 0.000, 0.000, 13:09:30.526
99, 0.00, 30698.47, 17467.64, 10423.60, -206.11, 17209.57, 35116.36, 0.00, 0.000, 0.000, 0.000, 13:09:30.526
100, 0.00, 30692.68, 17464.56, 10433.88, -266.90, 17200.87, 35108.87, 0.00, 0.000, 0.000, 0.000, 13:09:30.526
101, 0.00, 30688.29, 17458.81, 10494.37, -248.84, 17198.24, 35122.21, 0.00, 0.032, -0.036, 0.990, 13:09:30.527
102, 0.00, 30688.01, 17457.47, 10526.17, -158.94, 17199.40, 35135.62, 0.00, 0.000, 0.000, 0.000, 13:09:30.527
103, 0.00, 30692.05, 17463.71, 10474.05, -150.45, 17206.64, 35128.38, 0.00, 0.000, 0.000, 0.000, 13:09:30.527
104, 0.00, 30694.26, 17467.02, 10420.47, -206.80, 17210.62, 35110.75, 0.00, 0.000, 0.000, 0.000, 13:09:30.527
105, 0.00, 30690.46, 17464.09, 10433.77, -267.89, 17201.99, 35105.20, 0.00, 0.000, 0.000, 0.000, 13:09:30.990
106, 0.00, 30686.48, 17459.80, 10497.85, -245.71, 17198.13, 35120.56, 0.00, 0.000, 0.000, 0.000, 13:09:30.990
107, 0.00, 30687.36, 17461.90, 10530.67, -155.28, 17203.85, 35135.49, 0.00, 0.000, 0.000, 0.000, 13:09:30.990
108, 0.00, 30692.95, 17469.63, 10479.91, -146.67, 17210.73, 35130.32, 0.00, 0.000, 0.000, 0.000, 13:09:30.990
109, 0.00, 30694.26, 17471.73, 10425.99, -208.81, 17209.28, 35111.15, 0.00, 0.000, 0.000, 0.000, 13:09:30.990
110, 0.00, 30687.22, 17462.95, 10434.44, -272.56, 17197.41, 35102.81, 0.00, 0.000, 0.000, 0.000, 13:09:30.991
111, 0.00, 30683.94, 17457.74, 10493.94, -251.21, 17191.42, 35119.84, 0.00, 0.036, -0.036, 0.998, 13:09:30.991
112, 0.00, 30685.46, 17459.37, 10527.85, -160.95, 17195.06, 35134.84, 0.00, 0.000, 0.000, 0.000, 13:09:30.991
113, 0.00, 30689.70, 17465.59, 10475.99, -154.92, 17202.64, 35126.73, 0.00, 0.000, 0.000, 0.000, 13:09:30.991
114, 0.00, 30691.27, 17469.14, 10424.43, -213.79, 17202.04, 35108.64, 0.00, 0.000, 0.000, 0.000, 13:09:30.991
115, 0.00, 30686.04, 17465.34, 10440.41, -272.96, 17195.55, 35103.30, 0.00, 0.000, 0.000, 0.000, 13:09:30.991
116, 0.00, 30681.88, 17457.74, 10497.23, -254.30, 17191.55, 35118.01, 0.00, 0.000, 0.000, 0.000, 13:09:30.992
117, 0.00, 30684.99, 17458.03, 10526.00, -163.91, 17196.83, 35135.04, 0.00, 0.000, 0.000, 0.000, 13:09:30.992
118, 0.00, 30690.64, 17463.37, 10471.48, -157.83, 17202.97, 35128.34, 0.00, 0.000, 0.000, 0.000, 13:09:30.992
119, 0.00, 30691.16, 17465.74, 10418.06, -218.51, 17202.91, 35109.36, 0.00, 0.000, 0.000, 0.000, 13:09:30.992
120, 0.00, 30685.35, 17463.93, 10434.22, -274.75, 17195.31, 35104.80, 0.00, 0.000, 0.000, 0.000, 13:09:30.992
121, 0.00, 30679.65, 17458.41, 10498.01, -252.15, 17190.68, 35119.17, 0.00, 0.030, -0.032, 0.996, 13:09:30.992
122, 0.00, 30683.96, 17461.36, 10528.43, -162.05, 17198.19, 35134.88, 0.00, 0.000, 0.000, 0.000, 13:09:30.993
123, 0.00, 30687.60, 17466.23, 10471.88, -159.30, 17201.14, 35125.77, 0.00, 0.000, 0.000, 0.000, 13:09:30.993
124, 0.00, 30688.81, 17468.98, 10416.67, -221.51, 17199.94, 35107.68, 0.00, 0.000, 0.000, 0.000, 13:09:30.993
125, 0.00, 30687.22, 17466.90, 10433.59, -275.69, 17196.89, 35105.25, 0.00, 0.000, 0.000, 0.000, 13:09:30.993
126, 0.00, 30682.66, 17460.18, 10495.24, -252.78, 17193.27, 35120.49, 0.00, 0.000, 0.000, 0.000, 13:09:30.994
127, 0.00, 30682.02, 17458.28, 10521.32, -165.56, 17195.44, 35134.28, 0.00, 0.000, 0.000, 0.000, 13:09:30.994
128, 0.00, 30685.21, 17460.38, 10463.19, -162.47, 17199.02, 35126.28, 0.00, 0.000, 0.000, 0.000, 13:09:30.994
129, 0.00, 30688.34, 17464.80, 10412.85, -224.46, 17200.09, 35109.29, 0.00, 0.000, 0.000, 0.000, 13:09:30.994
130, 0.00, 30685.01, 17462.77, 10429.30, -279.75, 17194.71, 35105.40, 0.00, 0.000, 0.000, 0.000, 13:09:30.994
131, 0.00, 30681.46, 17458.70, 10492.02, -254.21, 17190.41, 35121.09, 0.00, 0.030, -0.032, 0.994, 13:09:30.995
132, 0.00, 30681.32, 17459.51, 10514.33, -169.58, 17191.58, 35133.39, 0.00, 0.000, 0.000, 0.000, 13:09:30.995
133, 0.00, 30685.57, 17467.13, 10465.04, -162.21, 17197.61, 35125.03, 0.00, 0.000, 0.000, 0.000, 13:09:30.995
134, 0.00, 30687.69, 17470.86, 10415.15, -223.16, 17199.22, 35107.32, 0.00, 0.000, 0.000, 0.000, 13:09:30.995
135, 0.00, 30684.12, 17465.45, 10428.72, -281.68, 17193.70, 35102.88, 0.00, 0.000, 0.000, 0.000, 13:09:30.995
136, 0.00, 30677.79, 17457.00, 10488.40, -258.25, 17186.17, 35116.13, 0.00, 0.000, 0.000, 0.000, 13:09:30.996
137, 0.00, 30678.64, 17456.67, 10515.53, -170.03, 17192.02, 35130.19, 0.00, 0.000, 0.000, 0.000, 13:09:30.996
138, 0.00, 30685.93, 17468.45, 10467.12, -159.88, 17200.63, 35124.54, 0.00, 0.000, 0.000, 0.000, 13:09:30.996
139, 0.00, 30687.80, 17470.19, 10414.97, -222.20, 17202.15, 35106.74, 0.00, 0.000, 0.000, 0.000, 13:09:30.996
140, 0.00, 30684.09, 17466.79, 10428.16, -279.20, 17194.73, 35102.59, 0.00, 0.030, -0.032, 0.988, 13:09:30.996
141, 0.00, 30678.30, 17461.83, 10491.24, -253.45, 17189.65, 35117.07, 0.00, 0.000, 0.000, 0.000, 13:09:30.998
142, 0.00, 30677.41, 17460.78, 10519.38, -167.59, 17193.65, 35128.94, 0.00, 0.000, 0.000, 0.000, 13:09:30.998
143, 0.00, 30679.02, 17463.28, 10458.76, -168.02, 17195.06, 35117.94, 0.00, 0.000, 0.000, 0.000, 13:09:30.998
144, 0.00, 30682.04, 17468.36, 10405.79, -230.42, 17192.18, 35101.27, 0.00, 0.000, 0.000, 0.000, 13:09:30.998
145, 0.00, 30679.11, 17466.12, 10426.75, -283.76, 17187.13, 35098.61, 0.00, 0.000, 0.000, 0.000, 13:09:30.998
146, 0.00, 30674.44, 17457.67, 10486.72, -259.03, 17186.28, 35113.67, 0.00, 0.000, 0.000, 0.000, 13:09:30.998
147, 0.00, 30678.19, 17457.83, 10515.71, -168.67, 17190.62, 35129.92, 0.00, 0.000, 0.000, 0.000, 13:09:30.998
148, 0.00, 30683.80, 17464.04, 10462.18, -164.91, 17197.30, 35123.44, 0.00, 0.000, 0.000, 0.000, 13:09:30.998
149, 0.00, 30684.21, 17466.37, 10409.74, -227.74, 17199.09, 35104.80, 0.00, 0.000, 0.000, 0.000, 13:09:30.998
150, 0.00, 30677.88, 17460.89, 10424.92, -287.62, 17187.42, 35097.69, 0.00, 0.034, -0.034, 0.988, 13:09:30.998
151, 0.00, 30672.61, 17454.41, 10485.36, -263.82, 17177.00, 35112.02, 0.00, 0.000, 0.000, 0.000, 13:09:30.999
152, 0.00, 30675.38, 17458.70, 10518.44, -171.82, 17189.34, 35127.60, 0.00, 0.000, 0.000, 0.000, 13:09:31.000
153, 0.00, 30681.03, 17465.50, 10464.48, -167.06, 17197.59, 35120.98, 0.00, 0.000, 0.000, 0.000, 13:09:31.000
154, 0.00, 30681.61, 17465.90, 10409.39, -231.90, 17193.68, 35101.54, 0.00, 0.000, 0.000, 0.000, 13:09:31.000
155, 0.00, 30677.84, 17463.08, 10428.38, -284.98, 17188.76, 35098.52, 0.00, 0.000, 0.000, 0.000, 13:09:31.000
156, 0.00, 30671.31, 17457.11, 10494.26, -259.15, 17182.03, 35112.04, 0.00, 0.000, 0.000, 0.000, 13:09:31.000
157, 0.00, 30674.68, 17459.35, 10523.45, -169.69, 17187.75, 35127.20, 0.00, 0.000, 0.000, 0.000, 13:09:31.000
158, 0.00, 30680.03, 17464.89, 10466.92, -167.68, 17194.84, 35117.79, 0.00, 0.000, 0.000, 0.000, 13:09:31.001
159, 0.00, 30678.91, 17464.11, 10412.49, -232.41, 17192.76, 35097.33, 0.00, 0.000, 0.000, 0.000, 13:09:31.001
160, 0.00, 30677.72, 17462.43, 10428.36, -288.56, 17186.97, 35096.13, 0.00, 0.038, -0.032, 0.990, 13:09:31.001
161, 0.00, 30676.14, 17460.04, 10494.28, -259.30, 17182.30, 35113.16, 0.00, 0.000, 0.000, 0.000, 13:09:31.001
162, 0.00, 30675.49, 17458.95, 10520.52, -170.95, 17183.08, 35125.70, 0.00, 0.000, 0.000, 0.000, 13:09:31.001
163, 0.00, 30677.59, 17462.59, 10461.08, -170.12, 17187.11, 35116.00, 0.00, 0.000, 0.000, 0.000, 13:09:31.001
164, 0.00, 30678.37, 17463.95, 10406.17, -231.16, 17190.57, 35098.00, 0.00, 0.000, 0.000, 0.000, 13:09:31.001
165, 0.00, 30676.79, 17459.75, 10423.76, -281.43, 17185.61, 35097.69, 0.00, 0.000, 0.000, 0.000, 13:09:31.001
166, 0.00, 30671.13, 17452.60, 10488.73, -255.01, 17178.46, 35111.80, 0.00, 0.000, 0.000, 0.000, 13:09:31.001
167, 0.00, 30673.61, 17456.13, 10518.75, -169.31, 17187.08, 35126.21, 0.00, 0.000, 0.000, 0.000, 13:09:31.002
168, 0.00, 30678.91, 17461.56, 10461.80, -168.06, 17191.35, 35117.92, 0.00, 0.000, 0.000, 0.000, 13:09:31.002
169, 0.00, 30681.10, 17464.51, 10410.62, -231.47, 17191.69, 35099.37, 0.00, 0.000, 0.000, 0.000, 13:09:31.002
170, 0.00, 30678.57, 17459.82, 10428.18, -286.24, 17186.90, 35097.04, 0.00, 0.030, -0.036, 0.990, 13:09:31.002
171, 0.00, 30672.13, 17452.69, 10489.20, -259.68, 17178.05, 35111.15, 0.00, 0.000, 0.000, 0.000, 13:09:31.002
172, 0.00, 30673.63, 17453.81, 10515.36, -175.10, 17181.96, 35124.40, 0.00, 0.000, 0.000, 0.000, 13:09:31.003
173, 0.00, 30679.29, 17460.20, 10456.70, -175.17, 17187.62, 35116.76, 0.00, 0.000, 0.000, 0.000, 13:09:31.003
174, 0.00, 30680.38, 17464.60, 10407.26, -237.69, 17185.54, 35097.91, 0.00, 0.000, 0.000, 0.000, 13:09:31.003
175, 0.00, 30674.53, 17458.79, 10423.45, -293.79, 17178.12, 35093.09, 0.00, 0.000, 0.000, 0.000, 13:09:31.003
176, 0.00, 30670.84, 17455.66, 10486.95, -262.05, 17177.47, 35111.10, 0.00, 0.000, 0.000, 0.000, 13:09:31.004
177, 0.00, 30671.89, 17458.39, 10515.06, -171.15, 17185.54, 35125.09, 0.00, 0.000, 0.000, 0.000, 13:09:31.004
178, 0.00, 30674.91, 17462.32, 10457.58, -172.91, 17191.55, 35113.67, 0.00, 0.000, 0.000, 0.000, 13:09:31.004
179, 0.00, 30676.43, 17463.10, 10405.88, -238.49, 17189.23, 35095.14, 0.00, 0.000, 0.000, 0.000, 13:09:31.004
180, 0.00, 30672.43, 17457.61, 10424.81, -293.93, 17178.92, 35092.04, 0.00, 0.034, -0.032, 0.992, 13:09:31.004
181, 0.00, 30670.71, 17455.57, 10489.07, -262.92, 17175.55, 35110.12, 0.00, 0.000, 0.000, 0.000, 13:09:31.005
182, 0.00, 30671.49, 17455.21, 10511.73, -176.33, 17180.67, 35121.54, 0.00, 0.000, 0.000, 0.000, 13:09:31.005
183, 0.00, 30676.54, 17461.38, 10454.83, -173.87, 17188.13, 35112.87, 0.00, 0.000, 0.000, 0.000, 13:09:31.006
184, 0.00, 30675.91, 17463.71, 10403.69, -240.44, 17183.37, 35093.60, 0.00, 0.000, 0.000, 0.000, 13:09:31.006
185, 0.00, 30669.83, 17459.24, 10421.90, -295.29, 17173.83, 35088.57, 0.00, 0.000, 0.000, 0.000, 13:09:31.006
186, 0.00, 30662.88, 17450.86, 10479.59, -270.81, 17170.83, 35102.63, 0.00, 0.000, 0.000, 0.000, 13:09:31.006
187, 0.00, 30667.38, 17455.55, 10510.77, -176.04, 17178.23, 35118.97, 0.00, 0.000, 0.000, 0.000, 13:09:31.006
188, 0.00, 30674.59, 17462.21, 10454.49, -174.66, 17188.36, 35112.49, 0.00, 0.000, 0.000, 0.000, 13:09:31.006
189, 0.00, 30676.07, 17463.28, 10404.25, -240.42, 17187.42, 35095.32, 0.00, 0.000, 0.000, 0.000, 13:09:31.006
190, 0.00, 30671.78, 17460.98, 10427.02, -293.77, 17181.09, 35092.15, 0.00, 0.036, -0.034, 0.990, 13:09:31.007
191, 0.00, 30665.12, 17453.78, 10488.31, -264.40, 17175.15, 35106.57, 0.00, 0.000, 0.000, 0.000, 13:09:31.007
192, 0.00, 30665.72, 17453.36, 10509.66, -178.64, 17177.85, 35119.15, 0.00, 0.000, 0.000, 0.000, 13:09:31.007
193, 0.00, 30670.41, 17459.69, 10453.20, -180.85, 17181.76, 35109.43, 0.00, 0.000, 0.000, 0.000, 13:09:31.007
194, 0.00, 30673.77, 17465.50, 10406.59, -244.42, 17183.08, 35093.89, 0.00, 0.000, 0.000, 0.000, 13:09:31.008
195, 0.00, 30672.07, 17463.78, 10428.18, -295.91, 17179.01, 35093.18, 0.00, 0.000, 0.000, 0.000, 13:09:31.008
196, 0.00, 30666.57, 17456.24, 10487.06, -264.98, 17174.07, 35108.42, 0.00, 0.000, 0.000, 0.000, 13:09:31.008
197, 0.00, 30665.21, 17452.38, 10503.17, -180.20, 17174.30, 35119.15, 0.00, 0.000, 0.000, 0.000, 13:09:31.008
198, 0.00, 30669.03, 17456.58, 10445.51, -180.98, 17180.42, 35107.79, 0.00, 0.000, 0.000, 0.000, 13:09:31.008
199, 0.00, 30672.27, 17461.99, 10403.42, -243.01, 17183.08, 35091.43, 0.00, 0.000, 0.000, 0.000, 13:09:31.009
200, 0.00, 30669.97, 17460.71, 10427.09, -294.53, 17178.48, 35091.52, 0.00, 0.036, -0.036, 0.988, 13:09:31.009
201, 0.00, 30663.96, 17453.94, 10486.01, -265.11, 17167.68, 35106.66, 0.00, 0.000, 0.000, 0.000, 13:09:31.009
202, 0.00, 30666.37, 17455.19, 10509.48, -177.29, 17173.72, 35119.98, 0.00, 0.000, 0.000, 0.000, 13:09:31.009
203, 0.00, 30670.86, 17459.30, 10450.42, -180.87, 17184.87, 35109.40, 0.00, 0.000, 0.000, 0.000, 13:09:31.010
204, 0.00, 30669.74, 17462.52, 10401.65, -253.27, 17180.98, 35088.35, 0.00, 0.000, 0.000, 0.000, 13:09:31.010
205, 0.00, 30665.77, 17458.46, 10422.84, -304.92, 17173.49, 35086.94, 0.00, 0.000, 0.000, 0.000, 13:09:31.010
206, 0.00, 30663.08, 17453.31, 10488.58, -268.31, 17170.63, 35104.57, 0.00, 0.000, 0.000, 0.000, 13:09:31.010
207, 0.00, 30666.88, 17455.95, 10512.58, -179.91, 17176.87, 35119.46, 0.00, 0.000, 0.000, 0.000, 13:09:31.010
208, 0.00, 30670.24, 17459.04, 10452.88, -182.52, 17183.26, 35109.20, 0.00, 0.000, 0.000, 0.000, 13:09:31.011
209, 0.00, 30671.24, 17460.29, 10403.13, -247.97, 17181.41, 35089.73, 0.00, 0.000, 0.000, 0.000, 13:09:31.012
210, 0.00, 30667.78, 17455.33, 10424.05, -300.21, 17172.42, 35087.68, 0.00, 0.032, -0.034, 0.992, 13:09:31.012
211, 0.00, 30662.26, 17450.30, 10487.57, -266.72, 17168.15, 35103.93, 0.00, 0.000, 0.000, 0.000, 13:09:31.012
212, 0.00, 30664.22, 17453.05, 10509.43, -180.60, 17175.33, 35116.82, 0.00, 0.000, 0.000, 0.000, 13:09:31.012
213, 0.00, 30669.63, 17460.04, 10451.00, -183.60, 17179.46, 35106.99, 0.00, 0.000, 0.000, 0.000, 13:09:31.012
214, 0.00, 30670.93, 17463.06, 10404.98, -248.53, 17178.01, 35089.53, 0.00, 0.000, 0.000, 0.000, 13:09:31.012
215, 0.00, 30665.52, 17457.00, 10423.47, -304.74, 17169.83, 35085.98, 0.00, 0.000, 0.000, 0.000, 13:09:31.013
216, 0.00, 30658.99, 17449.56, 10482.74, -273.16, 17163.41, 35100.53, 0.00, 0.000, 0.000, 0.000, 13:09:31.013
217, 0.00, 30661.43, 17449.98, 10503.40, -186.73, 17167.62, 35113.70, 0.00, 0.000, 0.000, 0.000, 13:09:31.013
218, 0.00, 30665.45, 17455.39, 10445.62, -190.66, 17172.31, 35102.77, 0.00, 0.000, 0.000, 0.000, 13:09:31.013
219, 0.00, 30667.58, 17460.71, 10401.72, -251.84, 17173.25, 35086.11, 0.00, 0.000, 0.000, 0.000, 13:09:31.013
220, 0.00, 30663.40, 17456.96, 10425.86, -304.23, 17166.07, 35084.06, 0.00, 0.028, -0.032, 0.994, 13:09:31.013
221, 0.00, 30658.99, 17450.21, 10487.80, -269.38, 17165.36, 35101.43, 0.00, 0.000, 0.000, 0.000, 13:09:31.013
222, 0.00, 30660.31, 17452.64, 10509.70, -181.36, 17172.35, 35114.57, 0.00, 0.000, 0.000, 0.000, 13:09:31.013
223, 0.00, 30666.55, 17457.29, 10449.04, -184.87, 17179.68, 35105.38, 0.00, 0.000, 0.000, 0.000, 13:09:31.013
224, 0.00, 30666.57, 17454.52, 10396.76, -254.18, 17177.00, 35085.78, 0.00, 0.000, 0.000, 0.000, 13:09:31.014
225, 0.00, 30662.17, 17453.09, 10422.64, -303.65, 17167.90, 35083.92, 0.00, 0.000, 0.000, 0.000, 13:09:31.471
226, 0.00, 30660.74, 17451.71, 10489.32, -265.87, 17167.10, 35103.48, 0.00, 0.000, 0.000, 0.000, 13:09:31.471
227, 0.00, 30662.70, 17452.06, 10507.78, -182.01, 17171.39, 35115.66, 0.00, 0.000, 0.000, 0.000, 13:09:31.471
228, 0.00, 30666.68, 17456.53, 10449.10, -186.06, 17177.85, 35104.75, 0.00, 0.000, 0.000, 0.000, 13:09:31.472
229, 0.00, 30667.82, 17457.81, 10401.29, -253.07, 17179.19, 35087.41, 0.00, 0.000, 0.000, 0.000, 13:09:31.472
230, 0.00, 30660.80, 17450.99, 10421.75, -305.93, 17167.66, 35082.85, 0.00, 0.028, -0.034, 0.992, 13:09:31.472
231, 0.00, 30658.12, 17450.21, 10487.24, -269.72, 17166.12, 35101.36, 0.00, 0.000, 0.000, 0.000, 13:09:31.472
232, 0.00, 30659.06, 17451.04, 10504.49, -184.89, 17171.35, 35113.79, 0.00, 0.000, 0.000, 0.000, 13:09:31.472
233, 0.00, 30663.26, 17456.20, 10444.39, -188.43, 17176.87, 35104.04, 0.00, 0.000, 0.000, 0.000, 13:09:31.472
234, 0.00, 30665.68, 17460.65, 10397.99, -253.78, 17177.63, 35087.88, 0.00, 0.000, 0.000, 0.000, 13:09:31.472
235, 0.00, 30660.09, 17455.19, 10419.69, -306.40, 17166.43, 35083.14, 0.00, 0.000, 0.000, 0.000, 13:09:31.472
236, 0.00, 30657.27, 17451.19, 10483.88, -269.61, 17161.85, 35099.39, 0.00, 0.000, 0.000, 0.000, 13:09:31.472
237, 0.00, 30660.02, 17452.89, 10503.73, -184.71, 17169.34, 35111.88, 0.00, 0.000, 0.000, 0.000, 13:09:31.473
238, 0.00, 30665.27, 17458.12, 10442.13, -190.75, 17175.30, 35102.21, 0.00, 0.000, 0.000, 0.000, 13:09:31.473
239, 0.00, 30665.32, 17457.45, 10393.18, -256.84, 17171.86, 35084.82, 0.00, 0.000, 0.000, 0.000, 13:09:31.473
240, 0.00, 30660.29, 17452.82, 10413.45, -309.77, 17166.45, 35082.54, 0.00, 0.032, -0.030, 0.994, 13:09:31.473
241, 0.00, 30658.39, 17452.02, 10480.80, -268.80, 17163.48, 35101.83, 0.00, 0.000, 0.000, 0.000, 13:09:31.473
242, 0.00, 30659.57, 17451.19, 10494.52, -186.84, 17168.60, 35114.57, 0.00, 0.000, 0.000, 0.000, 13:09:31.473
243, 0.00, 30664.27, 17459.39, 10438.96, -189.63, 17177.40, 35104.40, 0.00, 0.000, 0.000, 0.000, 13:09:31.473
244, 0.00, 30662.75, 17458.68, 10391.39, -260.22, 17170.81, 35083.27, 0.00, 0.000, 0.000, 0.000, 13:09:31.473
245, 0.00, 30662.10, 17459.60, 10419.44, -307.60, 17167.95, 35085.49, 0.00, 0.000, 0.000, 0.000, 13:09:31.474
246, 0.00, 30659.30, 17454.10, 10483.26, -268.76, 17163.81, 35103.23, 0.00, 0.000, 0.000, 0.000, 13:09:31.474
247, 0.00, 30661.99, 17455.26, 10500.22, -184.85, 17170.30, 35115.13, 0.00, 0.000, 0.000, 0.000, 13:09:31.474
248, 0.00, 30666.93, 17461.41, 10441.66, -186.48, 17179.33, 35104.93, 0.00, 0.000, 0.000, 0.000, 13:09:31.474
249, 0.00, 30665.61, 17464.60, 10398.23, -255.70, 17174.83, 35086.02, 0.00, 0.000, 0.000, 0.000, 13:09:31.474
250, 0.00, 30660.69, 17459.37, 10420.29, -306.87, 17168.38, 35084.17, 0.00, 0.032, -0.028, 0.994, 13:09:31.474
251, 0.00, 30659.62, 17456.24, 10481.67, -267.84, 17167.14, 35103.17, 0.00, 0.000, 0.000, 0.000, 13:09:31.474
252, 0.00, 30660.47, 17457.65, 10498.30, -182.59, 17171.03, 35114.81, 0.00, 0.000, 0.000, 0.000, 13:09:31.474
253, 0.00, 30664.83, 17463.91, 10439.18, -188.09, 17176.04, 35104.15, 0.00, 0.000, 0.000, 0.000, 13:09:31.474
254, 0.00, 30666.50, 17466.72, 10395.48, -255.26, 17174.01, 35086.31, 0.00, 0.000, 0.000, 0.000, 13:09:31.475
255, 0.00, 30663.06, 17464.29, 10423.33, -302.58, 17168.24, 35086.67, 0.00, 0.000, 0.000, 0.000, 13:09:31.475
0, 0.00, 30657.18, 17457.81, 10488.44, -264.31, 17164.42, 35102.61, 0.00, 0.000, 0.000, 0.000, 13:09:31.475
1, 0.00, 30661.16, 17458.72, 10506.08, -182.59, 17173.54, 35116.13, 0.00, 0.000, 0.000, 0.000, 13:09:31.475
2, 0.00, 30665.94, 17461.88, 10439.25, -193.92, 17176.33, 35104.60, 0.00, 0.000, 0.000, 0.000, 13:09:31.475
3, 0.00, 30667.58, 17463.62, 10394.97, -260.31, 17173.43, 35087.84, 0.00, 0.000, 0.000, 0.000, 13:09:31.475
4, 0.00, 30661.81, 17459.42, 10421.68, -309.71, 17166.21, 35085.33, 0.00, 0.030, -0.028, 0.994, 13:09:31.475
5, 0.00, 30656.73, 17453.69, 10485.56, -268.82, 17163.26, 35101.94, 0.00, 0.000, 0.000, 0.000, 13:09:31.475
6, 0.00, 30658.84, 17454.68, 10498.35, -187.44, 17166.32, 35113.67, 0.00, 0.000, 0.000, 0.000, 13:09:31.476
7, 0.00, 30663.35, 17463.80, 10441.15, -193.01, 17173.92, 35102.45, 0.00, 0.000, 0.000, 0.000, 13:09:31.476
8, 0.00, 30663.55, 17468.80, 10399.80, -258.72, 17177.18, 35085.35, 0.00, 0.000, 0.000, 0.000, 13:09:31.476
9, 0.00, 30658.50, 17463.78, 10424.05, -307.14, 17170.45, 35083.77, 0.00, 0.000, 0.000, 0.000, 13:09:31.476
10, 0.00, 30652.60, 17456.44, 10486.46, -267.64, 17163.52, 35097.65, 0.00, 0.000, 0.000, 0.000, 13:09:31.476
11, 0.00, 30653.43, 17456.85, 10499.13, -188.85, 17166.14, 35107.91, 0.00, 0.000, 0.000, 0.000, 13:09:31.476
12, 0.00, 30659.71, 17461.65, 10437.91, -195.62, 17172.46, 35097.91, 0.00, 0.000, 0.000, 0.000, 13:09:31.476
13, 0.00, 30660.02, 17465.94, 10398.34, -261.81, 17173.40, 35080.70, 0.00, 0.000, 0.000, 0.000, 13:09:31.477
14, 0.00, 30656.15, 17461.70, 10423.47, -312.28, 17165.69, 35080.28, 0.00, 0.030, -0.026, 0.994, 13:09:31.477
15, 0.00, 30654.25, 17458.08, 10489.83, -267.98, 17162.50, 35098.86, 0.00, 0.000, 0.000, 0.000, 13:09:31.477
16, 0.00, 30656.71, 17459.28, 10502.62, -184.78, 17167.93, 35111.97, 0.00, 0.000, 0.000, 0.000, 13:09:31.477
17, 0.00, 30660.13, 17464.40, 10440.97, -193.03, 17173.40, 35101.25, 0.00, 0.000, 0.000, 0.000, 13:09:31.477
18, 0.00, 30659.28, 17466.30, 10397.83, -263.37, 17169.76, 35080.52, 0.00, 0.000, 0.000, 0.000, 13:09:31.477
19, 0.00, 30655.35, 17464.00, 10426.89, -309.50, 17165.02, 35079.12, 0.00, 0.000, 0.000, 0.000, 13:09:31.477
20, 0.00, 30652.20, 17459.91, 10490.50, -266.90, 17163.61, 35096.33, 0.00, 0.000, 0.000, 0.000, 13:09:31.478
21, 0.00, 30651.73, 17457.52, 10497.99, -191.20, 17163.57, 35105.56, 0.00, 0.000, 0.000, 0.000, 13:09:31.478
22, 0.00, 30659.10, 17466.32, 10442.98, -195.09, 17172.35, 35097.60, 0.00, 0.000, 0.000, 0.000, 13:09:31.478
23, 0.00, 30662.12, 17469.01, 10398.95, -261.87, 17171.50, 35082.18, 0.00, 0.000, 0.000, 0.000, 13:09:31.478
24, 0.00, 30656.49, 17464.45, 10420.63, -312.05, 17162.29, 35080.12, 0.00, 0.030, -0.026, 0.996, 13:09:31.478
25, 0.00, 30652.98, 17460.91, 10484.55, -267.62, 17158.74, 35098.12, 0.00, 0.000, 0.000, 0.000, 13:09:31.478
26, 0.00, 30654.88, 17460.56, 10498.77, -186.88, 17164.82, 35109.58, 0.00, 0.000, 0.000, 0.000, 13:09:31.478
27, 0.00, 30658.84, 17464.74, 10438.78, -195.15, 17170.61, 35097.04, 0.00, 0.000, 0.000, 0.000, 13:09:31.478
28, 0.00, 30659.84, 17468.00, 10397.09, -261.78, 17167.68, 35080.14, 0.00, 0.000, 0.000, 0.000, 13:09:31.479
29, 0.00, 30652.64, 17460.78, 10422.06, -314.20, 17158.49, 35077.80, 0.00, 0.000, 0.000, 0.000, 13:09:31.479
30, 0.00, 30649.94, 17459.46, 10483.84, -271.82, 17156.30, 35096.13, 0.00, 0.000, 0.000, 0.000, 13:09:31.479
31, 0.00, 30654.90, 17463.84, 10501.12, -187.53, 17166.34, 35111.19, 0.00, 0.000, 0.000, 0.000, 13:09:31.479
32, 0.00, 30657.03, 17467.62, 10440.03, -197.28, 17170.59, 35097.82, 0.00, 0.000, 0.000, 0.000, 13:09:31.479
33, 0.00, 30657.18, 17468.38, 10394.03, -266.43, 17169.18, 35079.14, 0.00, 0.000, 0.000, 0.000, 13:09:31.479
34, 0.00, 30652.13, 17464.76, 10422.53, -314.80, 17161.91, 35078.11, 0.00, 0.030, -0.024, 0.992, 13:09:31.479
35, 0.00, 30647.84, 17460.38, 10490.10, -268.91, 17156.01, 35094.81, 0.00, 0.000, 0.000, 0.000, 13:09:31.479
36, 0.00, 30650.41, 17461.03, 10498.46, -193.66, 17160.73, 35105.71, 0.00, 0.000, 0.000, 0.000, 13:09:31.480
37, 0.00, 30656.45, 17466.57, 10439.69, -198.68, 17165.83, 35096.60, 0.00, 0.000, 0.000, 0.000, 13:09:31.480
38, 0.00, 30654.16, 17465.63, 10393.87, -271.10, 17163.21, 35076.86, 0.00, 0.000, 0.000, 0.000, 13:09:31.480
39, 0.00, 30651.19, 17464.07, 10422.06, -317.53, 17157.44, 35078.02, 0.00, 0.000, 0.000, 0.000, 13:09:31.480
40, 0.00, 30648.85, 17460.31, 10488.96, -270.21, 17153.71, 35095.16, 0.00, 0.000, 0.000, 0.000, 13:09:31.480
41, 0.00, 30652.24, 17463.33, 10503.00, -189.79, 17162.52, 35106.05, 0.00, 0.000, 0.000, 0.000, 13:09:31.480
42, 0.00, 30655.80, 17467.96, 10441.01, -199.60, 17167.08, 35093.71, 0.00, 0.000, 0.000, 0.000, 13:09:31.480
43, 0.00, 30654.77, 17466.21, 10393.40, -271.77, 17163.57, 35075.21, 0.00, 0.000, 0.000, 0.000, 13:09:31.480
44, 0.00, 30650.19, 17461.88, 10422.69, -319.76, 17155.28, 35074.73, 0.00, 0.030, -0.030, 0.992, 13:09:31.480
45, 0.00, 30648.76, 17457.58, 10487.80, -274.79, 17151.70, 35094.50, 0.00, 0.000, 0.000, 0.000, 13:09:31.481
46, 0.00, 30650.25, 17457.94, 10495.33, -195.00, 17155.92, 35106.18, 0.00, 0.000, 0.000, 0.000, 13:09:31.481
47, 0.00, 30654.14, 17465.16, 10436.23, -207.09, 17161.42, 35093.54, 0.00, 0.000, 0.000, 0.000, 13:09:31.481
48, 0.00, 30656.45, 17468.29, 10397.09, -272.07, 17159.84, 35076.43, 0.00, 0.000, 0.000, 0.000, 13:09:31.481
49, 0.00, 30651.24, 17464.04, 10423.96, -315.43, 17156.28, 35076.61, 0.00, 0.000, 0.000, 0.000, 13:09:31.481
50, 0.00, 30647.62, 17459.48, 10484.04, -272.85, 17155.14, 35094.23, 0.00, 0.000, 0.000, 0.000, 13:09:31.481
51, 0.00, 30650.28, 17460.60, 10493.00, -193.61, 17157.40, 35104.62, 0.00, 0.000, 0.000, 0.000, 13:09:31.481
52, 0.00, 30652.33, 17463.66, 10429.01, -206.15, 17164.64, 35090.76, 0.00, 0.000, 0.000, 0.000, 13:09:31.481
53, 0.00, 30653.76, 17468.02, 10390.99, -274.57, 17165.67, 35073.62, 0.00, 0.000, 0.000, 0.000, 13:09:31.481
54, 0.00, 30652.49, 17466.88, 10424.14, -317.86, 17157.62, 35076.68, 0.00, 0.034, -0.026, 0.996, 13:09:31.482
55, 0.00, 30647.55, 17460.85, 10484.93, -273.54, 17151.81, 35093.55, 0.00, 0.000, 0.000, 0.000, 13:09:31.482
56, 0.00, 30649.81, 17463.17, 10494.75, -195.62, 17156.68, 35104.69, 0.00, 0.000, 0.000, 0.000, 13:09:31.482
57, 0.00, 30653.58, 17469.59, 10433.32, -206.89, 17162.23, 35091.90, 0.00, 0.000, 0.000, 0.000, 13:09:31.482
58, 0.00, 30654.28, 17470.55, 10396.89, -273.76, 17159.72, 35074.78, 0.00, 0.000, 0.000, 0.000, 13:09:31.482
59, 0.00, 30650.63, 17465.83, 10426.62, -319.38, 17152.46, 35077.17, 0.00, 0.000, 0.000, 0.000, 13:09:31.482
60, 0.00, 30646.28, 17462.37, 10489.41, -273.45, 17151.83, 35093.42, 0.00, 0.000, 0.000, 0.000, 13:09:31.483
61, 0.00, 30649.18, 17464.67, 10499.49, -196.38, 17153.78, 35102.95, 0.00, 0.000, 0.000, 0.000, 13:09:31.483
62, 0.00, 30654.16, 17468.78, 10437.64, -208.63, 17160.66, 35091.07, 0.00, 0.000, 0.000, 0.000, 13:09:31.483
63, 0.00, 30652.15, 17467.35, 10394.19, -279.33, 17157.80, 35071.99, 0.00, 0.000, 0.000, 0.000, 13:09:31.484
64, 0.00, 30648.33, 17464.02, 10422.95, -323.41, 17152.68, 35073.77, 0.00, 0.028, -0.028, 0.996, 13:09:31.484
65, 0.00, 30646.74, 17461.09, 10487.53, -274.84, 17150.43, 35092.98, 0.00, 0.000, 0.000, 0.000, 13:09:31.484
66, 0.00, 30648.89, 17463.51, 10497.63, -196.72, 17155.23, 35103.44, 0.00, 0.000, 0.000, 0.000, 13:09:31.484
67, 0.00, 30649.72, 17464.49, 10432.25, -211.65, 17157.73, 35088.01, 0.00, 0.000, 0.000, 0.000, 13:09:31.484
68, 0.00, 30651.28, 17466.46, 10389.09, -281.03, 17156.35, 35072.10, 0.00, 0.000, 0.000, 0.000, 13:09:31.484
69, 0.00, 30648.69, 17463.84, 10419.20, -325.49, 17150.00, 35073.30, 0.00, 0.000, 0.000, 0.000, 13:09:31.484
70, 0.00, 30644.53, 17458.30, 10484.82, -276.58, 17146.78, 35090.16, 0.00, 0.000, 0.000, 0.000, 13:09:31.484
71, 0.00, 30647.08, 17458.48, 10491.68, -202.64, 17149.58, 35100.24, 0.00, 0.000, 0.000, 0.000, 13:09:31.485
72, 0.00, 30652.96, 17466.61, 10432.79, -213.48, 17158.79, 35090.74, 0.00, 0.000, 0.000, 0.000, 13:09:31.485
73, 0.00, 30653.16, 17469.99, 10392.62, -282.24, 17156.71, 35074.16, 0.00, 0.000, 0.000, 0.000, 13:09:31.485
74, 0.00, 30649.29, 17466.99, 10425.10, -326.98, 17149.55, 35075.88, 0.00, 0.030, -0.032, 0.994, 13:09:31.485
75, 0.00, 30644.60, 17460.78, 10488.62, -276.80, 17145.29, 35092.77, 0.00, 0.000, 0.000, 0.000, 13:09:31.485
76, 0.00, 30648.73, 17463.15, 10494.10, -196.29, 17152.53, 35103.79, 0.00, 0.000, 0.000, 0.000, 13:09:31.485
77, 0.00, 30650.23, 17464.69, 10428.81, -207.51, 17157.62, 35088.71, 0.00, 0.000, 0.000, 0.000, 13:09:31.485
78, 0.00, 30649.11, 17466.68, 10387.95, -280.42, 17153.44, 35071.14, 0.00, 0.000, 0.000, 0.000, 13:09:31.485
79, 0.00, 30649.29, 17465.74, 10419.56, -323.36, 17147.34, 35076.17, 0.00, 0.000, 0.000, 0.000, 13:09:31.485
80, 0.00, 30646.12, 17461.07, 10484.91, -270.99, 17145.75, 35093.85, 0.00, 0.000, 0.000, 0.000, 13:09:31.486
81, 0.00, 30648.33, 17464.04, 10493.85, -193.32, 17149.93, 35103.97, 0.00, 0.000, 0.000, 0.000, 13:09:31.486
82, 0.00, 30652.47, 17468.78, 10430.51, -210.24, 17157.49, 35091.63, 0.00, 0.000, 0.000, 0.000, 13:09:31.486
83, 0.00, 30650.68, 17468.31, 10387.35, -279.02, 17156.28, 35072.99, 0.00, 0.000, 0.000, 0.000, 13:09:31.486
84, 0.00, 30642.79, 17460.42, 10413.19, -327.39, 17143.52, 35069.42, 0.00, 0.036, -0.030, 0.998, 13:09:31.486
85, 0.00, 30638.00, 17456.31, 10478.50, -277.47, 17139.83, 35085.29, 0.00, 0.000, 0.000, 0.000, 13:09:31.486
86, 0.00, 30644.98, 17463.78, 10490.77, -201.26, 17149.00, 35099.55, 0.00, 0.000, 0.000, 0.000, 13:09:31.486
87, 0.00, 30647.88, 17466.17, 10425.70, -216.16, 17151.19, 35085.27, 0.00, 0.000, 0.000, 0.000, 13:09:31.486
88, 0.00, 30646.97, 17466.84, 10382.43, -287.13, 17150.67, 35067.52, 0.00, 0.000, 0.000, 0.000, 13:09:31.487
89, 0.00, 30643.73, 17461.88, 10412.90, -329.67, 17144.10, 35069.84, 0.00, 0.000, 0.000, 0.000, 13:09:31.487
90, 0.00, 30640.51, 17455.59, 10471.59, -281.99, 17138.27, 35087.19, 0.00, 0.000, 0.000, 0.000, 13:09:31.952
91, 0.00, 30643.62, 17458.63, 10477.58, -204.70, 17145.87, 35096.68, 0.00, 0.000, 0.000, 0.000, 13:09:31.952
92, 0.00, 30648.46, 17465.63, 10418.39, -215.56, 17152.91, 35084.66, 0.00, 0.000, 0.000, 0.000, 13:09:31.952
93, 0.00, 30647.32, 17466.35, 10377.98, -289.70, 17147.03, 35067.07, 0.00, 0.000, 0.000, 0.000, 13:09:31.952
94, 0.00, 30642.52, 17464.04, 10410.30, -333.40, 17141.46, 35068.37, 0.00, 0.034, -0.032, 0.994, 13:09:31.952
95, 0.00, 30638.63, 17458.52, 10475.55, -279.02, 17138.18, 35085.73, 0.00, 0.000, 0.000, 0.000, 13:09:31.953
96, 0.00, 30641.36, 17460.94, 10480.42, -203.71, 17144.44, 35096.15, 0.00, 0.000, 0.000, 0.000, 13:09:31.953
97, 0.00, 30646.48, 17468.96, 10418.39, -218.42, 17152.57, 35084.30, 0.00, 0.000, 0.000, 0.000, 13:09:31.953
98, 0.00, 30646.28, 17470.37, 10378.43, -287.71, 17153.58, 35066.38, 0.00, 0.000, 0.000, 0.000, 13:09:31.953
99, 0.00, 30641.85, 17465.94, 10408.29, -329.73, 17145.26, 35068.41, 0.00, 0.000, 0.000, 0.000, 13:09:31.953
100, 0.00, 30638.96, 17461.09, 10472.17, -277.21, 17141.02, 35086.40, 0.00, 0.000, 0.000, 0.000, 13:09:31.954
101, 0.00, 30641.13, 17461.58, 10477.51, -204.85, 17146.29, 35094.76, 0.00, 0.000, 0.000, 0.000, 13:09:31.954
102, 0.00, 30643.08, 17463.44, 10411.04, -222.67, 17147.65, 35079.79, 0.00, 0.000, 0.000, 0.000, 13:09:31.954
103, 0.00, 30645.16, 17463.78, 10372.19, -294.01, 17145.17, 35064.84, 0.00, 0.000, 0.000, 0.000, 13:09:31.954
104, 0.00, 30640.89, 17458.81, 10402.05, -337.62, 17138.40, 35067.16, 0.00, 0.032, -0.034, 0.994, 13:09:31.954
105, 0.00, 30643.19, 17461.32, 10470.58, -282.77, 17141.28, 35090.11, 0.00, 0.000, 0.000, 0.000, 13:09:31.955
106, 0.00, 30645.69, 17462.59, 10476.73, -206.51, 17144.35, 35099.86, 0.00, 0.000, 0.000, 0.000, 13:09:31.955
107, 0.00, 30650.03, 17469.23, 10417.25, -219.54, 17149.62, 35086.07, 0.00, 0.000, 0.000, 0.000, 13:09:31.955
108, 0.00, 30648.78, 17468.40, 10375.03, -292.47, 17147.86, 35067.38, 0.00, 0.000, 0.000, 0.000, 13:09:31.955
109, 0.00, 30641.36, 17461.05, 10408.11, -337.98, 17137.26, 35065.71, 0.00, 0.000, 0.000, 0.000, 13:09:31.955
110, 0.00, 30637.89, 17459.97, 10473.38, -283.78, 17135.99, 35084.39, 0.00, 0.000, 0.000, 0.000, 13:09:31.955
111, 0.00, 30641.92, 17464.58, 10474.52, -207.40, 17143.70, 35096.08, 0.00, 0.000, 0.000, 0.000, 13:09:31.956
112, 0.00, 30646.77, 17469.99, 10410.62, -224.39, 17148.06, 35083.01, 0.00, 0.000, 0.000, 0.000, 13:09:31.956
113, 0.00, 30647.10, 17471.71, 10371.68, -296.29, 17145.78, 35066.80, 0.00, 0.000, 0.000, 0.000, 13:09:31.956
114, 0.00, 30640.73, 17465.34, 10402.01, -338.27, 17138.56, 35067.92, 0.00, 0.028, -0.032, 0.996, 13:09:31.956
115, 0.00, 30637.22, 17462.61, 10469.20, -281.36, 17138.15, 35085.49, 0.00, 0.000, 0.000, 0.000, 13:09:31.956
116, 0.00, 30637.94, 17464.69, 10472.93, -208.94, 17141.80, 35092.57, 0.00, 0.000, 0.000, 0.000, 13:09:31.956
117, 0.00, 30643.28, 17470.79, 10411.62, -224.81, 17146.89, 35080.52, 0.00, 0.000, 0.000, 0.000, 13:09:31.957
118, 0.00, 30643.71, 17472.18, 10373.96, -294.86, 17146.49, 35063.58, 0.00, 0.000, 0.000, 0.000, 13:09:31.957
119, 0.00, 30638.29, 17465.29, 10405.99, -338.90, 17138.47, 35063.71, 0.00, 0.000, 0.000, 0.000, 13:09:31.957
120, 0.00, 30636.13, 17462.66, 10471.95, -283.24, 17135.67, 35083.27, 0.00, 0.000, 0.000, 0.000, 13:09:31.957
121, 0.00, 30638.45, 17464.27, 10473.47, -210.98, 17142.20, 35092.44, 0.00, 0.000, 0.000, 0.000, 13:09:31.957
122, 0.00, 30644.35, 17473.48, 10412.47, -226.02, 17147.86, 35080.30, 0.00, 0.000, 0.000, 0.000, 13:09:31.957
123, 0.00, 30643.17, 17472.47, 10375.34, -297.48, 17144.21, 35062.51, 0.00, 0.000, 0.000, 0.000, 13:09:31.958
124, 0.00, 30638.96, 17468.98, 10409.18, -336.19, 17137.57, 35065.95, 0.00, 0.028, -0.034, 0.998, 13:09:31.958
125, 0.00, 30634.50, 17465.36, 10473.76, -281.12, 17133.55, 35083.21, 0.00, 0.000, 0.000, 0.000, 13:09:31.958
126, 0.00, 30635.59, 17464.38, 10474.83, -212.05, 17136.95, 35090.58, 0.00, 0.000, 0.000, 0.000, 13:09:31.958
127, 0.00, 30639.52, 17467.31, 10408.83, -229.26, 17142.56, 35077.22, 0.00, 0.000, 0.000, 0.000, 13:09:31.958
128, 0.00, 30641.65, 17471.67, 10370.99, -297.79, 17141.62, 35063.47, 0.00, 0.000, 0.000, 0.000, 13:09:31.959
129, 0.00, 30638.72, 17468.40, 10402.97, -337.65, 17138.47, 35067.90, 0.00, 0.000, 0.000, 0.000, 13:09:31.959
130, 0.00, 30637.15, 17463.60, 10469.60, -280.60, 17136.86, 35086.79, 0.00, 0.000, 0.000, 0.000, 13:09:31.959
131, 0.00, 30637.78, 17463.17, 10466.94, -215.60, 17138.91, 35092.50, 0.00, 0.000, 0.000, 0.000, 13:09:31.959
132, 0.00, 30640.55, 17467.40, 10400.02, -234.51, 17141.06, 35076.12, 0.00, 0.000, 0.000, 0.000, 13:09:31.959
133, 0.00, 30641.00, 17470.86, 10365.69, -304.30, 17140.12, 35059.76, 0.00, 0.000, 0.000, 0.000, 13:09:31.960
134, 0.00, 30638.03, 17468.76, 10407.89, -339.03, 17134.20, 35064.14, 0.00, 0.032, -0.036, 1.000, 13:09:31.960
135, 0.00, 30634.27, 17462.99, 10470.18, -283.64, 17130.51, 35081.49, 0.00, 0.000, 0.000, 0.000, 13:09:31.960
136, 0.00, 30638.45, 17466.23, 10472.89, -211.60, 17142.69, 35092.50, 0.00, 0.000, 0.000, 0.000, 13:09:31.960
137, 0.00, 30641.40, 17470.79, 10407.96, -231.43, 17146.18, 35078.40, 0.00, 0.000, 0.000, 0.000, 13:09:31.960
138, 0.00, 30640.93, 17471.44, 10371.23, -303.07, 17141.98, 35060.70, 0.00, 0.000, 0.000, 0.000, 13:09:31.961
139, 0.00, 30636.51, 17466.57, 10404.65, -343.19, 17133.60, 35063.58, 0.00, 0.000, 0.000, 0.000, 13:09:31.961
140, 0.00, 30635.93, 17466.17, 10472.26, -284.60, 17133.37, 35083.88, 0.00, 0.000, 0.000, 0.000, 13:09:31.961
141, 0.00, 30638.23, 17468.07, 10473.56, -212.92, 17138.63, 35092.17, 0.00, 0.000, 0.000, 0.000, 13:09:31.961
142, 0.00, 30639.50, 17468.65, 10405.00, -235.14, 17138.06, 35076.01, 0.00, 0.000, 0.000, 0.000, 13:09:31.961
143, 0.00, 30640.84, 17470.53, 10369.67, -304.70, 17138.45, 35060.97, 0.00, 0.000, 0.000, 0.000, 13:09:31.961
144, 0.00, 30634.81, 17467.24, 10408.11, -342.14, 17132.03, 35061.93, 0.00, 0.032, -0.032, 1.000, 13:09:31.962
145, 0.00, 30633.85, 17466.77, 10471.75, -285.90, 17132.86, 35082.69, 0.00, 0.000, 0.000, 0.000, 13:09:31.962
146, 0.00, 30637.20, 17469.97, 10473.38, -216.34, 17138.89, 35092.10, 0.00, 0.000, 0.000, 0.000, 13:09:31.962
147, 0.00, 30641.27, 17474.19, 10407.42, -235.86, 17143.47, 35078.22, 0.00, 0.000, 0.000, 0.000, 13:09:31.962
148, 0.00, 30641.40, 17473.77, 10369.98, -306.80, 17140.66, 35062.38, 0.00, 0.000, 0.000, 0.000, 13:09:31.963
149, 0.00, 30634.27, 17466.48, 10406.06, -346.16, 17130.09, 35061.41, 0.00, 0.000, 0.000, 0.000, 13:09:31.963
150, 0.00, 30630.81, 17461.47, 10468.35, -289.16, 17128.07, 35079.50, 0.00, 0.000, 0.000, 0.000, 13:09:31.963
151, 0.00, 30637.07, 17466.86, 10473.13, -215.78, 17137.37, 35091.93, 0.00, 0.000, 0.000, 0.000, 13:09:31.963
152, 0.00, 30643.75, 17471.98, 10410.48, -233.37, 17143.43, 35080.05, 0.00, 0.000, 0.000, 0.000, 13:09:31.963
153, 0.00, 30644.08, 17472.98, 10373.56, -307.58, 17140.68, 35063.25, 0.00, 0.000, 0.000, 0.000, 13:09:31.963
154, 0.00, 30638.45, 17466.64, 10402.90, -348.62, 17133.19, 35064.66, 0.00, 0.036, -0.032, 0.994, 13:09:31.964
155, 0.00, 30637.27, 17463.10, 10463.72, -286.95, 17131.94, 35084.26, 0.00, 0.000, 0.000, 0.000, 13:09:31.964
156, 0.00, 30640.66, 17466.52, 10461.47, -217.97, 17138.06, 35093.45, 0.00, 0.000, 0.000, 0.000, 13:09:31.964
157, 0.00, 30642.10, 17470.90, 10402.75, -235.74, 17141.42, 35077.80, 0.00, 0.000, 0.000, 0.000, 13:09:31.964
158, 0.00, 30638.85, 17468.07, 10363.01, -311.81, 17137.04, 35058.69, 0.00, 0.000, 0.000, 0.000, 13:09:31.964
159, 0.00, 30636.57, 17468.16, 10404.29, -345.38, 17135.27, 35065.06, 0.00, 0.000, 0.000, 0.000, 13:09:31.965
160, 0.00, 30633.87, 17466.48, 10468.57, -283.29, 17136.21, 35083.92, 0.00, 0.000, 0.000, 0.000, 13:09:31.965
161, 0.00, 30638.52, 17470.62, 10466.23, -212.19, 17140.64, 35092.39, 0.00, 0.000, 0.000, 0.000, 13:09:31.965
162, 0.00, 30641.80, 17474.10, 10399.73, -233.60, 17140.32, 35077.02, 0.00, 0.000, 0.000, 0.000, 13:09:31.965
163, 0.00, 30638.27, 17471.42, 10359.05, -310.67, 17137.82, 35057.50, 0.00, 0.000, 0.000, 0.000, 13:09:31.965
164, 0.00, 30634.47, 17466.66, 10393.29, -350.01, 17132.81, 35060.32, 0.00, 0.030, -0.036, 0.990, 13:09:31.965
165, 0.00, 30632.08, 17465.65, 10461.89, -286.04, 17132.23, 35079.70, 0.00, 0.000, 0.000, 0.000, 13:09:31.965
166, 0.00, 30636.87, 17468.42, 10460.59, -216.32, 17139.18, 35090.23, 0.00, 0.000, 0.000, 0.000, 13:09:31.966
167, 0.00, 30638.94, 17470.90, 10394.50, -237.06, 17141.62, 35074.82, 0.00, 0.000, 0.000, 0.000, 13:09:31.966
168, 0.00, 30640.29, 17475.06, 10363.03, -307.09, 17143.41, 35060.23, 0.00, 0.000, 0.000, 0.000, 13:09:31.966
169, 0.00, 30635.34, 17470.37, 10403.15, -342.76, 17136.21, 35061.70, 0.00, 0.000, 0.000, 0.000, 13:09:31.966
170, 0.00, 30630.34, 17464.18, 10463.86, -285.81, 17130.62, 35077.82, 0.00, 0.000, 0.000, 0.000, 13:09:31.966
171, 0.00, 30633.04, 17465.90, 10460.53, -220.32, 17136.66, 35086.16, 0.00, 0.000, 0.000, 0.000, 13:09:31.967
172, 0.00, 30637.60, 17471.15, 10394.48, -241.00, 17139.72, 35072.75, 0.00, 0.000, 0.000, 0.000, 13:09:31.967
173, 0.00, 30640.46, 17476.16, 10364.01, -309.82, 17139.45, 35060.14, 0.00, 0.000, 0.000, 0.000, 13:09:31.967
174, 0.00, 30634.23, 17469.21, 10399.95, -346.68, 17129.59, 35061.17, 0.00, 0.036, -0.038, 0.994, 13:09:31.967
175, 0.00, 30631.99, 17464.38, 10461.38, -286.68, 17129.66, 35079.30, 0.00, 0.000, 0.000, 0.000, 13:09:31.967
176, 0.00, 30634.14, 17464.22, 10454.45, -221.37, 17134.78, 35085.67, 0.00, 0.000, 0.000, 0.000, 13:09:31.967
177, 0.00, 30636.48, 17469.88, 10387.88, -246.92, 17137.84, 35070.07, 0.00, 0.000, 0.000, 0.000, 13:09:31.968
178, 0.00, 30639.12, 17474.28, 10357.73, -315.81, 17135.61, 35056.70, 0.00, 0.000, 0.000, 0.000, 13:09:31.968
179, 0.00, 30634.94, 17468.96, 10394.83, -352.76, 17128.05, 35060.97, 0.00, 0.000, 0.000, 0.000, 13:09:31.968
180, 0.00, 30632.19, 17466.03, 10457.60, -290.46, 17127.89, 35079.92, 0.00, 0.000, 0.000, 0.000, 13:09:31.968
181, 0.00, 30633.27, 17467.96, 10454.42, -221.42, 17132.48, 35085.22, 0.00, 0.000, 0.000, 0.000, 13:09:31.969
182, 0.00, 30638.29, 17476.18, 10396.76, -237.69, 17139.50, 35072.59, 0.00, 0.000, 0.000, 0.000, 13:09:31.969
183, 0.00, 30638.54, 17477.16, 10360.39, -311.90, 17139.90, 35058.20, 0.00, 0.000, 0.000, 0.000, 13:09:31.969
184, 0.00, 30633.49, 17471.04, 10393.40, -348.80, 17130.96, 35060.34, 0.00, 0.036, -0.040, 0.994, 13:09:31.969
185, 0.00, 30628.24, 17464.11, 10451.79, -287.80, 17127.38, 35075.72, 0.00, 0.000, 0.000, 0.000, 13:09:31.969
186, 0.00, 30631.03, 17468.36, 10450.18, -222.33, 17134.60, 35083.05, 0.00, 0.000, 0.000, 0.000, 13:09:31.969
187, 0.00, 30638.29, 17478.42, 10394.41, -239.99, 17140.81, 35071.32, 0.00, 0.000, 0.000, 0.000, 13:09:31.970
188, 0.00, 30635.17, 17475.96, 10360.26, -316.88, 17132.21, 35051.69, 0.00, 0.000, 0.000, 0.000, 13:09:31.970
189, 0.00, 30628.95, 17470.53, 10395.39, -353.98, 17126.02, 35054.75, 0.00, 0.000, 0.000, 0.000, 13:09:31.970
190, 0.00, 30628.13, 17468.42, 10457.35, -289.08, 17124.47, 35075.96, 0.00, 0.000, 0.000, 0.000, 13:09:31.970
191, 0.00, 30634.43, 17475.73, 10457.08, -217.28, 17134.60, 35087.63, 0.00, 0.000, 0.000, 0.000, 13:09:31.970
192, 0.00, 30636.73, 17479.64, 10393.02, -240.42, 17138.83, 35072.39, 0.00, 0.000, 0.000, 0.000, 13:09:31.970
193, 0.00, 30635.59, 17477.59, 10357.26, -315.70, 17135.18, 35055.38, 0.00, 0.000, 0.000, 0.000, 13:09:31.971
194, 0.00, 30634.21, 17474.37, 10396.76, -347.66, 17131.90, 35060.48, 0.00, 0.030, -0.038, 0.992, 13:09:31.971
195, 0.00, 30629.55, 17468.96, 10457.58, -285.12, 17128.12, 35076.43, 0.00, 0.000, 0.000, 0.000, 13:09:31.971
196, 0.00, 30630.36, 17468.42, 10449.66, -221.84, 17131.67, 35081.22, 0.00, 0.000, 0.000, 0.000, 13:09:31.971
197, 0.00, 30635.14, 17472.76, 10382.88, -244.48, 17136.54, 35068.32, 0.00, 0.000, 0.000, 0.000, 13:09:31.971
198, 0.00, 30635.88, 17473.54, 10346.62, -318.76, 17134.27, 35054.64, 0.00, 0.000, 0.000, 0.000, 13:09:31.971
199, 0.00, 30631.30, 17470.53, 10386.03, -353.14, 17127.43, 35058.64, 0.00, 0.000, 0.000, 0.000, 13:09:31.972
200, 0.00, 30627.74, 17471.80, 10456.26, -285.30, 17126.24, 35076.26, 0.00, 0.000, 0.000, 0.000, 13:09:31.972
201, 0.00, 30628.33, 17471.82, 10452.73, -219.09, 17130.00, 35080.55, 0.00, 0.000, 0.000, 0.000, 13:09:31.972
202, 0.00, 30632.93, 17476.63, 10386.99, -242.11, 17136.39, 35066.64, 0.00, 0.000, 0.000, 0.000, 13:09:31.972
203, 0.00, 30633.69, 17479.13, 10351.83, -314.69, 17136.79, 35052.61, 0.00, 0.000, 0.000, 0.000, 13:09:31.972
204, 0.00, 30627.79, 17474.08, 10388.00, -348.66, 17125.73, 35055.16, 0.00, 0.026, -0.032, 0.992, 13:09:31.973
205, 0.00, 30625.80, 17471.49, 10449.60, -287.00, 17125.04, 35074.76, 0.00, 0.000, 0.000, 0.000, 13:09:31.973
206, 0.00, 30626.90, 17472.34, 10442.35, -224.68, 17127.87, 35078.78, 0.00, 0.000, 0.000, 0.000, 13:09:31.973
207, 0.00, 30634.00, 17481.86, 10382.00, -244.75, 17133.82, 35065.84, 0.00, 0.000, 0.000, 0.000, 13:09:31.973
208, 0.00, 30632.51, 17481.77, 10344.05, -318.94, 17119.78, 35049.75, 0.00, 0.000, 0.000, 0.000, 13:09:31.973
209, 0.00, 30627.05, 17479.49, 10385.02, -352.08, 17111.67, 35054.82, 0.00, 0.000, 0.000, 0.000, 13:09:31.973
210, 0.00, 30624.48, 17473.88, 10448.70, -285.14, 17113.50, 35073.24, 0.00, 0.000, 0.000, 0.000, 13:09:32.432
211, 0.00, 30630.99, 17478.57, 10444.03, -219.40, 17121.17, 35082.05, 0.00, 0.000, 0.000, 0.000, 13:09:32.432
212, 0.00, 30632.08, 17480.94, 10375.81, -247.23, 17123.13, 35064.16, 0.00, 0.000, 0.000, 0.000, 13:09:32.432
213, 0.00, 30628.84, 17479.13, 10342.80, -322.13, 17115.98, 35046.28, 0.00, 0.000, 0.000, 0.000, 13:09:32.432
214, 0.00, 30627.66, 17477.61, 10382.34, -352.46, 17113.54, 35053.43, 0.00, 0.030, -0.032, 0.988, 13:09:32.432
215, 0.00, 30626.65, 17472.67, 10443.63, -286.68, 17115.54, 35074.22, 0.00, 0.000, 0.000, 0.000, 13:09:32.432
216, 0.00, 30626.40, 17468.78, 10431.94, -224.64, 17119.78, 35078.11, 0.00, 0.000, 0.000, 0.000, 13:09:32.432
217, 0.00, 30630.83, 17472.34, 10368.44, -246.76, 17124.86, 35063.96, 0.00, 0.000, 0.000, 0.000, 13:09:32.433
218, 0.00, 30633.65, 17477.90, 10342.96, -318.20, 17123.40, 35051.71, 0.00, 0.000, 0.000, 0.000, 13:09:32.433
219, 0.00, 30626.09, 17470.86, 10386.14, -350.63, 17113.34, 35053.70, 0.00, 0.000, 0.000, 0.000, 13:09:32.433
220, 0.00, 30624.15, 17465.34, 10446.91, -285.90, 17112.07, 35073.77, 0.00, 0.000, 0.000, 0.000, 13:09:32.433
221, 0.00, 30627.54, 17467.08, 10438.60, -221.08, 17117.48, 35081.35, 0.00, 0.000, 0.000, 0.000, 13:09:32.433
222, 0.00, 30631.77, 17470.53, 10369.82, -247.79, 17124.12, 35065.95, 0.00, 0.000, 0.000, 0.000, 13:09:32.433
223, 0.00, 30627.34, 17470.37, 10336.18, -322.13, 17120.32, 35046.82, 0.00, 0.000, 0.000, 0.000, 13:09:32.433
224, 0.00, 30626.58, 17468.60, 10379.48, -352.17, 17115.18, 35054.48, 0.00, 0.034, -0.034, 0.998, 13:09:32.433
225, 0.00, 30623.07, 17465.52, 10445.77, -284.52, 17114.02, 35071.68, 0.00, 0.000, 0.000, 0.000, 13:09:32.433
226, 0.00, 30623.65, 17469.34, 10438.22, -222.82, 17116.76, 35075.65, 0.00, 0.000, 0.000, 0.000, 13:09:32.434
227, 0.00, 30628.17, 17474.24, 10374.56, -246.74, 17121.12, 35061.82, 0.00, 0.000, 0.000, 0.000, 13:09:32.434
228, 0.00, 30631.23, 17478.57, 10344.90, -322.20, 17122.04, 35050.33, 0.00, 0.000, 0.000, 0.000, 13:09:32.434
229, 0.00, 30626.70, 17476.89, 10388.04, -355.33, 17114.08, 35054.51, 0.00, 0.000, 0.000, 0.000, 13:09:32.434
230, 0.00, 30621.93, 17471.78, 10448.41, -289.81, 17110.33, 35068.95, 0.00, 0.000, 0.000, 0.000, 13:09:32.434
231, 0.00, 30625.78, 17473.90, 10439.92, -227.41, 17117.28, 35076.93, 0.00, 0.000, 0.000, 0.000, 13:09:32.434
232, 0.00, 30630.96, 17478.46, 10375.54, -251.64, 17122.35, 35063.71, 0.00, 0.000, 0.000, 0.000, 13:09:32.434
233, 0.00, 30629.60, 17478.68, 10343.58, -324.52, 17119.89, 35047.58, 0.00, 0.000, 0.000, 0.000, 13:09:32.435
234, 0.00, 30621.29, 17468.78, 10379.39, -361.41, 17106.77, 35048.11, 0.00, 0.036, -0.034, 0.998, 13:09:32.435
235, 0.00, 30622.07, 17466.30, 10441.57, -291.38, 17107.31, 35071.00, 0.00, 0.000, 0.000, 0.000, 13:09:32.435
236, 0.00, 30628.93, 17470.70, 10432.99, -228.81, 17116.07, 35081.93, 0.00, 0.000, 0.000, 0.000, 13:09:32.435
237, 0.00, 30631.86, 17473.83, 10372.19, -255.35, 17119.51, 35065.46, 0.00, 0.000, 0.000, 0.000, 13:09:32.435
238, 0.00, 30630.70, 17474.10, 10342.40, -327.12, 17121.19, 35050.26, 0.00, 0.000, 0.000, 0.000, 13:09:32.435
239, 0.00, 30622.40, 17467.78, 10378.76, -361.23, 17110.21, 35050.66, 0.00, 0.000, 0.000, 0.000, 13:09:32.435
240, 0.00, 30618.40, 17465.79, 10442.35, -293.39, 17106.66, 35066.11, 0.00, 0.000, 0.000, 0.000, 13:09:32.435
241, 0.00, 30625.55, 17473.54, 10441.26, -226.20, 17117.81, 35076.37, 0.00, 0.000, 0.000, 0.000, 13:09:32.435
242, 0.00, 30627.72, 17476.89, 10371.34, -255.84, 17119.83, 35060.43, 0.00, 0.000, 0.000, 0.000, 13:09:32.436
243, 0.00, 30625.93, 17476.63, 10336.63, -330.76, 17117.50, 35044.61, 0.00, 0.000, 0.000, 0.000, 13:09:32.436
244, 0.00, 30623.12, 17473.41, 10382.99, -355.97, 17112.67, 35051.94, 0.00, 0.030, -0.034, 0.992, 13:09:32.436
245, 0.00, 30622.76, 17470.77, 10445.13, -286.04, 17111.18, 35071.18, 0.00, 0.000, 0.000, 0.000, 13:09:32.436
246, 0.00, 30623.50, 17471.98, 10431.00, -228.50, 17115.56, 35075.07, 0.00, 0.000, 0.000, 0.000, 13:09:32.436
247, 0.00, 30625.06, 17476.25, 10364.35, -255.82, 17116.47, 35057.14, 0.00, 0.000, 0.000, 0.000, 13:09:32.436
248, 0.00, 30623.65, 17476.89, 10333.32, -331.72, 17113.70, 35041.92, 0.00, 0.000, 0.000, 0.000, 13:09:32.436
249, 0.00, 30620.86, 17474.50, 10379.46, -360.22, 17107.51, 35050.17, 0.00, 0.000, 0.000, 0.000, 13:09:32.436
250, 0.00, 30619.03, 17471.53, 10442.91, -288.25, 17108.72, 35068.41, 0.00, 0.000, 0.000, 0.000, 13:09:32.436
251, 0.00, 30625.02, 17479.29, 10433.03, -228.50, 17116.99, 35075.72, 0.00, 0.000, 0.000, 0.000, 13:09:32.437
252, 0.00, 30624.39, 17480.07, 10365.38, -255.99, 17117.14, 35056.21, 0.00, 0.000, 0.000, 0.000, 13:09:32.437
253, 0.00, 30619.12, 17475.22, 10334.40, -332.73, 17110.84, 35036.16, 0.00, 0.000, 0.000, 0.000, 13:09:32.437
254, 0.00, 30619.12, 17476.96, 10382.74, -359.84, 17107.64, 35046.66, 0.00, 0.036, -0.030, 0.980, 13:09:32.437
255, 0.00, 30612.63, 17468.09, 10441.75, -291.24, 17104.05, 35062.49, 0.00, 0.000, 0.000, 0.000, 13:09:32.437
0, 0.00, 30618.40, 17472.16, 10426.75, -232.17, 17109.54, 35069.71, 0.00, 0.000, 0.000, 0.000, 13:09:32.437
1, 0.00, 30627.88, 17481.43, 10368.62, -254.65, 17119.18, 35060.32, 0.00, 0.000, 0.000, 0.000, 13:09:32.437
2, 0.00, 30626.54, 17479.55, 10338.89, -330.58, 17118.55, 35045.50, 0.00, 0.000, 0.000, 0.000, 13:09:32.437
3, 0.00, 30620.28, 17472.04, 10381.16, -360.02, 17111.89, 35048.72, 0.00, 0.000, 0.000, 0.000, 13:09:32.438
4, 0.00, 30618.07, 17466.64, 10445.64, -288.83, 17112.00, 35067.88, 0.00, 0.000, 0.000, 0.000, 13:09:32.438
5, 0.00, 30618.02, 17466.30, 10427.67, -237.06, 17111.15, 35069.64, 0.00, 0.000, 0.000, 0.000, 13:09:32.438
6, 0.00, 30622.74, 17474.73, 10370.76, -262.07, 17114.22, 35055.00, 0.00, 0.000, 0.000, 0.000, 13:09:32.438
7, 0.00, 30622.65, 17477.14, 10345.79, -331.28, 17116.50, 35042.91, 0.00, 0.032, -0.034, 0.984, 13:09:32.438
8, 0.00, 30620.66, 17476.76, 10392.76, -356.26, 17114.37, 35051.73, 0.00, 0.000, 0.000, 0.000, 13:09:32.438
9, 0.00, 30618.45, 17472.00, 10449.31, -289.23, 17112.34, 35070.20, 0.00, 0.000, 0.000, 0.000, 13:09:32.438
10, 0.00, 30618.74, 17473.45, 10440.57, -231.09, 17114.53, 35071.90, 0.00, 0.000, 0.000, 0.000, 13:09:32.438
11, 0.00, 30621.80, 17479.47, 10377.76, -259.73, 17116.21, 35054.87, 0.00, 0.000, 0.000, 0.000, 13:09:32.438
12, 0.00, 30624.82, 17483.24, 10346.87, -333.51, 17115.11, 35043.40, 0.00, 0.000, 0.000, 0.000, 13:09:32.439
13, 0.00, 30618.94, 17476.45, 10389.94, -360.02, 17108.65, 35048.92, 0.00, 0.000, 0.000, 0.000, 13:09:32.439
14, 0.00, 30615.18, 17472.31, 10449.91, -290.91, 17107.00, 35066.04, 0.00, 0.000, 0.000, 0.000, 13:09:32.439
15, 0.00, 30617.44, 17476.31, 10435.85, -233.71, 17114.15, 35069.89, 0.00, 0.000, 0.000, 0.000, 13:09:32.439
16, 0.00, 30620.08, 17478.84, 10370.52, -263.06, 17117.88, 35051.49, 0.00, 0.000, 0.000, 0.000, 13:09:32.439
17, 0.00, 30618.78, 17477.63, 10340.86, -339.72, 17113.93, 35037.27, 0.00, 0.038, -0.036, 0.944, 13:09:32.439
18, 0.00, 30618.40, 17475.85, 10388.46, -362.66, 17109.88, 35048.07, 0.00, 0.000, 0.000, 0.000, 13:09:32.439
19, 0.00, 30618.45, 17473.45, 10450.20, -288.81, 17111.13, 35068.72, 0.00, 0.000, 0.000, 0.000, 13:09:32.439
20, 0.00, 30619.07, 17474.48, 10432.01, -234.60, 17114.84, 35071.29, 0.00, 0.000, 0.000, 0.000, 13:09:32.439
21, 0.00, 30622.02, 17477.79, 10366.25, -263.95, 17118.48, 35054.82, 0.00, 0.000, 0.000, 0.000, 13:09:32.440
22, 0.00, 30621.89, 17479.78, 10340.94, -335.95, 17120.05, 35041.32, 0.00, 0.000, 0.000, 0.000, 13:09:32.440
23, 0.00, 30620.01, 17474.32, 10385.11, -362.99, 17113.21, 35049.01, 0.00, 0.000, 0.000, 0.000, 13:09:32.440
24, 0.00, 30618.33, 17469.01, 10444.28, -290.35, 17112.00, 35068.43, 0.00, 0.000, 0.000, 0.000, 13:09:32.440
25, 0.00, 30621.11, 17471.08, 10428.25, -232.93, 17120.61, 35073.71, 0.00, 0.000, 0.000, 0.000, 13:09:32.440
26, 0.00, 30622.43, 17472.80, 10364.24, -263.26, 17119.33, 35056.03, 0.00, 0.000, 0.000, 0.000, 13:09:32.440
27, 0.00, 30621.24, 17474.10, 10338.82, -335.50, 17113.23, 35040.52, 0.00, 0.034, -0.032, 0.968, 13:09:32.440
28, 0.00, 30616.88, 17468.78, 10385.25, -361.11, 17108.31, 35046.26, 0.00, 0.000, 0.000, 0.000, 13:09:32.440
29, 0.00, 30612.90, 17463.66, 10446.15, -289.88, 17110.68, 35063.98, 0.00, 0.000, 0.000, 0.000, 13:09:32.440
30, 0.00, 30616.55, 17468.63, 10427.94, -235.16, 17117.19, 35068.46, 0.00, 0.000, 0.000, 0.000, 13:09:32.441
31, 0.00, 30621.58, 17477.92, 10369.17, -263.24, 17122.20, 35054.46, 0.00, 0.000, 0.000, 0.000, 13:09:32.441
32, 0.00, 30621.84, 17476.05, 10341.01, -337.49, 17116.81, 35041.48, 0.00, 0.000, 0.000, 0.000, 13:09:32.441
33, 0.00, 30616.19, 17469.56, 10385.98, -366.14, 17108.76, 35047.55, 0.00, 0.000, 0.000, 0.000, 13:09:32.441
34, 0.00, 30615.96, 17470.35, 10450.92, -290.98, 17111.18, 35067.58, 0.00, 0.000, 0.000, 0.000, 13:09:32.441
35, 0.00, 30618.11, 17472.02, 10433.44, -235.77, 17113.70, 35070.49, 0.00, 0.000, 0.000, 0.000, 13:09:32.441
36, 0.00, 30621.40, 17478.28, 10369.17, -265.83, 17118.28, 35053.77, 0.00, 0.000, 0.000, 0.000, 13:09:32.441
37, 0.00, 30619.30, 17479.22, 10344.54, -338.11, 17114.78, 35039.24, 0.00, 0.032, -0.034, 0.984, 13:09:32.441
38, 0.00, 30617.51, 17476.02, 10390.45, -364.83, 17114.86, 35047.96, 0.00, 0.000, 0.000, 0.000, 13:09:32.441
39, 0.00, 30614.04, 17471.08, 10449.19, -293.72, 17112.23, 35065.26, 0.00, 0.000, 0.000, 0.000, 13:09:32.442
40, 0.00, 30614.40, 17470.75, 10430.46, -238.20, 17114.30, 35066.18, 0.00, 0.000, 0.000, 0.000, 13:09:32.442
41, 0.00, 30616.70, 17473.05, 10362.89, -269.94, 17116.09, 35049.75, 0.00, 0.000, 0.000, 0.000, 13:09:32.442
42, 0.00, 30616.81, 17474.62, 10339.94, -342.23, 17114.82, 35037.63, 0.00, 0.000, 0.000, 0.000, 13:09:32.442
43, 0.00, 30614.65, 17473.52, 10387.77, -363.26, 17109.66, 35045.93, 0.00, 0.000, 0.000, 0.000, 13:09:32.442
44, 0.00, 30612.88, 17468.07, 10445.15, -291.44, 17106.28, 35064.23, 0.00, 0.000, 0.000, 0.000, 13:09:32.442
45, 0.00, 30618.29, 17472.63, 10431.45, -234.20, 17116.09, 35070.55, 0.00, 0.000, 0.000, 0.000, 13:09:32.442
46, 0.00, 30621.13, 17475.96, 10365.67, -265.40, 17118.89, 35054.66, 0.00, 0.000, 0.000, 0.000, 13:09:32.443
47, 0.00, 30619.45, 17475.33, 10341.24, -338.07, 17115.36, 35040.88, 0.00, 0.026, -0.032, 0.994, 13:09:32.443
48, 0.00, 30612.86, 17469.74, 10387.71, -364.94, 17107.78, 35046.93, 0.00, 0.000, 0.000, 0.000, 13:09:32.443
49, 0.00, 30613.71, 17467.69, 10450.47, -289.99, 17108.09, 35068.19, 0.00, 0.000, 0.000, 0.000, 13:09:32.443
50, 0.00, 30616.46, 17468.04, 10430.69, -238.14, 17112.07, 35070.33, 0.00, 0.000, 0.000, 0.000, 13:09:32.443
51, 0.00, 30620.39, 17474.71, 10367.39, -268.89, 17118.71, 35054.78, 0.00, 0.000, 0.000, 0.000, 13:09:32.443
52, 0.00, 30619.45, 17474.88, 10342.17, -344.60, 17113.37, 35042.04, 0.00, 0.000, 0.000, 0.000, 13:09:32.444
53, 0.00, 30616.01, 17470.30, 10387.39, -367.64, 17107.64, 35049.57, 0.00, 0.000, 0.000, 0.000, 13:09:32.444
54, 0.00, 30613.64, 17463.51, 10443.27, -294.42, 17107.22, 35067.94, 0.00, 0.000, 0.000, 0.000, 13:09:32.444
55, 0.00, 30619.25, 17468.22, 10427.49, -240.86, 17114.04, 35074.16, 0.00, 0.000, 0.000, 0.000, 13:09:32.444
56, 0.00, 30621.98, 17474.26, 10369.33, -269.25, 17118.71, 35056.90, 0.00, 0.000, 0.000, 0.000, 13:09:32.444
57, 0.00, 30617.53, 17472.09, 10339.27, -347.52, 17111.29, 35039.51, 0.00, 0.036, -0.034, 0.992, 13:09:32.444
58, 0.00, 30615.32, 17468.58, 10384.15, -370.19, 17104.13, 35048.03, 0.00, 0.000, 0.000, 0.000, 13:09:32.444
59, 0.00, 30613.69, 17466.30, 10447.41, -294.08, 17107.78, 35066.98, 0.00, 0.000, 0.000, 0.000, 13:09:32.444
60, 0.00, 30614.04, 17467.57, 10429.30, -242.23, 17113.14, 35068.23, 0.00, 0.000, 0.000, 0.000, 13:09:32.444
61, 0.00, 30615.09, 17470.86, 10365.80, -273.12, 17114.55, 35049.61, 0.00, 0.000, 0.000, 0.000, 13:09:32.445
62, 0.00, 30614.98, 17471.29, 10342.67, -346.34, 17110.51, 35036.71, 0.00, 0.000, 0.000, 0.000, 13:09:32.445
63, 0.00, 30612.12, 17465.27, 10388.49, -371.02, 17105.61, 35045.75, 0.00, 0.000, 0.000, 0.000, 13:09:32.445
64, 0.00, 30607.96, 17458.37, 10443.81, -298.37, 17104.27, 35062.40, 0.00, 0.000, 0.000, 0.000, 13:09:32.445
65, 0.00, 30613.64, 17464.74, 10424.58, -245.20, 17112.34, 35067.61, 0.00, 0.000, 0.000, 0.000, 13:09:32.445
66, 0.00, 30616.95, 17469.41, 10365.64, -271.84, 17119.65, 35050.91, 0.00, 0.000, 0.000, 0.000, 13:09:32.445
67, 0.00, 30614.63, 17467.11, 10343.11, -346.83, 17113.48, 35035.78, 0.00, 0.028, -0.030, 0.990, 13:09:32.445
68, 0.00, 30611.79, 17464.15, 10388.98, -371.84, 17107.42, 35045.21, 0.00, 0.000, 0.000, 0.000, 13:09:32.445
69, 0.00, 30609.91, 17460.65, 10451.05, -292.25, 17107.67, 35064.81, 0.00, 0.000, 0.000, 0.000, 13:09:32.446
70, 0.00, 30611.79, 17462.48, 10430.17, -241.22, 17111.36, 35066.29, 0.00, 0.000, 0.000, 0.000, 13:09:32.446
71, 0.00, 30614.71, 17467.80, 10366.65, -272.18, 17116.25, 35049.90, 0.00, 0.000, 0.000, 0.000, 13:09:32.446
72, 0.00, 30613.93, 17469.50, 10343.02, -346.21, 17114.28, 35037.61, 0.00, 0.000, 0.000, 0.000, 13:09:32.446
73, 0.00, 30610.45, 17464.89, 10388.33, -371.22, 17106.64, 35044.94, 0.00, 0.000, 0.000, 0.000, 13:09:32.446
74, 0.00, 30610.78, 17463.39, 10448.43, -294.95, 17107.71, 35064.81, 0.00, 0.000, 0.000, 0.000, 13:09:32.912
75, 0.00, 30614.09, 17464.07, 10425.75, -245.00, 17111.67, 35066.58, 0.00, 0.000, 0.000, 0.000, 13:09:32.912
76, 0.00, 30616.70, 17464.51, 10355.99, -278.32, 17113.63, 35049.05, 0.00, 0.000, 0.000, 0.000, 13:09:32.912
77, 0.00, 30616.32, 17465.03, 10336.88, -351.01, 17110.10, 35036.31, 0.00, 0.030, -0.034, 0.996, 13:09:32.912
78, 0.00, 30610.36, 17463.06, 10387.93, -375.69, 17104.87, 35042.35, 0.00, 0.000, 0.000, 0.000, 13:09:32.912
79, 0.00, 30607.09, 17459.48, 10446.38, -299.27, 17107.98, 35059.20, 0.00, 0.000, 0.000, 0.000, 13:09:32.913
80, 0.00, 30612.19, 17463.19, 10427.29, -246.74, 17116.88, 35063.14, 0.00, 0.000, 0.000, 0.000, 13:09:32.913
81, 0.00, 30614.89, 17466.61, 10361.06, -279.89, 17119.11, 35046.84, 0.00, 0.000, 0.000, 0.000, 13:09:32.913
82, 0.00, 30614.67, 17468.22, 10337.86, -352.55, 17115.09, 35035.15, 0.00, 0.000, 0.000, 0.000, 13:09:32.913
83, 0.00, 30610.45, 17465.68, 10386.25, -376.38, 17111.67, 35043.82, 0.00, 0.000, 0.000, 0.000, 13:09:32.913
84, 0.00, 30610.11, 17465.25, 10449.19, -297.88, 17113.23, 35064.81, 0.00, 0.000, 0.000, 0.000, 13:09:32.914
85, 0.00, 30614.49, 17466.21, 10425.88, -247.23, 17119.04, 35068.30, 0.00, 0.000, 0.000, 0.000, 13:09:32.914
86, 0.00, 30616.77, 17470.62, 10365.60, -279.46, 17121.77, 35049.99, 0.00, 0.000, 0.000, 0.000, 13:09:32.914
87, 0.00, 30616.84, 17470.32, 10346.26, -352.82, 17118.60, 35038.91, 0.00, 0.034, -0.034, 0.998, 13:09:32.914
88, 0.00, 30611.56, 17461.65, 10391.35, -376.43, 17107.09, 35045.43, 0.00, 0.000, 0.000, 0.000, 13:09:32.914
89, 0.00, 30608.54, 17454.90, 10447.70, -299.45, 17104.81, 35061.59, 0.00, 0.000, 0.000, 0.000, 13:09:32.915
90, 0.00, 30614.00, 17459.39, 10422.37, -248.71, 17115.31, 35065.77, 0.00, 0.000, 0.000, 0.000, 13:09:32.915
91, 0.00, 30618.31, 17462.61, 10357.98, -283.08, 17119.13, 35048.79, 0.00, 0.000, 0.000, 0.000, 13:09:32.916
92, 0.00, 30614.80, 17458.37, 10333.28, -360.67, 17110.15, 35033.99, 0.00, 0.000, 0.000, 0.000, 13:09:32.916
93, 0.00, 30611.76, 17456.02, 10380.28, -382.01, 17104.47, 35042.57, 0.00, 0.000, 0.000, 0.000, 13:09:32.916
94, 0.00, 30610.09, 17455.79, 10440.59, -300.61, 17103.60, 35060.81, 0.00, 0.000, 0.000, 0.000, 13:09:32.916
95, 0.00, 30611.34, 17459.37, 10421.05, -250.00, 17110.26, 35060.97, 0.00, 0.000, 0.000, 0.000, 13:09:32.916
96, 0.00, 30615.45, 17468.16, 10360.28, -282.26, 17117.97, 35043.60, 0.00, 0.000, 0.000, 0.000, 13:09:32.916
97, 0.00, 30612.26, 17467.84, 10339.31, -356.44, 17113.17, 35028.07, 0.00, 0.030, -0.032, 0.992, 13:09:32.916
98, 0.00, 30607.54, 17461.83, 10385.78, -375.80, 17108.87, 35035.64, 0.00, 0.000, 0.000, 0.000, 13:09:32.916
99, 0.00, 30604.46, 17455.82, 10435.87, -300.16, 17108.00, 35053.10, 0.00, 0.000, 0.000, 0.000, 13:09:32.916
100, 0.00, 30607.32, 17461.27, 10417.57, -250.03, 17111.82, 35054.75, 0.00, 0.000, 0.000, 0.000, 13:09:32.917
101, 0.00, 30610.71, 17465.76, 10356.14, -286.37, 17115.94, 35037.05, 0.00, 0.000, 0.000, 0.000, 13:09:32.917
102, 0.00, 30612.30, 17466.52, 10333.70, -357.90, 17115.24, 35026.93, 0.00, 0.000, 0.000, 0.000, 13:09:32.917
103, 0.00, 30606.31, 17460.20, 10378.23, -377.34, 17109.16, 35034.82, 0.00, 0.000, 0.000, 0.000, 13:09:32.917
104, 0.00, 30605.44, 17455.10, 10435.65, -294.13, 17111.33, 35055.09, 0.00, 0.000, 0.000, 0.000, 13:09:32.917
105, 0.00, 30609.95, 17455.30, 10409.56, -244.10, 17115.33, 35057.59, 0.00, 0.000, 0.000, 0.000, 13:09:32.918
106, 0.00, 30614.24, 17463.91, 10353.69, -277.88, 17118.84, 35041.19, 0.00, 0.000, 0.000, 0.000, 13:09:32.918
107, 0.00, 30612.39, 17461.61, 10335.89, -349.85, 17114.46, 35027.98, 0.00, 0.028, -0.040, 0.994, 13:09:32.918
108, 0.00, 30609.17, 17456.29, 10384.60, -370.97, 17108.76, 35037.41, 0.00, 0.000, 0.000, 0.000, 13:09:32.918
109, 0.00, 30607.14, 17452.38, 10439.05, -294.91, 17107.87, 35055.91, 0.00, 0.000, 0.000, 0.000, 13:09:32.918
110, 0.00, 30610.91, 17453.34, 10414.82, -246.25, 17112.25, 35057.57, 0.00, 0.000, 0.000, 0.000, 13:09:32.919
111, 0.00, 30613.82, 17455.77, 10348.68, -284.34, 17113.03, 35040.11, 0.00, 0.000, 0.000, 0.000, 13:09:32.919
112, 0.00, 30613.39, 17455.77, 10324.16, -362.46, 17107.87, 35029.12, 0.00, 0.000, 0.000, 0.000, 13:09:32.919
113, 0.00, 30608.68, 17452.09, 10373.38, -381.12, 17101.14, 35037.16, 0.00, 0.000, 0.000, 0.000, 13:09:32.919
114, 0.00, 30606.69, 17448.62, 10431.31, -301.99, 17099.84, 35054.24, 0.00, 0.000, 0.000, 0.000, 13:09:32.919
115, 0.00, 30610.80, 17454.57, 10410.48, -254.23, 17104.87, 35057.35, 0.00, 0.000, 0.000, 0.000, 13:09:32.919
116, 0.00, 30614.49, 17460.33, 10348.19, -287.04, 17109.19, 35042.46, 0.00, 0.000, 0.000, 0.000, 13:09:32.920
117, 0.00, 30612.54, 17458.90, 10328.25, -360.91, 17106.71, 35029.30, 0.00, 0.032, -0.042, 0.996, 13:09:32.920
118, 0.00, 30606.47, 17452.60, 10378.21, -379.76, 17104.43, 35036.83, 0.00, 0.000, 0.000, 0.000, 13:09:32.920
119, 0.00, 30599.04, 17442.65, 10429.14, -303.80, 17099.22, 35048.76, 0.00, 0.000, 0.000, 0.000, 13:09:32.920
120, 0.00, 30604.81, 17448.62, 10404.51, -253.96, 17108.38, 35052.41, 0.00, 0.000, 0.000, 0.000, 13:09:32.920
121, 0.00, 30608.63, 17454.28, 10345.08, -284.67, 17118.04, 35036.38, 0.00, 0.000, 0.000, 0.000, 13:09:32.921
122, 0.00, 30606.47, 17452.62, 10326.53, -360.89, 17112.18, 35023.89, 0.00, 0.000, 0.000, 0.000, 13:09:32.922
123, 0.00, 30602.44, 17449.31, 10379.88, -378.28, 17103.93, 35032.67, 0.00, 0.000, 0.000, 0.000, 13:09:32.922
124, 0.00, 30595.42, 17446.45, 10437.88, -298.64, 17101.95, 35045.21, 0.00, 0.000, 0.000, 0.000, 13:09:32.922
125, 0.00, 30598.40, 17449.51, 10416.76, -251.26, 17106.10, 35044.70, 0.00, 0.000, 0.000, 0.000, 13:09:32.922
126, 0.00, 30604.03, 17455.86, 10357.37, -286.35, 17112.90, 35029.59, 0.00, 0.000, 0.000, 0.000, 13:09:32.922
127, 0.00, 30601.50, 17454.79, 10340.61, -357.38, 17112.41, 35018.32, 0.00, 0.028, -0.040, 0.990, 13:09:32.922
128, 0.00, 30599.31, 17448.67, 10389.45, -378.21, 17105.10, 35029.88, 0.00, 0.000, 0.000, 0.000, 13:09:32.922
129, 0.00, 30596.05, 17444.15, 10444.46, -300.21, 17101.01, 35045.21, 0.00, 0.000, 0.000, 0.000, 13:09:32.922
130, 0.00, 30599.94, 17447.17, 10419.60, -255.48, 17107.91, 35046.13, 0.00, 0.000, 0.000, 0.000, 13:09:32.923
131, 0.00, 30605.48, 17453.89, 10360.73, -287.31, 17114.51, 35031.57, 0.00, 0.000, 0.000, 0.000, 13:09:32.923
132, 0.00, 30602.91, 17451.48, 10337.57, -364.27, 17109.01, 35018.30, 0.00, 0.000, 0.000, 0.000, 13:09:32.923
133, 0.00, 30600.65, 17447.08, 10391.35, -380.43, 17100.54, 35028.63, 0.00, 0.000, 0.000, 0.000, 13:09:32.923
134, 0.00, 30599.31, 17443.95, 10447.23, -299.38, 17101.16, 35046.37, 0.00, 0.000, 0.000, 0.000, 13:09:32.923
135, 0.00, 30605.15, 17447.68, 10418.08, -255.46, 17108.61, 35048.90, 0.00, 0.000, 0.000, 0.000, 13:09:32.924
136, 0.00, 30609.77, 17452.64, 10356.28, -289.88, 17110.91, 35033.70, 0.00, 0.000, 0.000, 0.000, 13:09:32.924
137, 0.00, 30606.15, 17449.56, 10335.07, -366.84, 17105.86, 35020.89, 0.00, 0.028, -0.044, 0.994, 13:09:32.924
138, 0.00, 30600.54, 17443.28, 10384.24, -383.56, 17098.70, 35029.90, 0.00, 0.000, 0.000, 0.000, 13:09:32.924
139, 0.00, 30596.88, 17439.14, 10435.05, -305.75, 17095.55, 35045.32, 0.00, 0.000, 0.000, 0.000, 13:09:32.924
140, 0.00, 30602.33, 17442.83, 10411.22, -256.64, 17103.29, 35047.36, 0.00, 0.000, 0.000, 0.000, 13:09:32.924
141, 0.00, 30606.13, 17448.17, 10350.73, -292.00, 17109.92, 35031.87, 0.00, 0.000, 0.000, 0.000, 13:09:32.925
142, 0.00, 30604.70, 17446.29, 10333.64, -368.58, 17102.97, 35020.13, 0.00, 0.000, 0.000, 0.000, 13:09:32.925
143, 0.00, 30601.33, 17441.76, 10385.80, -385.68, 17095.89, 35029.07, 0.00, 0.000, 0.000, 0.000, 13:09:32.925
144, 0.00, 30598.89, 17439.46, 10441.37, -302.35, 17098.06, 35046.84, 0.00, 0.000, 0.000, 0.000, 13:09:32.925
145, 0.00, 30601.64, 17442.59, 10412.76, -258.27, 17105.88, 35047.40, 0.00, 0.000, 0.000, 0.000, 13:09:32.926
146, 0.00, 30603.00, 17446.77, 10347.25, -296.34, 17108.85, 35029.27, 0.00, 0.000, 0.000, 0.000, 13:09:32.927
147, 0.00, 30598.31, 17445.07, 10330.93, -370.64, 17103.69, 35014.30, 0.00, 0.028, -0.044, 0.994, 13:09:32.927
148, 0.00, 30595.16, 17443.44, 10384.71, -386.31, 17099.35, 35025.05, 0.00, 0.000, 0.000, 0.000, 13:09:32.927
149, 0.00, 30596.81, 17443.44, 10444.19, -296.59, 17104.96, 35047.96, 0.00, 0.000, 0.000, 0.000, 13:09:32.927
150, 0.00, 30600.01, 17446.25, 10416.72, -254.83, 17109.01, 35047.58, 0.00, 0.000, 0.000, 0.000, 13:09:32.927
151, 0.00, 30601.91, 17450.99, 10355.92, -292.23, 17110.97, 35028.51, 0.00, 0.000, 0.000, 0.000, 13:09:32.927
152, 0.00, 30597.53, 17445.98, 10332.47, -371.08, 17104.58, 35013.94, 0.00, 0.000, 0.000, 0.000, 13:09:32.927
153, 0.00, 30593.90, 17440.08, 10383.68, -386.33, 17098.95, 35024.13, 0.00, 0.000, 0.000, 0.000, 13:09:32.927
154, 0.00, 30592.34, 17438.36, 10444.43, -298.98, 17101.21, 35042.71, 0.00, 0.000, 0.000, 0.000, 13:09:32.928
155, 0.00, 30595.54, 17442.12, 10420.29, -255.61, 17106.44, 35043.11, 0.00, 0.000, 0.000, 0.000, 13:09:32.928
156, 0.00, 30598.44, 17446.74, 10358.38, -293.84, 17109.99, 35026.64, 0.00, 0.000, 0.000, 0.000, 13:09:32.928
157, 0.00, 30597.46, 17448.29, 10343.09, -365.94, 17106.57, 35016.55, 0.00, 0.026, -0.040, 0.994, 13:09:32.928
158, 0.00, 30592.43, 17441.47, 10389.65, -386.64, 17096.36, 35025.05, 0.00, 0.000, 0.000, 0.000, 13:09:32.929
159, 0.00, 30590.08, 17435.88, 10443.11, -304.45, 17094.90, 35042.01, 0.00, 0.000, 0.000, 0.000, 13:09:32.929
160, 0.00, 30595.42, 17439.54, 10416.78, -261.65, 17103.53, 35044.09, 0.00, 0.000, 0.000, 0.000, 13:09:32.929
161, 0.00, 30601.59, 17444.08, 10354.20, -300.45, 17108.07, 35028.63, 0.00, 0.000, 0.000, 0.000, 13:09:32.929
162, 0.00, 30599.43, 17442.50, 10340.83, -373.36, 17101.14, 35017.34, 0.00, 0.000, 0.000, 0.000, 13:09:32.930
163, 0.00, 30598.62, 17438.52, 10392.20, -388.74, 17094.55, 35030.34, 0.00, 0.000, 0.000, 0.000, 13:09:32.930
164, 0.00, 30595.42, 17433.27, 10448.08, -303.56, 17091.73, 35046.80, 0.00, 0.000, 0.000, 0.000, 13:09:32.930
165, 0.00, 30600.90, 17437.80, 10419.38, -261.31, 17100.27, 35048.07, 0.00, 0.000, 0.000, 0.000, 13:09:32.931
166, 0.00, 30605.26, 17442.76, 10352.66, -300.50, 17104.36, 35031.53, 0.00, 0.000, 0.000, 0.000, 13:09:32.931
167, 0.00, 30600.99, 17440.93, 10332.94, -375.33, 17098.66, 35019.15, 0.00, 0.030, -0.034, 0.988, 13:09:32.931
168, 0.00, 30597.57, 17436.08, 10386.59, -390.08, 17093.54, 35029.38, 0.00, 0.000, 0.000, 0.000, 13:09:32.931
169, 0.00, 30597.46, 17433.40, 10444.46, -304.90, 17094.61, 35046.71, 0.00, 0.000, 0.000, 0.000, 13:09:32.931
170, 0.00, 30600.72, 17435.61, 10412.69, -262.66, 17101.34, 35046.80, 0.00, 0.000, 0.000, 0.000, 13:09:32.932
171, 0.00, 30605.26, 17441.36, 10351.61, -300.65, 17105.92, 35032.52, 0.00, 0.000, 0.000, 0.000, 13:09:32.932
172, 0.00, 30603.16, 17437.62, 10337.08, -371.98, 17102.10, 35021.70, 0.00, 0.000, 0.000, 0.000, 13:09:32.932
173, 0.00, 30595.87, 17429.62, 10389.34, -388.54, 17093.61, 35027.89, 0.00, 0.000, 0.000, 0.000, 13:09:32.932
174, 0.00, 30594.60, 17427.92, 10442.58, -305.15, 17095.93, 35047.07, 0.00, 0.000, 0.000, 0.000, 13:09:32.932
175, 0.00, 30600.05, 17434.11, 10415.31, -259.03, 17105.23, 35050.57, 0.00, 0.000, 0.000, 0.000, 13:09:32.933
176, 0.00, 30603.38, 17439.43, 10352.57, -297.75, 17107.40, 35033.48, 0.00, 0.000, 0.000, 0.000, 13:09:32.933
177, 0.00, 30600.45, 17440.55, 10341.95, -370.55, 17104.58, 35021.16, 0.00, 0.032, -0.034, 0.988, 13:09:32.933
178, 0.00, 30593.41, 17432.53, 10390.95, -386.57, 17092.94, 35027.75, 0.00, 0.000, 0.000, 0.000, 13:09:32.933
179, 0.00, 30590.42, 17427.79, 10440.30, -303.98, 17089.94, 35043.78, 0.00, 0.000, 0.000, 0.000, 13:09:32.933
180, 0.00, 30591.45, 17424.95, 10401.12, -268.06, 17093.12, 35041.41, 0.00, 0.000, 0.000, 0.000, 13:09:32.934
181, 0.00, 30598.06, 17435.32, 10346.17, -304.18, 17099.17, 35027.06, 0.00, 0.000, 0.000, 0.000, 13:09:32.934
182, 0.00, 30595.54, 17437.89, 10340.10, -377.66, 17094.35, 35016.02, 0.00, 0.000, 0.000, 0.000, 13:09:32.934
183, 0.00, 30589.28, 17430.98, 10388.82, -393.37, 17085.18, 35024.76, 0.00, 0.000, 0.000, 0.000, 13:09:32.934
184, 0.00, 30588.36, 17428.86, 10443.72, -305.46, 17089.61, 35042.30, 0.00, 0.000, 0.000, 0.000, 13:09:32.934
185, 0.00, 30590.46, 17428.64, 10405.36, -274.39, 17089.49, 35039.51, 0.00, 0.000, 0.000, 0.000, 13:09:32.934
186, 0.00, 30594.62, 17436.28, 10348.86, -311.74, 17091.73, 35024.33, 0.00, 0.000, 0.000, 0.000, 13:09:32.935
187, 0.00, 30592.27, 17435.52, 10339.20, -381.52, 17087.93, 35014.32, 0.00, 0.032, -0.032, 0.994, 13:09:32.935
188, 0.00, 30587.15, 17427.83, 10387.88, -397.66, 17080.33, 35022.93, 0.00, 0.000, 0.000, 0.000, 13:09:32.935
189, 0.00, 30583.06, 17421.37, 10436.28, -314.80, 17078.28, 35036.94, 0.00, 0.000, 0.000, 0.000, 13:09:32.935
190, 0.00, 30588.74, 17426.63, 10408.27, -272.74, 17090.17, 35038.91, 0.00, 0.000, 0.000, 0.000, 13:09:32.935
191, 0.00, 30594.89, 17434.20, 10349.95, -309.48, 17097.16, 35024.49, 0.00, 0.000, 0.000, 0.000, 13:09:32.936
192, 0.00, 30592.41, 17433.94, 10335.02, -383.53, 17089.99, 35012.96, 0.00, 0.000, 0.000, 0.000, 13:09:32.936
193, 0.00, 30586.64, 17425.96, 10380.91, -400.43, 17080.22, 35020.58, 0.00, 0.000, 0.000, 0.000, 13:09:32.937
194, 0.00, 30586.93, 17423.77, 10436.66, -312.68, 17081.96, 35040.25, 0.00, 0.000, 0.000, 0.000, 13:09:33.393
195, 0.00, 30590.91, 17427.43, 10404.98, -275.93, 17088.69, 35039.89, 0.00, 0.000, 0.000, 0.000, 13:09:33.393
196, 0.00, 30593.79, 17429.80, 10339.31, -317.89, 17088.82, 35022.37, 0.00, 0.000, 0.000, 0.000, 13:09:33.394
197, 0.00, 30592.79, 17428.86, 10328.65, -386.46, 17086.63, 35012.13, 0.00, 0.030, -0.030, 0.992, 13:09:33.394
198, 0.00, 30589.70, 17424.95, 10385.09, -394.15, 17083.55, 35024.38, 0.00, 0.000, 0.000, 0.000, 13:09:33.394
199, 0.00, 30588.85, 17421.60, 10440.08, -308.79, 17084.29, 35042.06, 0.00, 0.000, 0.000, 0.000, 13:09:33.394
200, 0.00, 30594.93, 17427.25, 10410.50, -271.42, 17092.58, 35043.36, 0.00, 0.000, 0.000, 0.000, 13:09:33.394
201, 0.00, 30598.42, 17432.06, 10350.56, -311.09, 17093.34, 35025.27, 0.00, 0.000, 0.000, 0.000, 13:09:33.394
202, 0.00, 30596.38, 17428.86, 10338.75, -382.48, 17088.87, 35014.59, 0.00, 0.000, 0.000, 0.000, 13:09:33.395
203, 0.00, 30589.54, 17421.82, 10389.11, -398.17, 17081.89, 35023.30, 0.00, 0.000, 0.000, 0.000, 13:09:33.395
204, 0.00, 30586.86, 17418.22, 10440.37, -313.19, 17080.62, 35040.47, 0.00, 0.000, 0.000, 0.000, 13:09:33.395
205, 0.00, 30593.17, 17422.47, 10408.56, -273.85, 17088.73, 35041.57, 0.00, 0.000, 0.000, 0.000, 13:09:33.395
206, 0.00, 30596.61, 17427.43, 10346.69, -317.01, 17094.14, 35024.31, 0.00, 0.000, 0.000, 0.000, 13:09:33.395
207, 0.00, 30594.64, 17428.50, 10336.07, -387.27, 17089.74, 35014.25, 0.00, 0.026, -0.034, 0.994, 13:09:33.395
208, 0.00, 30591.09, 17422.69, 10386.88, -399.47, 17080.33, 35024.54, 0.00, 0.000, 0.000, 0.000, 13:09:33.395
209, 0.00, 30587.65, 17417.73, 10434.20, -315.54, 17079.06, 35040.11, 0.00, 0.000, 0.000, 0.000, 13:09:33.395
210, 0.00, 30591.36, 17423.27, 10404.58, -275.28, 17084.27, 35039.31, 0.00, 0.000, 0.000, 0.000, 13:09:33.396
211, 0.00, 30593.37, 17427.34, 10343.05, -317.31, 17088.27, 35020.09, 0.00, 0.000, 0.000, 0.000, 13:09:33.396
212, 0.00, 30592.41, 17426.94, 10333.03, -388.70, 17084.60, 35009.74, 0.00, 0.000, 0.000, 0.000, 13:09:33.396
213, 0.00, 30588.07, 17423.07, 10387.66, -401.06, 17077.47, 35021.18, 0.00, 0.000, 0.000, 0.000, 13:09:33.396
214, 0.00, 30585.77, 17420.86, 10442.04, -311.29, 17080.31, 35039.22, 0.00, 0.000, 0.000, 0.000, 13:09:33.396
215, 0.00, 30591.85, 17427.56, 10413.61, -268.82, 17090.12, 35041.07, 0.00, 0.000, 0.000, 0.000, 13:09:33.396
216, 0.00, 30594.71, 17431.72, 10351.79, -314.65, 17092.02, 35022.14, 0.00, 0.000, 0.000, 0.000, 13:09:33.396
217, 0.00, 30591.58, 17428.84, 10335.45, -390.51, 17084.64, 35009.78, 0.00, 0.024, -0.032, 0.996, 13:09:33.397
218, 0.00, 30588.29, 17423.99, 10389.20, -399.11, 17079.39, 35022.05, 0.00, 0.000, 0.000, 0.000, 13:09:33.397
219, 0.00, 30584.38, 17416.79, 10436.43, -313.68, 17077.18, 35037.43, 0.00, 0.000, 0.000, 0.000, 13:09:33.397
220, 0.00, 30589.14, 17423.83, 10405.45, -276.29, 17085.47, 35037.10, 0.00, 0.000, 0.000, 0.000, 13:09:33.397
221, 0.00, 30592.50, 17428.39, 10344.01, -318.87, 17088.94, 35019.35, 0.00, 0.000, 0.000, 0.000, 13:09:33.397
222, 0.00, 30591.42, 17428.15, 10335.36, -391.18, 17084.27, 35008.87, 0.00, 0.000, 0.000, 0.000, 13:09:33.397
223, 0.00, 30585.99, 17421.49, 10387.95, -401.62, 17078.52, 35019.95, 0.00, 0.000, 0.000, 0.000, 13:09:33.397
224, 0.00, 30581.41, 17416.84, 10438.85, -313.46, 17079.32, 35034.75, 0.00, 0.000, 0.000, 0.000, 13:09:33.397
225, 0.00, 30588.21, 17425.51, 10408.60, -275.26, 17089.27, 35037.72, 0.00, 0.000, 0.000, 0.000, 13:09:33.398
226, 0.00, 30589.01, 17426.09, 10343.43, -320.01, 17086.43, 35016.87, 0.00, 0.000, 0.000, 0.000, 13:09:33.398
227, 0.00, 30586.73, 17423.50, 10332.45, -391.13, 17082.19, 35006.14, 0.00, 0.022, -0.030, 0.994, 13:09:33.398
228, 0.00, 30585.43, 17420.01, 10386.36, -401.17, 17075.37, 35019.93, 0.00, 0.000, 0.000, 0.000, 13:09:33.398
229, 0.00, 30585.16, 17417.48, 10437.17, -313.24, 17079.88, 35038.64, 0.00, 0.000, 0.000, 0.000, 13:09:33.398
230, 0.00, 30590.46, 17423.77, 10405.52, -274.66, 17087.93, 35039.13, 0.00, 0.000, 0.000, 0.000, 13:09:33.398
231, 0.00, 30593.79, 17428.15, 10344.97, -318.38, 17088.82, 35020.51, 0.00, 0.000, 0.000, 0.000, 13:09:33.398
232, 0.00, 30587.98, 17422.96, 10333.05, -392.38, 17080.67, 35006.45, 0.00, 0.000, 0.000, 0.000, 13:09:33.398
233, 0.00, 30582.86, 17416.32, 10384.37, -403.61, 17073.49, 35015.86, 0.00, 0.000, 0.000, 0.000, 13:09:33.398
234, 0.00, 30580.74, 17413.30, 10431.49, -317.93, 17075.97, 35032.56, 0.00, 0.000, 0.000, 0.000, 13:09:33.399
235, 0.00, 30585.77, 17420.37, 10399.26, -278.53, 17083.66, 35032.52, 0.00, 0.000, 0.000, 0.000, 13:09:33.399
236, 0.00, 30591.67, 17425.33, 10337.21, -321.73, 17087.51, 35016.38, 0.00, 0.000, 0.000, 0.000, 13:09:33.399
237, 0.00, 30589.50, 17422.98, 10326.08, -394.53, 17083.08, 35005.38, 0.00, 0.026, -0.036, 0.988, 13:09:33.399
238, 0.00, 30584.70, 17416.30, 10379.55, -406.00, 17074.12, 35015.41, 0.00, 0.000, 0.000, 0.000, 13:09:33.399
239, 0.00, 30583.60, 17412.63, 10429.21, -317.37, 17074.90, 35033.30, 0.00, 0.000, 0.000, 0.000, 13:09:33.399
240, 0.00, 30584.94, 17415.43, 10396.11, -279.82, 17081.81, 35030.19, 0.00, 0.000, 0.000, 0.000, 13:09:33.399
241, 0.00, 30587.89, 17420.81, 10332.23, -324.61, 17084.09, 35012.09, 0.00, 0.000, 0.000, 0.000, 13:09:33.399
242, 0.00, 30587.56, 17420.01, 10322.66, -396.97, 17079.32, 35003.25, 0.00, 0.000, 0.000, 0.000, 13:09:33.399
243, 0.00, 30585.61, 17418.63, 10382.92, -401.44, 17075.30, 35016.73, 0.00, 0.000, 0.000, 0.000, 13:09:33.400
244, 0.00, 30587.09, 17418.89, 10439.47, -307.47, 17080.17, 35036.85, 0.00, 0.000, 0.000, 0.000, 13:09:33.400
245, 0.00, 30590.95, 17421.20, 10403.19, -273.67, 17085.63, 35034.79, 0.00, 0.000, 0.000, 0.000, 13:09:33.400
246, 0.00, 30591.67, 17422.96, 10339.54, -324.46, 17084.58, 35013.92, 0.00, 0.000, 0.000, 0.000, 13:09:33.400
247, 0.00, 30589.37, 17421.84, 10332.16, -394.44, 17081.98, 35004.62, 0.00, 0.030, -0.038, 0.986, 13:09:33.400
248, 0.00, 30582.53, 17412.37, 10379.99, -405.24, 17071.79, 35014.25, 0.00, 0.000, 0.000, 0.000, 13:09:33.400
249, 0.00, 30580.90, 17410.13, 10433.37, -315.52, 17071.72, 35030.50, 0.00, 0.000, 0.000, 0.000, 13:09:33.400
250, 0.00, 30587.20, 17417.13, 10402.46, -279.15, 17081.56, 35031.87, 0.00, 0.000, 0.000, 0.000, 13:09:33.400
251, 0.00, 30591.89, 17423.61, 10342.84, -321.49, 17087.30, 35015.30, 0.00, 0.000, 0.000, 0.000, 13:09:33.400
252, 0.00, 30588.94, 17421.66, 10331.47, -395.20, 17080.44, 35004.55, 0.00, 0.000, 0.000, 0.000, 13:09:33.401
253, 0.00, 30585.41, 17415.67, 10385.09, -402.82, 17071.90, 35015.71, 0.00, 0.000, 0.000, 0.000, 13:09:33.401
254, 0.00, 30583.64, 17412.14, 10434.73, -313.19, 17072.13, 35031.08, 0.00, 0.000, 0.000, 0.000, 13:09:33.401
255, 0.00, 30587.18, 17415.09, 10396.20, -283.04, 17080.15, 35029.81, 0.00, 0.000, 0.000, 0.000, 13:09:33.401
0, 0.00, 30591.58, 17421.53, 10335.67, -327.54, 17084.38, 35013.43, 0.00, 0.000, 0.000, 0.000, 13:09:33.401
1, 0.00, 30588.29, 17420.59, 10330.37, -398.31, 17080.82, 35002.61, 0.00, 0.034, -0.038, 0.990, 13:09:33.401
2, 0.00, 30582.73, 17412.03, 10382.83, -404.66, 17070.88, 35012.57, 0.00, 0.000, 0.000, 0.000, 13:09:33.401
3, 0.00, 30583.85, 17412.46, 10435.47, -313.39, 17073.85, 35032.67, 0.00, 0.000, 0.000, 0.000, 13:09:33.401
4, 0.00, 30588.34, 17417.17, 10405.03, -282.77, 17081.20, 35031.17, 0.00, 0.000, 0.000, 0.000, 13:09:33.402
5, 0.00, 30592.25, 17422.65, 10344.83, -326.16, 17084.58, 35014.41, 0.00, 0.000, 0.000, 0.000, 13:09:33.402
6, 0.00, 30588.74, 17424.21, 10340.72, -396.94, 17080.00, 35004.20, 0.00, 0.000, 0.000, 0.000, 13:09:33.402
7, 0.00, 30579.94, 17414.85, 10392.29, -407.18, 17070.05, 35010.56, 0.00, 0.000, 0.000, 0.000, 13:09:33.402
8, 0.00, 30580.34, 17411.58, 10437.17, -319.27, 17071.81, 35027.26, 0.00, 0.000, 0.000, 0.000, 13:09:33.402
9, 0.00, 30587.11, 17420.35, 10405.03, -280.98, 17083.30, 35028.56, 0.00, 0.000, 0.000, 0.000, 13:09:33.402
10, 0.00, 30589.08, 17424.93, 10347.09, -324.37, 17086.68, 35010.56, 0.00, 0.000, 0.000, 0.000, 13:09:33.402
11, 0.00, 30584.99, 17420.01, 10338.35, -399.05, 17076.42, 34998.70, 0.00, 0.028, -0.038, 0.988, 13:09:33.402
12, 0.00, 30580.27, 17412.43, 10390.63, -406.96, 17068.37, 35010.61, 0.00, 0.000, 0.000, 0.000, 13:09:33.402
13, 0.00, 30583.18, 17413.97, 10440.19, -315.74, 17071.95, 35031.98, 0.00, 0.000, 0.000, 0.000, 13:09:33.403
14, 0.00, 30589.28, 17419.00, 10405.85, -280.29, 17078.99, 35030.57, 0.00, 0.000, 0.000, 0.000, 13:09:33.403
15, 0.00, 30590.57, 17420.81, 10341.12, -329.17, 17081.89, 35010.39, 0.00, 0.000, 0.000, 0.000, 13:09:33.403
16, 0.00, 30588.14, 17418.22, 10334.04, -400.72, 17075.26, 35000.02, 0.00, 0.000, 0.000, 0.000, 13:09:33.403
17, 0.00, 30585.84, 17415.85, 10393.87, -402.67, 17070.07, 35014.07, 0.00, 0.000, 0.000, 0.000, 13:09:33.403
18, 0.00, 30583.09, 17412.14, 10438.38, -314.53, 17071.26, 35029.88, 0.00, 0.000, 0.000, 0.000, 13:09:33.403
19, 0.00, 30586.97, 17415.43, 10397.99, -284.07, 17076.89, 35027.89, 0.00, 0.000, 0.000, 0.000, 13:09:33.403
20, 0.00, 30587.62, 17415.76, 10333.41, -335.10, 17075.21, 35007.66, 0.00, 0.000, 0.000, 0.000, 13:09:33.403
21, 0.00, 30584.54, 17414.45, 10328.99, -404.86, 17067.30, 34996.86, 0.00, 0.028, -0.038, 0.988, 13:09:33.403
22, 0.00, 30580.52, 17407.96, 10384.62, -411.43, 17061.15, 35008.51, 0.00, 0.000, 0.000, 0.000, 13:09:33.404
23, 0.00, 30579.58, 17405.55, 10433.97, -321.06, 17064.44, 35025.88, 0.00, 0.000, 0.000, 0.000, 13:09:33.404
24, 0.00, 30587.85, 17415.88, 10400.74, -283.67, 17076.91, 35028.09, 0.00, 0.000, 0.000, 0.000, 13:09:33.404
25, 0.00, 30592.12, 17420.14, 10340.16, -329.44, 17079.35, 35011.57, 0.00, 0.000, 0.000, 0.000, 13:09:33.405
26, 0.00, 30586.39, 17413.97, 10328.90, -403.52, 17070.90, 34999.14, 0.00, 0.000, 0.000, 0.000, 13:09:33.405
27, 0.00, 30577.74, 17405.44, 10380.91, -412.19, 17061.67, 35007.28, 0.00, 0.000, 0.000, 0.000, 13:09:33.405
28, 0.00, 30579.42, 17406.55, 10428.90, -321.44, 17066.25, 35026.61, 0.00, 0.000, 0.000, 0.000, 13:09:33.405
29, 0.00, 30585.93, 17411.74, 10388.40, -289.95, 17073.58, 35025.81, 0.00, 0.000, 0.000, 0.000, 13:09:33.405
30, 0.00, 30589.10, 17417.95, 10331.62, -335.48, 17075.68, 35007.84, 0.00, 0.000, 0.000, 0.000, 13:09:33.405
31, 0.00, 30587.24, 17417.35, 10326.28, -405.71, 17070.05, 34999.03, 0.00, 0.028, -0.038, 0.994, 13:09:33.405
32, 0.00, 30580.74, 17410.18, 10377.04, -412.32, 17063.88, 35009.09, 0.00, 0.000, 0.000, 0.000, 13:09:33.405
33, 0.00, 30579.64, 17407.76, 10425.17, -320.41, 17066.70, 35026.81, 0.00, 0.000, 0.000, 0.000, 13:09:33.405
34, 0.00, 30582.53, 17410.04, 10385.60, -291.56, 17071.39, 35023.55, 0.00, 0.000, 0.000, 0.000, 13:09:33.405
35, 0.00, 30585.43, 17413.17, 10325.90, -338.90, 17073.07, 35005.22, 0.00, 0.000, 0.000, 0.000, 13:09:33.405
36, 0.00, 30579.89, 17408.90, 10318.71, -412.84, 17066.63, 34993.29, 0.00, 0.000, 0.000, 0.000, 13:09:33.406
37, 0.00, 30575.87, 17405.50, 10377.00, -413.95, 17060.10, 35006.03, 0.00, 0.000, 0.000, 0.000, 13:09:33.406
38, 0.00, 30574.68, 17404.14, 10429.03, -319.25, 17061.44, 35022.23, 0.00, 0.000, 0.000, 0.000, 13:09:33.406
39, 0.00, 30580.07, 17409.62, 10387.91, -289.12, 17071.77, 35019.84, 0.00, 0.000, 0.000, 0.000, 13:09:33.406
40, 0.00, 30582.84, 17414.53, 10325.77, -339.50, 17072.06, 35000.21, 0.00, 0.000, 0.000, 0.000, 13:09:33.406
41, 0.00, 30582.79, 17415.67, 10323.02, -410.20, 17065.78, 34994.11, 0.00, 0.030, -0.034, 0.998, 13:09:33.406
42, 0.00, 30577.28, 17408.74, 10378.47, -412.70, 17059.01, 35006.21, 0.00, 0.000, 0.000, 0.000, 13:09:33.406
43, 0.00, 30576.76, 17405.71, 10422.35, -321.57, 17060.28, 35023.30, 0.00, 0.000, 0.000, 0.000, 13:09:33.406
44, 0.00, 30583.18, 17413.30, 10386.12, -291.69, 17071.32, 35022.90, 0.00, 0.000, 0.000, 0.000, 13:09:33.407
45, 0.00, 30583.73, 17417.55, 10330.31, -338.87, 17071.44, 35003.41, 0.00, 0.000, 0.000, 0.000, 13:09:33.407
46, 0.00, 30581.57, 17414.49, 10325.14, -410.02, 17064.51, 34995.54, 0.00, 0.000, 0.000, 0.000, 13:09:33.407
47, 0.00, 30577.65, 17408.21, 10378.43, -413.44, 17059.41, 35008.91, 0.00, 0.000, 0.000, 0.000, 13:09:33.407
48, 0.00, 30574.68, 17404.48, 10422.60, -322.20, 17063.79, 35023.71, 0.00, 0.000, 0.000, 0.000, 13:09:33.407
49, 0.00, 30578.59, 17408.34, 10381.36, -294.95, 17069.54, 35020.00, 0.00, 0.000, 0.000, 0.000, 13:09:33.407
50, 0.00, 30581.21, 17413.26, 10325.81, -343.32, 17071.41, 35002.16, 0.00, 0.000, 0.000, 0.000, 13:09:33.407
51, 0.00, 30577.56, 17409.35, 10321.70, -415.16, 17063.28, 34991.32, 0.00, 0.030, -0.030, 1.000, 13:09:33.407
52, 0.00, 30572.71, 17401.99, 10374.65, -417.28, 17057.20, 35003.97, 0.00, 0.000, 0.000, 0.000, 13:09:33.408
53, 0.00, 30573.34, 17403.31, 10424.03, -323.88, 17062.83, 35021.98, 0.00, 0.000, 0.000, 0.000, 13:09:33.408
54, 0.00, 30579.82, 17409.30, 10388.62, -294.04, 17071.75, 35020.13, 0.00, 0.000, 0.000, 0.000, 13:09:33.408
55, 0.00, 30584.36, 17413.04, 10331.11, -341.71, 17072.89, 35003.90, 0.00, 0.000, 0.000, 0.000, 13:09:33.408
56, 0.00, 30579.78, 17410.98, 10329.25, -411.65, 17068.30, 34993.60, 0.00, 0.000, 0.000, 0.000, 13:09:33.408
57, 0.00, 30576.80, 17408.63, 10387.82, -411.99, 17063.99, 35008.66, 0.00, 0.000, 0.000, 0.000, 13:09:33.408
58, 0.00, 30572.78, 17404.25, 10430.96, -322.85, 17062.67, 35022.93, 0.00, 0.000, 0.000, 0.000, 13:09:33.408
