%OpenBCI Raw EEG Data
%
%Sample Rate = 250.0 Hz
%First Column = SampleIndex
%Last Column = Timestamp 
%Other Columns = EEG data in microvolts followed by Accel Data (in G) interleaved with Aux Data
0, 0.00, 0.00, 0.00, 0.00, 0.00, 0.00, 0.00, 0.00, 0.000, 0.000, 0.000, 13:20:26.204
1, 0.00, 24276.12, 12342.54, 2831.65, -7312.17, 9441.67, 28612.27, 0.00, 0.036, -0.030, 0.990, 13:20:26.683
2, 0.00, 24280.30, 12344.78, 2795.00, -6718.20, 9449.67, 28598.45, 0.00, 0.000, 0.000, 0.000, 13:20:26.683
3, 0.00, 24283.22, 12346.41, 2711.47, -6727.83, 9440.44, 28572.70, 0.00, 0.000, 0.000, 0.000, 13:20:26.684
4, 0.00, 24283.52, 12348.13, 2690.52, -7337.47, 9429.60, 28572.32, 0.00, 0.000, 0.000, 0.000, 13:20:26.684
5, 0.00, 24277.26, 12345.99, 2766.54, -7731.83, 9428.03, 28593.56, 0.00, 0.000, 0.000, 0.000, 13:20:26.685
6, 0.00, 24276.56, 12347.77, 2835.05, -7321.65, 9442.18, 28609.05, 0.00, 0.000, 0.000, 0.000, 13:20:26.685
7, 0.00, 24280.23, 12352.96, 2792.49, -6753.91, 9449.92, 28596.11, 0.00, 0.000, 0.000, 0.000, 13:20:26.686
8, 0.00, 24282.31, 12355.24, 2714.26, -6749.80, 9443.57, 28571.50, 0.00, 0.038, -0.034, 0.996, 13:20:26.686
9, 0.00, 24281.59, 12353.34, 2700.00, -7316.62, 9431.39, 28569.82, 0.00, 0.000, 0.000, 0.000, 13:20:26.686
10, 0.00, 24276.72, 12350.59, 2780.11, -7672.53, 9430.29, 28591.54, 0.00, 0.000, 0.000, 0.000, 13:20:26.687
11, 0.00, 24275.42, 12347.86, 2843.21, -7284.43, 9439.99, 28606.70, 0.00, 0.000, 0.000, 0.000, 13:20:26.687
12, 0.00, 24281.01, 12351.51, 2800.96, -6768.87, 9451.37, 28594.68, 0.00, 0.000, 0.000, 0.000, 13:20:26.687
13, 0.00, 24283.78, 12352.36, 2723.02, -6788.20, 9448.10, 28571.52, 0.00, 0.000, 0.000, 0.000, 13:20:26.687
14, 0.00, 24283.07, 12353.50, 2712.99, -7328.31, 9434.11, 28571.00, 0.00, 0.000, 0.000, 0.000, 13:20:26.688
15, 0.00, 24279.65, 12351.66, 2787.31, -7657.82, 9432.17, 28594.72, 0.00, 0.000, 0.000, 0.000, 13:20:26.688
16, 0.00, 24276.36, 12351.42, 2845.33, -7267.00, 9439.34, 28609.38, 0.00, 0.000, 0.000, 0.000, 13:20:26.688
17, 0.00, 24281.84, 12355.28, 2798.68, -6764.60, 9447.57, 28597.00, 0.00, 0.000, 0.000, 0.000, 13:20:26.688
18, 0.00, 24288.39, 12364.11, 2722.31, -6794.53, 9445.11, 28576.99, 0.00, 0.038, -0.034, 0.992, 13:20:26.688
19, 0.00, 24284.68, 12359.08, 2709.39, -7331.73, 9432.84, 28571.96, 0.00, 0.000, 0.000, 0.000, 13:20:26.689
20, 0.00, 24277.64, 12345.90, 2780.04, -7642.28, 9431.43, 28592.48, 0.00, 0.000, 0.000, 0.000, 13:20:26.689
21, 0.00, 24277.03, 12346.41, 2835.94, -7247.60, 9441.47, 28608.82, 0.00, 0.000, 0.000, 0.000, 13:20:26.689
22, 0.00, 24282.82, 12354.55, 2788.80, -6764.62, 9451.12, 28597.25, 0.00, 0.000, 0.000, 0.000, 13:20:26.689
23, 0.00, 24285.50, 12358.35, 2712.43, -6808.94, 9443.75, 28572.39, 0.00, 0.000, 0.000, 0.000, 13:20:26.690
24, 0.00, 24281.46, 12354.81, 2701.79, -7343.24, 9431.94, 28567.74, 0.00, 0.000, 0.000, 0.000, 13:20:26.690
25, 0.00, 24276.43, 12346.86, 2772.87, -7644.43, 9430.20, 28591.21, 0.00, 0.000, 0.000, 0.000, 13:20:26.690
26, 0.00, 24275.85, 12346.16, 2826.11, -7244.69, 9439.05, 28608.06, 0.00, 0.000, 0.000, 0.000, 13:20:26.690
27, 0.00, 24280.74, 12358.39, 2780.29, -6765.96, 9448.86, 28594.43, 0.00, 0.000, 0.000, 0.000, 13:20:26.691
28, 0.00, 24284.12, 12363.33, 2708.25, -6816.70, 9443.52, 28569.82, 0.00, 0.032, -0.030, 0.990, 13:20:26.691
29, 0.00, 24282.02, 12358.19, 2700.00, -7353.59, 9428.79, 28568.39, 0.00, 0.000, 0.000, 0.000, 13:20:26.691
30, 0.00, 24276.12, 12354.52, 2783.51, -7641.32, 9429.13, 28590.32, 0.00, 0.000, 0.000, 0.000, 13:20:26.691
31, 0.00, 24275.60, 12353.03, 2849.42, -7230.92, 9441.22, 28606.50, 0.00, 0.000, 0.000, 0.000, 13:20:26.692
32, 0.00, 24281.48, 12359.17, 2798.59, -6763.24, 9449.22, 28593.76, 0.00, 0.000, 0.000, 0.000, 13:20:26.692
33, 0.00, 24285.28, 12363.44, 2721.66, -6819.61, 9446.07, 28571.43, 0.00, 0.000, 0.000, 0.000, 13:20:26.692
34, 0.00, 24280.83, 12359.31, 2713.35, -7342.15, 9435.63, 28568.10, 0.00, 0.000, 0.000, 0.000, 13:20:26.692
35, 0.00, 24273.23, 12350.90, 2787.62, -7617.74, 9430.83, 28588.91, 0.00, 0.000, 0.000, 0.000, 13:20:26.693
36, 0.00, 24274.46, 12355.06, 2846.52, -7217.45, 9441.22, 28607.77, 0.00, 0.000, 0.000, 0.000, 13:20:26.693
37, 0.00, 24282.78, 12364.38, 2797.52, -6753.94, 9451.77, 28596.62, 0.00, 0.000, 0.000, 0.000, 13:20:26.693
38, 0.00, 24282.33, 12361.07, 2713.37, -6822.22, 9444.51, 28567.70, 0.00, 0.030, -0.028, 0.990, 13:20:26.693
39, 0.00, 24281.50, 12361.14, 2704.63, -7345.32, 9434.74, 28567.52, 0.00, 0.000, 0.000, 0.000, 13:20:26.694
40, 0.00, 24277.26, 12355.66, 2782.17, -7610.08, 9431.63, 28591.12, 0.00, 0.000, 0.000, 0.000, 13:20:26.694
41, 0.00, 24275.13, 12356.58, 2835.30, -7210.40, 9435.70, 28605.47, 0.00, 0.000, 0.000, 0.000, 13:20:26.694
42, 0.00, 24280.19, 12363.89, 2781.76, -6764.62, 9446.25, 28592.08, 0.00, 0.000, 0.000, 0.000, 13:20:26.694
43, 0.00, 24282.67, 12370.48, 2709.03, -6832.28, 9449.47, 28568.70, 0.00, 0.000, 0.000, 0.000, 13:20:26.694
44, 0.00, 24279.09, 12367.31, 2707.71, -7347.38, 9435.43, 28566.87, 0.00, 0.000, 0.000, 0.000, 13:20:26.695
45, 0.00, 24274.66, 12358.23, 2782.10, -7608.85, 9432.28, 28590.05, 0.00, 0.000, 0.000, 0.000, 13:20:26.695
46, 0.00, 24275.18, 12357.43, 2828.75, -7206.67, 9442.36, 28606.41, 0.00, 0.000, 0.000, 0.000, 13:20:26.695
47, 0.00, 24280.32, 12362.62, 2772.04, -6757.87, 9447.14, 28592.44, 0.00, 0.000, 0.000, 0.000, 13:20:26.695
48, 0.00, 24284.57, 12371.09, 2707.60, -6828.37, 9440.68, 28570.67, 0.00, 0.032, -0.030, 1.000, 13:20:26.696
49, 0.00, 24283.89, 12370.82, 2711.56, -7349.95, 9435.57, 28572.59, 0.00, 0.000, 0.000, 0.000, 13:20:26.696
50, 0.00, 24273.08, 12356.54, 2785.36, -7610.17, 9427.94, 28589.29, 0.00, 0.000, 0.000, 0.000, 13:20:26.696
51, 0.00, 24273.81, 12359.02, 2843.34, -7203.07, 9438.38, 28603.39, 0.00, 0.000, 0.000, 0.000, 13:20:26.696
52, 0.00, 24282.29, 12372.43, 2797.63, -6757.94, 9450.63, 28593.94, 0.00, 0.000, 0.000, 0.000, 13:20:26.697
53, 0.00, 24283.11, 12376.18, 2723.72, -6835.25, 9445.15, 28568.50, 0.00, 0.000, 0.000, 0.000, 13:20:26.697
54, 0.00, 24282.17, 12375.20, 2718.33, -7353.32, 9435.79, 28569.73, 0.00, 0.000, 0.000, 0.000, 13:20:26.697
55, 0.00, 24278.40, 12367.55, 2795.96, -7602.66, 9435.45, 28593.74, 0.00, 0.000, 0.000, 0.000, 13:20:26.698
56, 0.00, 24277.14, 12365.74, 2843.83, -7207.21, 9440.37, 28608.27, 0.00, 0.000, 0.000, 0.000, 13:20:26.698
57, 0.00, 24281.50, 12370.35, 2790.17, -6776.33, 9444.42, 28593.65, 0.00, 0.000, 0.000, 0.000, 13:20:26.698
58, 0.00, 24285.13, 12374.19, 2713.90, -6860.00, 9442.29, 28570.40, 0.00, 0.028, -0.032, 0.992, 13:20:26.699
59, 0.00, 24282.33, 12370.86, 2706.30, -7372.83, 9430.40, 28569.73, 0.00, 0.000, 0.000, 0.000, 13:20:26.699
60, 0.00, 24275.42, 12363.29, 2789.03, -7595.37, 9431.72, 28591.26, 0.00, 0.000, 0.000, 0.000, 13:20:26.699
61, 0.00, 24275.51, 12363.15, 2838.02, -7189.06, 9437.80, 28605.94, 0.00, 0.000, 0.000, 0.000, 13:20:26.700
62, 0.00, 24281.41, 12369.16, 2784.31, -6768.80, 9442.34, 28592.22, 0.00, 0.000, 0.000, 0.000, 13:20:26.700
63, 0.00, 24284.70, 12371.27, 2708.00, -6864.38, 9441.73, 28569.95, 0.00, 0.000, 0.000, 0.000, 13:20:26.701
64, 0.00, 24282.96, 12369.83, 2703.69, -7372.77, 9434.20, 28570.09, 0.00, 0.000, 0.000, 0.000, 13:20:26.701
65, 0.00, 24275.87, 12365.34, 2785.68, -7589.27, 9429.64, 28591.08, 0.00, 0.000, 0.000, 0.000, 13:20:26.701
66, 0.00, 24274.87, 12365.57, 2837.20, -7187.29, 9438.18, 28605.52, 0.00, 0.000, 0.000, 0.000, 13:20:26.701
67, 0.00, 24277.19, 12369.52, 2780.04, -6779.60, 9443.19, 28588.51, 0.00, 0.000, 0.000, 0.000, 13:20:26.702
68, 0.00, 24281.01, 12377.03, 2700.67, -6884.69, 9440.68, 28566.00, 0.00, 0.026, -0.024, 0.992, 13:20:26.702
69, 0.00, 24278.22, 12371.71, 2703.24, -7373.13, 9429.40, 28565.89, 0.00, 0.000, 0.000, 0.000, 13:20:26.702
70, 0.00, 24271.80, 12358.86, 2785.85, -7565.60, 9427.59, 28588.91, 0.00, 0.000, 0.000, 0.000, 13:20:26.702
71, 0.00, 24274.02, 12363.15, 2836.26, -7165.28, 9437.71, 28605.18, 0.00, 0.000, 0.000, 0.000, 13:20:26.702
72, 0.00, 24280.05, 12372.56, 2782.81, -6773.94, 9442.90, 28591.70, 0.00, 0.000, 0.000, 0.000, 13:20:26.703
73, 0.00, 24281.79, 12375.80, 2710.51, -6890.17, 9439.39, 28567.96, 0.00, 0.000, 0.000, 0.000, 13:20:26.703
74, 0.00, 24279.54, 12371.82, 2714.91, -7375.78, 9433.87, 28568.12, 0.00, 0.000, 0.000, 0.000, 13:20:26.703
75, 0.00, 24273.66, 12366.66, 2801.39, -7559.65, 9432.39, 28591.10, 0.00, 0.000, 0.000, 0.000, 13:20:26.703
76, 0.00, 24271.74, 12365.23, 2848.19, -7155.22, 9438.56, 28604.17, 0.00, 0.000, 0.000, 0.000, 13:20:26.707
77, 0.00, 24277.21, 12372.34, 2787.62, -6780.83, 9443.86, 28590.41, 0.00, 0.000, 0.000, 0.000, 13:20:26.707
78, 0.00, 24277.93, 12375.24, 2710.04, -6908.52, 9436.91, 28564.72, 0.00, 0.032, -0.030, 1.000, 13:20:26.708
79, 0.00, 24274.29, 12371.47, 2712.63, -7388.88, 9426.76, 28564.61, 0.00, 0.000, 0.000, 0.000, 13:20:26.708
80, 0.00, 24271.40, 12367.85, 2806.24, -7551.92, 9428.90, 28590.92, 0.00, 0.000, 0.000, 0.000, 13:20:26.708
81, 0.00, 24273.84, 12369.88, 2855.97, -7143.19, 9439.79, 28606.34, 0.00, 0.000, 0.000, 0.000, 13:20:26.708
82, 0.00, 24278.62, 12373.84, 2795.15, -6774.41, 9445.91, 28590.70, 0.00, 0.000, 0.000, 0.000, 13:20:26.709
83, 0.00, 24282.55, 12379.02, 2716.23, -6898.17, 9441.38, 28568.84, 0.00, 0.000, 0.000, 0.000, 13:20:26.709
84, 0.00, 24280.61, 12380.14, 2720.18, -7368.19, 9430.69, 28570.65, 0.00, 0.000, 0.000, 0.000, 13:20:26.709
85, 0.00, 24272.68, 12373.01, 2802.66, -7530.66, 9426.20, 28592.98, 0.00, 0.000, 0.000, 0.000, 13:20:26.709
86, 0.00, 24271.31, 12371.00, 2844.89, -7131.66, 9436.75, 28605.29, 0.00, 0.000, 0.000, 0.000, 13:20:26.709
87, 0.00, 24278.44, 12375.51, 2780.89, -6780.49, 9445.82, 28591.01, 0.00, 0.000, 0.000, 0.000, 13:20:26.710
88, 0.00, 24283.74, 12383.18, 2707.38, -6911.79, 9441.02, 28569.51, 0.00, 0.032, -0.028, 0.996, 13:20:26.710
89, 0.00, 24277.95, 12380.70, 2715.51, -7377.08, 9432.12, 28568.10, 0.00, 0.000, 0.000, 0.000, 13:20:26.710
90, 0.00, 24273.12, 12373.79, 2800.70, -7531.33, 9428.41, 28592.82, 0.00, 0.000, 0.000, 0.000, 13:20:26.710
91, 0.00, 24276.07, 12379.04, 2844.35, -7138.63, 9441.67, 28608.55, 0.00, 0.000, 0.000, 0.000, 13:20:26.711
92, 0.00, 24282.15, 12385.39, 2784.02, -6788.36, 9447.17, 28592.93, 0.00, 0.000, 0.000, 0.000, 13:20:26.711
93, 0.00, 24284.30, 12384.56, 2710.19, -6926.25, 9444.08, 28569.24, 0.00, 0.000, 0.000, 0.000, 13:20:26.711
94, 0.00, 24280.21, 12378.42, 2720.63, -7382.80, 9434.74, 28569.39, 0.00, 0.000, 0.000, 0.000, 13:20:26.711
95, 0.00, 24276.65, 12375.40, 2810.37, -7523.69, 9432.12, 28594.99, 0.00, 0.000, 0.000, 0.000, 13:20:26.712
96, 0.00, 24278.91, 12380.94, 2858.32, -7129.02, 9442.85, 28610.34, 0.00, 0.000, 0.000, 0.000, 13:20:26.712
97, 0.00, 24283.11, 12380.25, 2795.38, -6792.96, 9453.02, 28593.45, 0.00, 0.000, 0.000, 0.000, 13:20:26.712
98, 0.00, 24287.00, 12385.57, 2718.73, -6936.44, 9447.32, 28570.65, 0.00, 0.028, -0.028, 0.990, 13:20:26.712
99, 0.00, 24284.61, 12385.30, 2724.43, -7392.12, 9437.87, 28572.21, 0.00, 0.000, 0.000, 0.000, 13:20:26.712
100, 0.00, 24276.56, 12376.92, 2808.99, -7520.87, 9429.73, 28593.11, 0.00, 0.000, 0.000, 0.000, 13:20:26.713
101, 0.00, 24275.65, 12376.72, 2842.54, -7135.59, 9438.87, 28606.01, 0.00, 0.000, 0.000, 0.000, 13:20:26.713
102, 0.00, 24283.76, 12383.27, 2779.26, -6807.80, 9449.56, 28592.62, 0.00, 0.000, 0.000, 0.000, 13:20:26.713
103, 0.00, 24286.53, 12385.15, 2706.01, -6951.30, 9442.00, 28569.42, 0.00, 0.000, 0.000, 0.000, 13:20:26.713
104, 0.00, 24282.55, 12382.44, 2712.50, -7401.60, 9432.01, 28571.47, 0.00, 0.000, 0.000, 0.000, 13:20:26.714
105, 0.00, 24275.87, 12377.01, 2800.79, -7530.21, 9430.60, 28593.89, 0.00, 0.000, 0.000, 0.000, 13:20:26.714
106, 0.00, 24277.03, 12378.78, 2845.06, -7139.57, 9438.94, 28607.51, 0.00, 0.000, 0.000, 0.000, 13:20:26.715
107, 0.00, 24280.83, 12385.15, 2786.23, -6819.65, 9444.04, 28589.67, 0.00, 0.000, 0.000, 0.000, 13:20:26.715
108, 0.00, 24282.13, 12388.83, 2716.36, -6969.12, 9438.99, 28564.54, 0.00, 0.028, -0.034, 0.992, 13:20:26.715
109, 0.00, 24276.70, 12384.81, 2718.37, -7415.39, 9426.20, 28564.54, 0.00, 0.000, 0.000, 0.000, 13:20:26.715
110, 0.00, 24271.15, 12376.41, 2802.44, -7534.26, 9425.04, 28588.57, 0.00, 0.000, 0.000, 0.000, 13:20:26.716
111, 0.00, 24269.99, 12373.39, 2836.84, -7142.48, 9433.91, 28600.49, 0.00, 0.000, 0.000, 0.000, 13:20:26.716
112, 0.00, 24276.23, 12379.58, 2769.81, -6829.82, 9443.54, 28585.53, 0.00, 0.000, 0.000, 0.000, 13:20:26.716
113, 0.00, 24281.39, 12388.54, 2706.46, -6977.77, 9444.71, 28566.22, 0.00, 0.000, 0.000, 0.000, 13:20:26.716
114, 0.00, 24278.15, 12383.33, 2715.83, -7411.70, 9435.61, 28569.13, 0.00, 0.000, 0.000, 0.000, 13:20:26.717
115, 0.00, 24271.31, 12381.06, 2804.16, -7513.56, 9436.37, 28592.89, 0.00, 0.000, 0.000, 0.000, 13:20:26.717
116, 0.00, 24269.28, 12382.60, 2847.03, -7117.29, 9444.46, 28603.15, 0.00, 0.000, 0.000, 0.000, 13:20:26.717
117, 0.00, 24274.17, 12387.36, 2781.47, -6807.94, 9450.12, 28585.71, 0.00, 0.000, 0.000, 0.000, 13:20:26.717
118, 0.00, 24276.54, 12386.02, 2702.82, -6971.37, 9442.92, 28561.42, 0.00, 0.028, -0.038, 0.992, 13:20:26.718
119, 0.00, 24273.28, 12385.01, 2707.09, -7405.40, 9429.28, 28563.36, 0.00, 0.000, 0.000, 0.000, 13:20:26.718
120, 0.00, 24269.99, 12383.85, 2799.58, -7503.37, 9432.35, 28589.36, 0.00, 0.000, 0.000, 0.000, 13:20:26.718
121, 0.00, 24269.95, 12380.74, 2839.07, -7114.72, 9441.73, 28601.13, 0.00, 0.000, 0.000, 0.000, 13:20:27.164
122, 0.00, 24275.38, 12385.03, 2769.09, -6813.50, 9447.17, 28583.88, 0.00, 0.000, 0.000, 0.000, 13:20:27.164
123, 0.00, 24279.78, 12389.42, 2694.19, -6974.55, 9442.14, 28563.05, 0.00, 0.000, 0.000, 0.000, 13:20:27.164
124, 0.00, 24277.46, 12385.24, 2705.28, -7404.28, 9432.28, 28567.27, 0.00, 0.000, 0.000, 0.000, 13:20:27.164
125, 0.00, 24268.72, 12375.67, 2788.00, -7500.13, 9428.90, 28589.60, 0.00, 0.000, 0.000, 0.000, 13:20:27.165
126, 0.00, 24273.79, 12381.82, 2825.46, -7114.11, 9439.50, 28605.49, 0.00, 0.000, 0.000, 0.000, 13:20:27.165
127, 0.00, 24279.27, 12385.39, 2765.51, -6821.06, 9443.28, 28588.62, 0.00, 0.028, -0.030, 0.994, 13:20:27.165
128, 0.00, 24279.85, 12388.25, 2699.46, -6985.79, 9436.37, 28563.79, 0.00, 0.000, 0.000, 0.000, 13:20:27.166
129, 0.00, 24279.22, 12389.33, 2715.47, -7418.66, 9431.52, 28567.54, 0.00, 0.000, 0.000, 0.000, 13:20:27.166
130, 0.00, 24269.88, 12377.50, 2803.38, -7517.32, 9428.32, 28587.54, 0.00, 0.000, 0.000, 0.000, 13:20:27.166
131, 0.00, 24269.10, 12376.43, 2836.35, -7139.88, 9432.77, 28598.81, 0.00, 0.000, 0.000, 0.000, 13:20:27.167
132, 0.00, 24277.59, 12382.67, 2774.88, -6844.64, 9444.13, 28585.31, 0.00, 0.000, 0.000, 0.000, 13:20:27.167
133, 0.00, 24279.98, 12387.67, 2705.30, -7002.76, 9439.99, 28563.70, 0.00, 0.000, 0.000, 0.000, 13:20:27.167
134, 0.00, 24276.21, 12386.98, 2722.64, -7415.97, 9429.11, 28566.85, 0.00, 0.000, 0.000, 0.000, 13:20:27.167
135, 0.00, 24271.18, 12380.12, 2810.49, -7496.13, 9427.29, 28590.72, 0.00, 0.000, 0.000, 0.000, 13:20:27.167
136, 0.00, 24273.90, 12383.83, 2847.25, -7112.91, 9442.07, 28603.55, 0.00, 0.000, 0.000, 0.000, 13:20:27.168
137, 0.00, 24276.09, 12385.53, 2782.57, -6829.78, 9442.65, 28584.88, 0.00, 0.026, -0.032, 0.990, 13:20:27.168
138, 0.00, 24277.41, 12388.97, 2709.12, -7005.30, 9437.08, 28561.75, 0.00, 0.000, 0.000, 0.000, 13:20:27.168
139, 0.00, 24273.32, 12383.72, 2719.38, -7424.15, 9428.32, 28562.96, 0.00, 0.000, 0.000, 0.000, 13:20:27.168
140, 0.00, 24270.87, 12381.59, 2808.34, -7506.01, 9430.56, 28589.15, 0.00, 0.000, 0.000, 0.000, 13:20:27.169
141, 0.00, 24271.00, 12380.88, 2844.17, -7121.24, 9437.71, 28600.71, 0.00, 0.000, 0.000, 0.000, 13:20:27.169
142, 0.00, 24279.13, 12388.72, 2780.24, -6840.37, 9444.48, 28586.09, 0.00, 0.000, 0.000, 0.000, 13:20:27.169
143, 0.00, 24281.06, 12391.74, 2712.05, -7009.91, 9440.68, 28563.67, 0.00, 0.000, 0.000, 0.000, 13:20:27.169
144, 0.00, 24273.03, 12384.05, 2722.58, -7428.13, 9429.75, 28562.91, 0.00, 0.000, 0.000, 0.000, 13:20:27.169
145, 0.00, 24266.75, 12379.87, 2808.45, -7510.48, 9427.05, 28586.79, 0.00, 0.000, 0.000, 0.000, 13:20:27.170
146, 0.00, 24269.57, 12380.83, 2845.96, -7123.72, 9438.34, 28599.82, 0.00, 0.000, 0.000, 0.000, 13:20:27.170
147, 0.00, 24276.70, 12388.92, 2785.12, -6845.31, 9441.49, 28583.90, 0.00, 0.026, -0.028, 0.996, 13:20:27.170
148, 0.00, 24276.92, 12392.43, 2720.68, -7022.00, 9438.31, 28559.92, 0.00, 0.000, 0.000, 0.000, 13:20:27.170
149, 0.00, 24272.94, 12388.48, 2729.68, -7437.79, 9427.81, 28563.09, 0.00, 0.000, 0.000, 0.000, 13:20:27.171
150, 0.00, 24265.37, 12382.51, 2817.84, -7511.59, 9427.09, 28585.27, 0.00, 0.000, 0.000, 0.000, 13:20:27.171
151, 0.00, 24266.66, 12381.03, 2851.41, -7126.67, 9433.73, 28596.93, 0.00, 0.000, 0.000, 0.000, 13:20:27.171
152, 0.00, 24272.70, 12384.68, 2783.71, -6855.82, 9443.39, 28578.76, 0.00, 0.000, 0.000, 0.000, 13:20:27.172
153, 0.00, 24277.28, 12392.10, 2723.72, -7024.33, 9440.88, 28558.91, 0.00, 0.000, 0.000, 0.000, 13:20:27.172
154, 0.00, 24274.51, 12389.88, 2739.85, -7437.43, 9431.72, 28562.69, 0.00, 0.000, 0.000, 0.000, 13:20:27.173
155, 0.00, 24268.41, 12385.97, 2830.83, -7502.18, 9429.06, 28587.48, 0.00, 0.000, 0.000, 0.000, 13:20:27.173
156, 0.00, 24268.72, 12388.07, 2860.11, -7122.54, 9433.64, 28599.06, 0.00, 0.000, 0.000, 0.000, 13:20:27.173
157, 0.00, 24274.84, 12392.99, 2793.32, -6853.02, 9440.44, 28581.67, 0.00, 0.024, -0.028, 0.992, 13:20:27.173
158, 0.00, 24275.29, 12392.66, 2721.46, -7033.51, 9435.32, 28557.77, 0.00, 0.000, 0.000, 0.000, 13:20:27.173
159, 0.00, 24272.76, 12394.11, 2740.30, -7438.95, 9430.07, 28562.82, 0.00, 0.000, 0.000, 0.000, 13:20:27.174
160, 0.00, 24267.94, 12391.00, 2832.57, -7498.36, 9429.96, 28588.64, 0.00, 0.000, 0.000, 0.000, 13:20:27.174
161, 0.00, 24266.89, 12390.93, 2860.22, -7124.66, 9434.67, 28596.84, 0.00, 0.000, 0.000, 0.000, 13:20:27.174
162, 0.00, 24276.25, 12398.65, 2800.94, -6847.86, 9442.90, 28582.45, 0.00, 0.000, 0.000, 0.000, 13:20:27.174
163, 0.00, 24278.82, 12397.42, 2729.89, -7023.52, 9439.30, 28560.86, 0.00, 0.000, 0.000, 0.000, 13:20:27.175
164, 0.00, 24275.65, 12395.67, 2745.53, -7433.23, 9428.32, 28564.66, 0.00, 0.000, 0.000, 0.000, 13:20:27.175
165, 0.00, 24269.08, 12389.88, 2832.17, -7497.31, 9425.19, 28587.10, 0.00, 0.000, 0.000, 0.000, 13:20:27.175
166, 0.00, 24271.94, 12389.21, 2859.06, -7120.48, 9435.92, 28599.53, 0.00, 0.000, 0.000, 0.000, 13:20:27.175
167, 0.00, 24276.94, 12395.92, 2795.06, -6850.79, 9441.91, 28582.07, 0.00, 0.028, -0.032, 0.988, 13:20:27.176
168, 0.00, 24277.08, 12400.72, 2731.54, -7027.86, 9437.71, 28558.22, 0.00, 0.000, 0.000, 0.000, 13:20:27.176
169, 0.00, 24275.25, 12400.34, 2747.14, -7433.77, 9431.39, 28565.35, 0.00, 0.000, 0.000, 0.000, 13:20:27.176
170, 0.00, 24267.73, 12390.89, 2829.86, -7494.79, 9429.55, 28587.52, 0.00, 0.000, 0.000, 0.000, 13:20:27.176
171, 0.00, 24267.80, 12388.99, 2850.94, -7125.78, 9433.75, 28596.46, 0.00, 0.000, 0.000, 0.000, 13:20:27.176
172, 0.00, 24272.32, 12397.24, 2786.66, -6861.74, 9442.96, 28578.80, 0.00, 0.000, 0.000, 0.000, 13:20:27.177
173, 0.00, 24276.29, 12398.94, 2722.87, -7034.41, 9437.51, 28556.68, 0.00, 0.000, 0.000, 0.000, 13:20:27.177
174, 0.00, 24276.14, 12396.90, 2737.06, -7442.19, 9430.56, 28563.99, 0.00, 0.000, 0.000, 0.000, 13:20:27.177
175, 0.00, 24268.32, 12390.76, 2825.26, -7496.86, 9428.26, 28586.20, 0.00, 0.000, 0.000, 0.000, 13:20:27.177
176, 0.00, 24271.89, 12393.10, 2850.74, -7122.99, 9435.50, 28599.12, 0.00, 0.000, 0.000, 0.000, 13:20:27.178
177, 0.00, 24278.42, 12398.69, 2778.39, -6865.85, 9441.20, 28581.91, 0.00, 0.026, -0.034, 0.990, 13:20:27.178
178, 0.00, 24280.99, 12401.04, 2705.66, -7049.94, 9435.61, 28561.17, 0.00, 0.000, 0.000, 0.000, 13:20:27.178
179, 0.00, 24278.67, 12397.82, 2718.60, -7457.97, 9425.42, 28566.38, 0.00, 0.000, 0.000, 0.000, 13:20:27.179
180, 0.00, 24274.53, 12397.15, 2811.80, -7504.31, 9428.75, 28592.53, 0.00, 0.000, 0.000, 0.000, 13:20:27.179
181, 0.00, 24273.50, 12395.65, 2836.66, -7129.22, 9436.95, 28601.92, 0.00, 0.000, 0.000, 0.000, 13:20:27.179
182, 0.00, 24278.22, 12401.11, 2772.47, -6866.99, 9440.50, 28582.49, 0.00, 0.000, 0.000, 0.000, 13:20:27.180
183, 0.00, 24281.15, 12402.09, 2704.72, -7047.64, 9436.35, 28560.81, 0.00, 0.000, 0.000, 0.000, 13:20:27.181
184, 0.00, 24277.44, 12398.09, 2719.38, -7450.91, 9424.03, 28565.71, 0.00, 0.000, 0.000, 0.000, 13:20:27.181
185, 0.00, 24271.51, 12389.86, 2809.50, -7493.67, 9422.29, 28588.53, 0.00, 0.000, 0.000, 0.000, 13:20:27.181
186, 0.00, 24274.22, 12394.69, 2834.69, -7121.76, 9433.84, 28600.60, 0.00, 0.000, 0.000, 0.000, 13:20:27.182
187, 0.00, 24277.26, 12401.53, 2773.61, -6866.19, 9436.97, 28581.13, 0.00, 0.036, -0.034, 0.996, 13:20:27.182
188, 0.00, 24279.98, 12403.97, 2708.45, -7051.80, 9434.18, 28559.38, 0.00, 0.000, 0.000, 0.000, 13:20:27.182
189, 0.00, 24277.03, 12403.74, 2724.36, -7460.72, 9426.09, 28564.70, 0.00, 0.000, 0.000, 0.000, 13:20:27.183
190, 0.00, 24269.66, 12395.14, 2820.48, -7495.32, 9423.25, 28587.48, 0.00, 0.000, 0.000, 0.000, 13:20:27.183
191, 0.00, 24272.21, 12392.79, 2846.29, -7115.01, 9435.45, 28599.57, 0.00, 0.000, 0.000, 0.000, 13:20:27.183
192, 0.00, 24279.16, 12402.16, 2781.59, -6864.85, 9443.37, 28583.39, 0.00, 0.000, 0.000, 0.000, 13:20:27.183
193, 0.00, 24281.10, 12406.25, 2720.01, -7054.77, 9437.35, 28560.90, 0.00, 0.000, 0.000, 0.000, 13:20:27.184
194, 0.00, 24278.04, 12408.10, 2742.76, -7451.89, 9433.20, 28566.33, 0.00, 0.000, 0.000, 0.000, 13:20:27.184
195, 0.00, 24269.93, 12399.70, 2831.00, -7488.39, 9430.16, 28586.23, 0.00, 0.000, 0.000, 0.000, 13:20:27.184
196, 0.00, 24270.37, 12397.08, 2852.44, -7112.41, 9435.97, 28595.26, 0.00, 0.000, 0.000, 0.000, 13:20:27.184
197, 0.00, 24275.76, 12404.48, 2786.57, -6863.04, 9442.90, 28578.29, 0.00, 0.032, -0.028, 0.990, 13:20:27.185
198, 0.00, 24278.60, 12411.12, 2725.66, -7052.18, 9439.39, 28557.79, 0.00, 0.000, 0.000, 0.000, 13:20:27.185
199, 0.00, 24274.57, 12408.01, 2746.00, -7452.61, 9426.60, 28562.53, 0.00, 0.000, 0.000, 0.000, 13:20:27.185
200, 0.00, 24271.00, 12401.78, 2835.90, -7486.05, 9429.55, 28588.75, 0.00, 0.000, 0.000, 0.000, 13:20:27.186
201, 0.00, 24272.05, 12405.08, 2865.09, -7100.63, 9439.52, 28599.95, 0.00, 0.000, 0.000, 0.000, 13:20:27.186
202, 0.00, 24277.64, 12411.68, 2799.06, -6852.08, 9447.48, 28582.05, 0.00, 0.000, 0.000, 0.000, 13:20:27.187
203, 0.00, 24278.69, 12410.22, 2729.71, -7050.81, 9436.26, 28559.18, 0.00, 0.000, 0.000, 0.000, 13:20:27.187
204, 0.00, 24274.29, 12404.37, 2742.83, -7451.76, 9426.38, 28564.48, 0.00, 0.000, 0.000, 0.000, 13:20:27.187
205, 0.00, 24271.56, 12404.75, 2831.09, -7481.46, 9428.48, 28589.85, 0.00, 0.000, 0.000, 0.000, 13:20:27.188
206, 0.00, 24272.74, 12405.08, 2855.97, -7104.77, 9439.57, 28599.62, 0.00, 0.000, 0.000, 0.000, 13:20:27.188
207, 0.00, 24281.15, 12416.30, 2796.27, -6860.06, 9445.74, 28583.28, 0.00, 0.030, -0.032, 0.990, 13:20:27.188
208, 0.00, 24281.37, 12416.17, 2729.06, -7059.98, 9440.28, 28558.96, 0.00, 0.000, 0.000, 0.000, 13:20:27.189
209, 0.00, 24276.27, 12408.77, 2742.09, -7456.74, 9432.19, 28564.05, 0.00, 0.000, 0.000, 0.000, 13:20:27.189
210, 0.00, 24272.16, 12404.97, 2831.03, -7481.40, 9430.42, 28589.47, 0.00, 0.000, 0.000, 0.000, 13:20:27.189
211, 0.00, 24274.20, 12409.00, 2856.51, -7104.41, 9439.90, 28599.39, 0.00, 0.000, 0.000, 0.000, 13:20:27.189
212, 0.00, 24281.24, 12415.30, 2789.03, -6862.95, 9445.27, 28583.25, 0.00, 0.000, 0.000, 0.000, 13:20:27.191
213, 0.00, 24282.91, 12415.75, 2722.38, -7059.17, 9439.68, 28562.31, 0.00, 0.000, 0.000, 0.000, 13:20:27.191
214, 0.00, 24277.77, 12412.95, 2739.25, -7451.80, 9432.01, 28566.38, 0.00, 0.000, 0.000, 0.000, 13:20:27.192
215, 0.00, 24269.81, 12404.10, 2824.50, -7473.53, 9427.88, 28588.91, 0.00, 0.000, 0.000, 0.000, 13:20:27.192
216, 0.00, 24272.21, 12406.76, 2846.38, -7097.48, 9432.95, 28597.94, 0.00, 0.000, 0.000, 0.000, 13:20:27.192
217, 0.00, 24277.39, 12409.98, 2783.86, -6858.03, 9440.37, 28578.00, 0.00, 0.032, -0.036, 0.992, 13:20:27.192
218, 0.00, 24279.98, 12412.57, 2718.24, -7062.26, 9435.88, 28559.14, 0.00, 0.000, 0.000, 0.000, 13:20:27.192
219, 0.00, 24274.51, 12410.65, 2734.24, -7460.01, 9426.36, 28563.65, 0.00, 0.000, 0.000, 0.000, 13:20:27.193
220, 0.00, 24270.04, 12408.91, 2829.78, -7474.83, 9426.45, 28588.04, 0.00, 0.000, 0.000, 0.000, 13:20:27.193
221, 0.00, 24270.51, 12408.82, 2855.50, -7093.86, 9436.53, 28597.29, 0.00, 0.000, 0.000, 0.000, 13:20:27.193
222, 0.00, 24277.10, 12414.99, 2787.69, -6862.14, 9439.39, 28578.27, 0.00, 0.000, 0.000, 0.000, 13:20:27.193
223, 0.00, 24280.50, 12418.79, 2719.56, -7069.61, 9437.49, 28559.34, 0.00, 0.000, 0.000, 0.000, 13:20:27.194
224, 0.00, 24275.60, 12413.67, 2737.82, -7461.62, 9430.00, 28565.71, 0.00, 0.000, 0.000, 0.000, 13:20:27.194
225, 0.00, 24270.37, 12404.84, 2825.04, -7474.04, 9427.99, 28589.47, 0.00, 0.000, 0.000, 0.000, 13:20:27.194
226, 0.00, 24273.30, 12410.49, 2849.91, -7096.43, 9435.88, 28600.04, 0.00, 0.000, 0.000, 0.000, 13:20:27.194
227, 0.00, 24280.16, 12416.71, 2780.07, -6870.48, 9441.80, 28582.00, 0.00, 0.028, -0.036, 0.988, 13:20:27.195
228, 0.00, 24282.04, 12421.89, 2717.15, -7081.21, 9435.52, 28560.23, 0.00, 0.000, 0.000, 0.000, 13:20:27.195
229, 0.00, 24273.88, 12414.87, 2733.48, -7473.02, 9421.35, 28561.71, 0.00, 0.000, 0.000, 0.000, 13:20:27.195
230, 0.00, 24268.81, 12408.97, 2821.97, -7479.56, 9420.32, 28586.34, 0.00, 0.000, 0.000, 0.000, 13:20:27.195
231, 0.00, 24271.85, 12412.79, 2840.86, -7100.63, 9434.04, 28597.29, 0.00, 0.000, 0.000, 0.000, 13:20:27.196
232, 0.00, 24280.23, 12424.02, 2778.14, -6865.56, 9444.75, 28582.56, 0.00, 0.000, 0.000, 0.000, 13:20:27.196
233, 0.00, 24281.57, 12426.14, 2708.54, -7081.99, 9441.64, 28562.29, 0.00, 0.000, 0.000, 0.000, 13:20:27.196
234, 0.00, 24277.73, 12421.15, 2723.31, -7473.98, 9432.70, 28569.04, 0.00, 0.000, 0.000, 0.000, 13:20:27.197
235, 0.00, 24271.29, 12414.63, 2809.52, -7478.36, 9430.49, 28592.64, 0.00, 0.000, 0.000, 0.000, 13:20:27.197
236, 0.00, 24273.95, 12420.51, 2832.39, -7095.76, 9436.77, 28602.05, 0.00, 0.000, 0.000, 0.000, 13:20:27.197
237, 0.00, 24279.04, 12425.07, 2759.64, -6873.25, 9440.10, 28582.27, 0.00, 0.034, -0.036, 0.994, 13:20:27.197
238, 0.00, 24279.67, 12424.06, 2689.45, -7095.92, 9430.42, 28560.19, 0.00, 0.000, 0.000, 0.000, 13:20:27.197
239, 0.00, 24277.88, 12418.94, 2706.86, -7485.76, 9424.08, 28568.63, 0.00, 0.000, 0.000, 0.000, 13:20:27.198
240, 0.00, 24271.15, 12410.85, 2796.11, -7483.05, 9421.60, 28590.88, 0.00, 0.000, 0.000, 0.000, 13:20:27.198
241, 0.00, 24274.84, 12415.81, 2818.06, -7103.25, 9432.19, 28599.30, 0.00, 0.000, 0.000, 0.000, 13:20:27.198
242, 0.00, 24282.02, 12427.35, 2754.43, -6873.41, 9440.48, 28581.71, 0.00, 0.000, 0.000, 0.000, 13:20:27.646
243, 0.00, 24280.88, 12428.08, 2695.78, -7092.07, 9435.61, 28560.86, 0.00, 0.000, 0.000, 0.000, 13:20:27.646
244, 0.00, 24277.82, 12424.28, 2718.62, -7482.38, 9426.69, 28568.12, 0.00, 0.000, 0.000, 0.000, 13:20:27.646
245, 0.00, 24272.83, 12418.65, 2811.51, -7473.95, 9426.56, 28591.93, 0.00, 0.000, 0.000, 0.000, 13:20:27.646
246, 0.00, 24272.25, 12420.89, 2828.05, -7096.01, 9434.58, 28598.43, 0.00, 0.000, 0.000, 0.000, 13:20:27.647
247, 0.00, 24278.64, 12428.15, 2761.60, -6877.83, 9441.80, 28579.52, 0.00, 0.034, -0.038, 0.996, 13:20:27.647
248, 0.00, 24281.12, 12430.68, 2702.75, -7095.31, 9434.92, 28560.28, 0.00, 0.000, 0.000, 0.000, 13:20:27.647
249, 0.00, 24277.10, 12428.02, 2718.40, -7491.05, 9423.81, 28566.56, 0.00, 0.000, 0.000, 0.000, 13:20:27.647
250, 0.00, 24269.97, 12417.71, 2806.62, -7479.61, 9419.49, 28589.24, 0.00, 0.000, 0.000, 0.000, 13:20:27.647
251, 0.00, 24275.13, 12423.17, 2825.62, -7095.70, 9431.30, 28600.15, 0.00, 0.000, 0.000, 0.000, 13:20:27.647
252, 0.00, 24278.11, 12430.30, 2759.50, -6883.69, 9439.23, 28578.34, 0.00, 0.000, 0.000, 0.000, 13:20:27.648
253, 0.00, 24281.17, 12433.60, 2698.21, -7107.72, 9435.77, 28560.14, 0.00, 0.000, 0.000, 0.000, 13:20:27.649
254, 0.00, 24279.94, 12431.50, 2718.37, -7496.86, 9428.64, 28569.87, 0.00, 0.000, 0.000, 0.000, 13:20:27.649
255, 0.00, 24273.19, 12424.95, 2808.36, -7483.48, 9427.52, 28592.71, 0.00, 0.000, 0.000, 0.000, 13:20:27.649
0, 0.00, 24275.47, 12430.10, 2828.70, -7098.31, 9438.29, 28601.43, 0.00, 0.000, 0.000, 0.000, 13:20:27.649
1, 0.00, 24280.50, 12436.60, 2757.96, -6887.87, 9441.42, 28581.93, 0.00, 0.034, -0.030, 0.994, 13:20:27.649
2, 0.00, 24278.04, 12434.57, 2693.41, -7113.69, 9433.55, 28558.46, 0.00, 0.000, 0.000, 0.000, 13:20:27.649
3, 0.00, 24273.90, 12429.31, 2718.11, -7498.16, 9424.12, 28565.89, 0.00, 0.000, 0.000, 0.000, 13:20:27.650
4, 0.00, 24270.53, 12424.91, 2811.20, -7478.98, 9423.92, 28592.15, 0.00, 0.000, 0.000, 0.000, 13:20:27.650
5, 0.00, 24274.73, 12430.94, 2833.84, -7095.40, 9433.87, 28601.36, 0.00, 0.000, 0.000, 0.000, 13:20:27.650
6, 0.00, 24281.21, 12435.62, 2762.92, -6887.29, 9438.83, 28582.00, 0.00, 0.000, 0.000, 0.000, 13:20:27.650
7, 0.00, 24283.20, 12437.07, 2700.09, -7109.06, 9435.32, 28562.29, 0.00, 0.000, 0.000, 0.000, 13:20:27.650
8, 0.00, 24276.90, 12434.21, 2722.31, -7490.99, 9423.85, 28567.43, 0.00, 0.000, 0.000, 0.000, 13:20:27.650
9, 0.00, 24271.74, 12428.44, 2813.73, -7465.57, 9424.34, 28591.26, 0.00, 0.000, 0.000, 0.000, 13:20:27.650
10, 0.00, 24275.60, 12430.63, 2828.10, -7086.35, 9434.02, 28600.80, 0.00, 0.000, 0.000, 0.000, 13:20:27.651
11, 0.00, 24280.21, 12438.39, 2756.15, -6878.95, 9439.77, 28581.38, 0.00, 0.030, -0.030, 0.992, 13:20:27.651
12, 0.00, 24281.68, 12441.00, 2693.81, -7104.77, 9434.89, 28562.67, 0.00, 0.000, 0.000, 0.000, 13:20:27.651
13, 0.00, 24277.19, 12432.98, 2713.12, -7485.08, 9426.13, 28567.79, 0.00, 0.000, 0.000, 0.000, 13:20:27.651
14, 0.00, 24269.84, 12428.31, 2805.66, -7457.35, 9423.81, 28589.53, 0.00, 0.000, 0.000, 0.000, 13:20:27.652
15, 0.00, 24272.34, 12431.55, 2822.42, -7077.68, 9433.84, 28596.17, 0.00, 0.000, 0.000, 0.000, 13:20:27.652
16, 0.00, 24280.61, 12441.74, 2755.43, -6875.20, 9442.43, 28577.93, 0.00, 0.000, 0.000, 0.000, 13:20:27.653
17, 0.00, 24281.39, 12446.86, 2698.91, -7102.24, 9438.20, 28559.27, 0.00, 0.000, 0.000, 0.000, 13:20:27.653
18, 0.00, 24275.69, 12440.00, 2722.17, -7482.49, 9427.85, 28566.94, 0.00, 0.000, 0.000, 0.000, 13:20:27.653
19, 0.00, 24269.84, 12430.56, 2815.02, -7450.93, 9422.09, 28589.29, 0.00, 0.000, 0.000, 0.000, 13:20:27.653
20, 0.00, 24272.21, 12432.35, 2832.10, -7071.15, 9426.76, 28596.20, 0.00, 0.000, 0.000, 0.000, 13:20:27.654
21, 0.00, 24279.31, 12438.70, 2763.95, -6875.53, 9435.97, 28577.80, 0.00, 0.030, -0.032, 0.992, 13:20:27.655
22, 0.00, 24280.12, 12441.52, 2703.31, -7105.71, 9431.39, 28556.52, 0.00, 0.000, 0.000, 0.000, 13:20:27.655
23, 0.00, 24275.27, 12435.24, 2728.23, -7476.73, 9421.95, 28562.38, 0.00, 0.000, 0.000, 0.000, 13:20:27.655
24, 0.00, 24272.09, 12432.11, 2816.14, -7450.08, 9423.94, 28587.84, 0.00, 0.000, 0.000, 0.000, 13:20:27.655
25, 0.00, 24273.21, 12431.95, 2828.37, -7073.28, 9432.64, 28595.90, 0.00, 0.000, 0.000, 0.000, 13:20:27.655
26, 0.00, 24279.71, 12442.25, 2763.46, -6869.18, 9438.87, 28577.51, 0.00, 0.000, 0.000, 0.000, 13:20:27.656
27, 0.00, 24281.66, 12443.10, 2703.94, -7101.46, 9430.00, 28558.13, 0.00, 0.000, 0.000, 0.000, 13:20:27.656
28, 0.00, 24275.74, 12436.87, 2726.67, -7478.63, 9422.58, 28565.82, 0.00, 0.000, 0.000, 0.000, 13:20:27.656
29, 0.00, 24272.23, 12438.43, 2828.70, -7441.25, 9428.10, 28592.78, 0.00, 0.000, 0.000, 0.000, 13:20:27.656
30, 0.00, 24272.63, 12439.26, 2845.18, -7066.30, 9433.40, 28597.45, 0.00, 0.000, 0.000, 0.000, 13:20:27.656
31, 0.00, 24276.07, 12442.28, 2773.78, -6871.06, 9435.52, 28574.76, 0.00, 0.032, -0.032, 0.998, 13:20:27.656
32, 0.00, 24279.11, 12444.36, 2716.65, -7100.61, 9432.08, 28558.02, 0.00, 0.000, 0.000, 0.000, 13:20:27.656
33, 0.00, 24274.33, 12438.70, 2740.88, -7474.58, 9424.86, 28565.53, 0.00, 0.000, 0.000, 0.000, 13:20:27.656
34, 0.00, 24270.57, 12437.61, 2832.59, -7438.82, 9425.91, 28591.14, 0.00, 0.000, 0.000, 0.000, 13:20:27.657
35, 0.00, 24273.97, 12442.97, 2848.73, -7058.86, 9437.33, 28599.82, 0.00, 0.000, 0.000, 0.000, 13:20:27.657
36, 0.00, 24275.65, 12447.55, 2772.42, -6864.02, 9435.77, 28575.45, 0.00, 0.000, 0.000, 0.000, 13:20:27.657
37, 0.00, 24277.17, 12449.00, 2709.93, -7103.56, 9429.46, 28556.10, 0.00, 0.000, 0.000, 0.000, 13:20:27.657
38, 0.00, 24274.29, 12444.62, 2732.50, -7480.88, 9423.83, 28565.44, 0.00, 0.000, 0.000, 0.000, 13:20:27.658
39, 0.00, 24266.30, 12438.59, 2822.89, -7437.70, 9421.68, 28587.66, 0.00, 0.000, 0.000, 0.000, 13:20:27.658
40, 0.00, 24269.95, 12443.06, 2833.49, -7061.30, 9429.96, 28594.59, 0.00, 0.000, 0.000, 0.000, 13:20:27.658
41, 0.00, 24273.68, 12444.58, 2759.84, -6871.73, 9433.08, 28571.85, 0.00, 0.032, -0.028, 0.994, 13:20:27.658
42, 0.00, 24274.98, 12443.35, 2698.41, -7107.23, 9427.97, 28553.21, 0.00, 0.000, 0.000, 0.000, 13:20:27.658
43, 0.00, 24271.74, 12443.13, 2722.15, -7480.70, 9423.41, 28563.61, 0.00, 0.000, 0.000, 0.000, 13:20:27.659
44, 0.00, 24268.67, 12443.66, 2816.27, -7437.83, 9426.96, 28589.62, 0.00, 0.000, 0.000, 0.000, 13:20:27.659
45, 0.00, 24272.34, 12442.99, 2826.74, -7057.61, 9429.40, 28596.78, 0.00, 0.000, 0.000, 0.000, 13:20:27.659
46, 0.00, 24274.62, 12444.33, 2747.74, -6865.16, 9430.07, 28572.59, 0.00, 0.000, 0.000, 0.000, 13:20:27.663
47, 0.00, 24276.77, 12449.83, 2687.60, -7103.70, 9430.11, 28555.34, 0.00, 0.000, 0.000, 0.000, 13:20:27.663
48, 0.00, 24273.84, 12450.99, 2715.96, -7488.04, 9421.68, 28565.10, 0.00, 0.000, 0.000, 0.000, 13:20:27.663
49, 0.00, 24269.81, 12450.01, 2814.62, -7446.28, 9426.49, 28589.58, 0.00, 0.000, 0.000, 0.000, 13:20:27.664
50, 0.00, 24271.87, 12448.40, 2829.37, -7052.51, 9434.72, 28595.77, 0.00, 0.000, 0.000, 0.000, 13:20:27.664
51, 0.00, 24278.11, 12453.50, 2763.66, -6836.73, 9434.85, 28575.99, 0.00, 0.030, -0.032, 0.992, 13:20:27.665
52, 0.00, 24276.94, 12455.87, 2693.68, -7089.01, 9425.53, 28554.51, 0.00, 0.000, 0.000, 0.000, 13:20:27.665
53, 0.00, 24273.66, 12449.50, 2702.95, -7497.98, 9416.48, 28562.47, 0.00, 0.000, 0.000, 0.000, 13:20:27.665
54, 0.00, 24268.88, 12448.98, 2791.53, -7464.63, 9416.54, 28586.79, 0.00, 0.000, 0.000, 0.000, 13:20:27.665
55, 0.00, 24269.93, 12451.49, 2822.33, -7055.51, 9426.54, 28592.28, 0.00, 0.000, 0.000, 0.000, 13:20:27.666
56, 0.00, 24276.99, 12455.87, 2760.84, -6829.96, 9437.78, 28573.55, 0.00, 0.000, 0.000, 0.000, 13:20:27.666
57, 0.00, 24276.65, 12454.70, 2686.66, -7089.44, 9424.68, 28552.25, 0.00, 0.000, 0.000, 0.000, 13:20:27.667
58, 0.00, 24273.46, 12450.90, 2697.21, -7508.04, 9418.80, 28561.26, 0.00, 0.000, 0.000, 0.000, 13:20:27.667
59, 0.00, 24269.21, 12447.66, 2793.97, -7468.50, 9427.03, 28588.10, 0.00, 0.000, 0.000, 0.000, 13:20:27.667
60, 0.00, 24268.58, 12449.27, 2819.58, -7045.92, 9430.13, 28592.17, 0.00, 0.000, 0.000, 0.000, 13:20:27.667
61, 0.00, 24274.24, 12458.30, 2755.72, -6824.64, 9434.25, 28572.48, 0.00, 0.030, -0.028, 0.992, 13:20:27.667
62, 0.00, 24276.41, 12459.85, 2682.48, -7087.25, 9431.25, 28554.11, 0.00, 0.000, 0.000, 0.000, 13:20:27.667
63, 0.00, 24271.91, 12456.25, 2688.20, -7509.90, 9420.43, 28561.82, 0.00, 0.000, 0.000, 0.000, 13:20:27.667
64, 0.00, 24264.96, 12449.56, 2776.29, -7468.99, 9418.26, 28582.81, 0.00, 0.000, 0.000, 0.000, 13:20:27.668
65, 0.00, 24270.39, 12458.77, 2803.80, -7041.54, 9426.13, 28592.42, 0.00, 0.000, 0.000, 0.000, 13:20:27.668
66, 0.00, 24276.18, 12460.34, 2743.01, -6815.76, 9431.16, 28571.81, 0.00, 0.000, 0.000, 0.000, 13:20:27.668
67, 0.00, 24279.67, 12459.11, 2673.72, -7077.25, 9430.65, 28554.38, 0.00, 0.000, 0.000, 0.000, 13:20:27.668
68, 0.00, 24275.63, 12454.19, 2680.33, -7503.70, 9424.46, 28563.90, 0.00, 0.000, 0.000, 0.000, 13:20:27.668
69, 0.00, 24266.95, 12446.41, 2770.97, -7462.33, 9421.21, 28585.62, 0.00, 0.000, 0.000, 0.000, 13:20:27.669
70, 0.00, 24269.23, 12452.18, 2802.51, -7029.15, 9428.05, 28592.66, 0.00, 0.000, 0.000, 0.000, 13:20:27.669
71, 0.00, 24277.35, 12459.64, 2748.68, -6806.33, 9436.71, 28573.17, 0.00, 0.034, -0.032, 0.988, 13:20:27.670
72, 0.00, 24279.56, 12464.74, 2675.93, -7080.12, 9432.64, 28554.78, 0.00, 0.000, 0.000, 0.000, 13:20:27.670
73, 0.00, 24273.55, 12460.78, 2685.38, -7508.73, 9421.39, 28562.31, 0.00, 0.000, 0.000, 0.000, 13:20:27.670
74, 0.00, 24270.28, 12458.17, 2781.81, -7462.02, 9423.76, 28587.48, 0.00, 0.000, 0.000, 0.000, 13:20:27.670
75, 0.00, 24269.12, 12456.38, 2811.09, -7034.56, 9427.41, 28589.91, 0.00, 0.000, 0.000, 0.000, 13:20:27.670
76, 0.00, 24274.64, 12460.38, 2751.99, -6812.86, 9430.27, 28570.18, 0.00, 0.000, 0.000, 0.000, 13:20:27.670
77, 0.00, 24277.08, 12464.76, 2678.43, -7086.53, 9425.60, 28552.65, 0.00, 0.000, 0.000, 0.000, 13:20:27.673
78, 0.00, 24274.24, 12461.01, 2690.86, -7515.15, 9418.64, 28563.72, 0.00, 0.000, 0.000, 0.000, 13:20:27.673
79, 0.00, 24270.15, 12460.16, 2786.39, -7466.60, 9423.43, 28588.91, 0.00, 0.000, 0.000, 0.000, 13:20:27.673
80, 0.00, 24271.76, 12461.54, 2813.44, -7030.72, 9431.34, 28593.22, 0.00, 0.000, 0.000, 0.000, 13:20:27.673
81, 0.00, 24277.84, 12469.30, 2748.28, -6812.30, 9434.51, 28573.11, 0.00, 0.030, -0.034, 0.988, 13:20:27.673
82, 0.00, 24279.76, 12473.86, 2683.57, -7084.36, 9432.95, 28556.50, 0.00, 0.000, 0.000, 0.000, 13:20:27.674
83, 0.00, 24274.62, 12464.00, 2689.67, -7517.79, 9421.80, 28565.39, 0.00, 0.000, 0.000, 0.000, 13:20:27.675
84, 0.00, 24269.10, 12460.63, 2780.91, -7471.16, 9421.26, 28588.57, 0.00, 0.000, 0.000, 0.000, 13:20:27.675
85, 0.00, 24268.52, 12461.75, 2814.26, -7031.95, 9428.37, 28592.06, 0.00, 0.000, 0.000, 0.000, 13:20:27.675
86, 0.00, 24276.63, 12469.01, 2755.01, -6810.40, 9433.46, 28572.21, 0.00, 0.000, 0.000, 0.000, 13:20:27.675
87, 0.00, 24277.90, 12470.91, 2684.31, -7093.24, 9425.71, 28553.26, 0.00, 0.000, 0.000, 0.000, 13:20:27.675
88, 0.00, 24274.89, 12473.37, 2700.43, -7522.35, 9422.15, 28565.37, 0.00, 0.000, 0.000, 0.000, 13:20:27.676
89, 0.00, 24269.23, 12467.13, 2802.60, -7459.49, 9429.80, 28588.08, 0.00, 0.000, 0.000, 0.000, 13:20:27.676
90, 0.00, 24271.98, 12468.09, 2829.75, -7025.02, 9433.93, 28593.27, 0.00, 0.000, 0.000, 0.000, 13:20:27.676
91, 0.00, 24275.29, 12472.50, 2766.77, -6814.64, 9432.23, 28570.13, 0.00, 0.028, -0.036, 0.986, 13:20:27.676
92, 0.00, 24278.44, 12475.20, 2696.63, -7095.36, 9425.06, 28553.99, 0.00, 0.000, 0.000, 0.000, 13:20:27.676
93, 0.00, 24276.56, 12474.11, 2708.09, -7522.57, 9421.10, 28565.66, 0.00, 0.000, 0.000, 0.000, 13:20:27.676
94, 0.00, 24271.07, 12464.63, 2802.93, -7465.37, 9423.54, 28588.80, 0.00, 0.000, 0.000, 0.000, 13:20:27.676
95, 0.00, 24273.08, 12468.23, 2828.70, -7032.42, 9431.90, 28594.00, 0.00, 0.000, 0.000, 0.000, 13:20:27.676
96, 0.00, 24275.87, 12472.72, 2769.96, -6815.40, 9432.12, 28571.88, 0.00, 0.000, 0.000, 0.000, 13:20:27.676
97, 0.00, 24279.89, 12473.86, 2699.78, -7099.94, 9426.11, 28556.23, 0.00, 0.000, 0.000, 0.000, 13:20:27.677
98, 0.00, 24276.88, 12466.86, 2708.58, -7534.79, 9418.26, 28567.05, 0.00, 0.000, 0.000, 0.000, 13:20:27.677
99, 0.00, 24268.25, 12459.82, 2810.40, -7462.35, 9418.56, 28587.86, 0.00, 0.000, 0.000, 0.000, 13:20:27.677
100, 0.00, 24270.98, 12461.28, 2836.55, -7023.86, 9425.28, 28591.77, 0.00, 0.000, 0.000, 0.000, 13:20:27.677
101, 0.00, 24280.81, 12469.55, 2769.09, -6819.27, 9434.22, 28575.23, 0.00, 0.030, -0.036, 0.990, 13:20:27.677
102, 0.00, 24283.00, 12479.18, 2702.39, -7101.98, 9432.46, 28559.54, 0.00, 0.000, 0.000, 0.000, 13:20:27.678
103, 0.00, 24277.41, 12469.39, 2709.10, -7530.75, 9423.56, 28567.05, 0.00, 0.000, 0.000, 0.000, 13:20:27.678
104, 0.00, 24269.99, 12464.63, 2805.12, -7458.75, 9419.38, 28586.85, 0.00, 0.000, 0.000, 0.000, 13:20:27.678
105, 0.00, 24270.24, 12466.91, 2827.92, -7022.07, 9426.47, 28589.13, 0.00, 0.000, 0.000, 0.000, 13:20:27.678
106, 0.00, 24275.13, 12479.56, 2774.81, -6813.62, 9432.79, 28569.37, 0.00, 0.000, 0.000, 0.000, 13:20:28.124
107, 0.00, 24278.15, 12482.26, 2705.05, -7103.76, 9427.81, 28553.03, 0.00, 0.000, 0.000, 0.000, 13:20:28.124
108, 0.00, 24273.72, 12476.50, 2715.83, -7523.17, 9424.86, 28562.73, 0.00, 0.000, 0.000, 0.000, 13:20:28.124
109, 0.00, 24268.14, 12471.29, 2812.39, -7445.90, 9427.29, 28586.47, 0.00, 0.000, 0.000, 0.000, 13:20:28.124
110, 0.00, 24271.29, 12472.25, 2834.87, -7014.29, 9431.59, 28591.46, 0.00, 0.000, 0.000, 0.000, 13:20:28.124
111, 0.00, 24280.34, 12480.66, 2770.54, -6811.00, 9436.35, 28573.53, 0.00, 0.032, -0.038, 0.986, 13:20:28.124
112, 0.00, 24280.50, 12478.93, 2703.02, -7100.63, 9430.20, 28555.87, 0.00, 0.000, 0.000, 0.000, 13:20:28.124
113, 0.00, 24275.92, 12477.32, 2721.57, -7518.17, 9419.94, 28566.51, 0.00, 0.000, 0.000, 0.000, 13:20:28.124
114, 0.00, 24270.48, 12472.03, 2817.68, -7448.12, 9425.42, 28588.69, 0.00, 0.000, 0.000, 0.000, 13:20:28.125
115, 0.00, 24272.45, 12474.15, 2841.69, -7017.24, 9432.28, 28591.90, 0.00, 0.000, 0.000, 0.000, 13:20:28.125
116, 0.00, 24279.38, 12480.72, 2776.06, -6814.85, 9435.88, 28572.30, 0.00, 0.000, 0.000, 0.000, 13:20:28.125
117, 0.00, 24283.05, 12481.12, 2705.54, -7102.09, 9428.93, 28557.97, 0.00, 0.000, 0.000, 0.000, 13:20:28.125
118, 0.00, 24277.90, 12475.71, 2714.73, -7526.73, 9419.05, 28568.05, 0.00, 0.000, 0.000, 0.000, 13:20:28.125
119, 0.00, 24272.68, 12467.29, 2806.73, -7455.89, 9422.29, 28589.98, 0.00, 0.000, 0.000, 0.000, 13:20:28.125
120, 0.00, 24274.51, 12470.73, 2834.94, -7022.00, 9430.11, 28592.89, 0.00, 0.000, 0.000, 0.000, 13:20:28.125
121, 0.00, 24279.67, 12476.77, 2770.12, -6821.44, 9432.55, 28572.41, 0.00, 0.030, -0.034, 0.988, 13:20:28.126
122, 0.00, 24281.35, 12480.01, 2703.51, -7111.10, 9426.38, 28555.47, 0.00, 0.000, 0.000, 0.000, 13:20:28.126
123, 0.00, 24275.74, 12478.44, 2722.22, -7520.58, 9420.88, 28565.30, 0.00, 0.000, 0.000, 0.000, 13:20:28.126
124, 0.00, 24270.71, 12475.54, 2816.66, -7439.71, 9421.28, 28589.76, 0.00, 0.000, 0.000, 0.000, 13:20:28.126
125, 0.00, 24272.68, 12476.88, 2833.71, -7014.69, 9427.03, 28592.55, 0.00, 0.000, 0.000, 0.000, 13:20:28.126
126, 0.00, 24275.85, 12481.01, 2762.43, -6826.09, 9425.75, 28567.67, 0.00, 0.000, 0.000, 0.000, 13:20:28.126
127, 0.00, 24277.23, 12488.99, 2696.60, -7116.91, 9424.52, 28551.49, 0.00, 0.000, 0.000, 0.000, 13:20:28.126
128, 0.00, 24275.80, 12483.20, 2717.97, -7522.64, 9419.14, 28565.17, 0.00, 0.000, 0.000, 0.000, 13:20:28.127
129, 0.00, 24272.29, 12483.52, 2810.53, -7433.32, 9421.37, 28589.06, 0.00, 0.000, 0.000, 0.000, 13:20:28.127
130, 0.00, 24269.50, 12478.33, 2826.42, -7006.29, 9427.38, 28588.91, 0.00, 0.000, 0.000, 0.000, 13:20:28.127
131, 0.00, 24277.06, 12485.66, 2759.14, -6817.19, 9429.96, 28570.02, 0.00, 0.030, -0.034, 0.994, 13:20:28.127
132, 0.00, 24282.08, 12490.13, 2695.35, -7106.60, 9429.15, 28557.04, 0.00, 0.000, 0.000, 0.000, 13:20:28.127
133, 0.00, 24276.29, 12483.09, 2712.52, -7512.11, 9417.97, 28566.27, 0.00, 0.000, 0.000, 0.000, 13:20:28.127
134, 0.00, 24268.58, 12477.17, 2806.91, -7424.94, 9414.33, 28587.59, 0.00, 0.000, 0.000, 0.000, 13:20:28.127
135, 0.00, 24271.98, 12480.77, 2827.81, -6998.62, 9421.84, 28591.93, 0.00, 0.000, 0.000, 0.000, 13:20:28.127
136, 0.00, 24279.71, 12488.17, 2757.96, -6815.36, 9428.61, 28571.83, 0.00, 0.000, 0.000, 0.000, 13:20:28.128
137, 0.00, 24282.02, 12491.00, 2695.51, -7113.87, 9424.01, 28555.87, 0.00, 0.000, 0.000, 0.000, 13:20:28.128
138, 0.00, 24275.87, 12484.37, 2715.83, -7524.36, 9414.20, 28566.18, 0.00, 0.000, 0.000, 0.000, 13:20:28.128
139, 0.00, 24268.92, 12476.74, 2812.32, -7429.03, 9413.88, 28587.41, 0.00, 0.000, 0.000, 0.000, 13:20:28.128
140, 0.00, 24272.47, 12480.19, 2827.96, -7008.70, 9418.51, 28591.77, 0.00, 0.000, 0.000, 0.000, 13:20:28.128
141, 0.00, 24279.54, 12486.38, 2760.60, -6824.48, 9429.89, 28572.10, 0.00, 0.036, -0.028, 0.990, 13:20:28.128
142, 0.00, 24279.83, 12489.73, 2698.95, -7121.67, 9425.69, 28555.09, 0.00, 0.000, 0.000, 0.000, 13:20:28.128
143, 0.00, 24275.42, 12483.09, 2722.98, -7524.27, 9414.76, 28565.24, 0.00, 0.000, 0.000, 0.000, 13:20:28.129
144, 0.00, 24270.33, 12476.56, 2815.52, -7428.13, 9415.76, 28588.84, 0.00, 0.000, 0.000, 0.000, 13:20:28.129
145, 0.00, 24276.61, 12483.85, 2830.00, -7005.28, 9428.81, 28595.05, 0.00, 0.000, 0.000, 0.000, 13:20:28.129
146, 0.00, 24281.39, 12491.12, 2766.81, -6824.37, 9432.35, 28572.99, 0.00, 0.000, 0.000, 0.000, 13:20:28.129
147, 0.00, 24281.48, 12492.59, 2702.17, -7118.85, 9423.20, 28555.00, 0.00, 0.000, 0.000, 0.000, 13:20:28.129
148, 0.00, 24277.10, 12490.56, 2720.63, -7527.15, 9415.45, 28567.23, 0.00, 0.000, 0.000, 0.000, 13:20:28.129
149, 0.00, 24270.02, 12485.88, 2819.56, -7424.78, 9417.82, 28589.13, 0.00, 0.000, 0.000, 0.000, 13:20:28.129
150, 0.00, 24270.87, 12487.11, 2826.56, -7007.18, 9422.40, 28589.94, 0.00, 0.000, 0.000, 0.000, 13:20:28.130
151, 0.00, 24277.79, 12494.60, 2752.93, -6835.23, 9424.75, 28568.19, 0.00, 0.032, -0.028, 0.992, 13:20:28.130
152, 0.00, 24277.82, 12490.60, 2686.05, -7136.22, 9416.19, 28549.05, 0.00, 0.000, 0.000, 0.000, 13:20:28.130
153, 0.00, 24273.81, 12483.07, 2705.88, -7536.14, 9405.46, 28560.92, 0.00, 0.000, 0.000, 0.000, 13:20:28.130
154, 0.00, 24272.59, 12489.44, 2812.43, -7424.44, 9416.30, 28589.62, 0.00, 0.000, 0.000, 0.000, 13:20:28.130
155, 0.00, 24273.75, 12489.46, 2822.18, -7004.90, 9425.08, 28591.19, 0.00, 0.000, 0.000, 0.000, 13:20:28.130
156, 0.00, 24278.80, 12490.71, 2747.01, -6837.38, 9424.68, 28569.06, 0.00, 0.000, 0.000, 0.000, 13:20:28.131
157, 0.00, 24279.60, 12492.01, 2685.03, -7130.74, 9417.48, 28552.07, 0.00, 0.000, 0.000, 0.000, 13:20:28.131
158, 0.00, 24273.17, 12488.39, 2713.03, -7522.52, 9413.24, 28562.60, 0.00, 0.000, 0.000, 0.000, 13:20:28.131
159, 0.00, 24267.82, 12484.39, 2807.36, -7420.18, 9412.50, 28586.09, 0.00, 0.000, 0.000, 0.000, 13:20:28.131
160, 0.00, 24273.72, 12490.62, 2822.44, -7002.58, 9423.23, 28590.88, 0.00, 0.000, 0.000, 0.000, 13:20:28.131
161, 0.00, 24278.53, 12498.13, 2753.76, -6834.20, 9430.49, 28568.99, 0.00, 0.030, -0.032, 0.992, 13:20:28.131
162, 0.00, 24279.25, 12498.89, 2689.63, -7137.90, 9423.07, 28551.13, 0.00, 0.000, 0.000, 0.000, 13:20:28.131
163, 0.00, 24275.80, 12494.83, 2718.44, -7528.27, 9415.67, 28564.70, 0.00, 0.000, 0.000, 0.000, 13:20:28.132
164, 0.00, 24269.41, 12485.21, 2816.25, -7410.01, 9417.80, 28586.29, 0.00, 0.000, 0.000, 0.000, 13:20:28.132
165, 0.00, 24271.47, 12490.83, 2823.36, -6993.19, 9424.10, 28587.84, 0.00, 0.000, 0.000, 0.000, 13:20:28.132
166, 0.00, 24276.23, 12499.23, 2752.13, -6834.96, 9428.48, 28565.73, 0.00, 0.000, 0.000, 0.000, 13:20:28.132
167, 0.00, 24278.60, 12501.24, 2697.34, -7133.72, 9420.95, 28551.07, 0.00, 0.000, 0.000, 0.000, 13:20:28.133
168, 0.00, 24272.74, 12496.57, 2730.38, -7517.56, 9410.67, 28562.82, 0.00, 0.000, 0.000, 0.000, 13:20:28.133
169, 0.00, 24268.94, 12495.70, 2828.84, -7401.04, 9419.63, 28588.95, 0.00, 0.000, 0.000, 0.000, 13:20:28.133
170, 0.00, 24269.50, 12493.02, 2828.08, -6993.06, 9428.68, 28589.85, 0.00, 0.000, 0.000, 0.000, 13:20:28.133
171, 0.00, 24278.58, 12500.68, 2749.22, -6839.83, 9431.88, 28567.83, 0.00, 0.026, -0.032, 0.988, 13:20:28.133
172, 0.00, 24277.10, 12500.12, 2686.19, -7142.30, 9421.48, 28548.81, 0.00, 0.000, 0.000, 0.000, 13:20:28.133
173, 0.00, 24271.42, 12496.44, 2720.07, -7517.99, 9407.58, 28561.95, 0.00, 0.000, 0.000, 0.000, 13:20:28.134
174, 0.00, 24270.08, 12495.43, 2823.83, -7397.85, 9416.75, 28591.30, 0.00, 0.000, 0.000, 0.000, 13:20:28.134
175, 0.00, 24271.94, 12498.60, 2822.91, -6996.05, 9427.25, 28593.31, 0.00, 0.000, 0.000, 0.000, 13:20:28.134
176, 0.00, 24277.79, 12510.47, 2744.30, -6837.51, 9432.21, 28569.57, 0.00, 0.000, 0.000, 0.000, 13:20:28.134
177, 0.00, 24279.36, 12509.13, 2689.61, -7133.94, 9426.58, 28551.42, 0.00, 0.000, 0.000, 0.000, 13:20:28.134
178, 0.00, 24271.51, 12498.27, 2730.13, -7508.73, 9416.14, 28566.27, 0.00, 0.000, 0.000, 0.000, 13:20:28.134
179, 0.00, 24266.24, 12495.83, 2829.46, -7393.40, 9416.63, 28598.61, 0.00, 0.000, 0.000, 0.000, 13:20:28.134
180, 0.00, 24271.96, 12499.86, 2807.92, -7003.02, 9429.55, 28601.58, 0.00, 0.000, 0.000, 0.000, 13:20:28.135
181, 0.00, 24278.80, 12510.38, 2724.92, -6838.69, 9433.35, 28571.07, 0.00, 0.032, -0.038, 0.994, 13:20:28.135
182, 0.00, 24281.75, 12510.92, 2683.19, -7119.14, 9424.32, 28551.85, 0.00, 0.000, 0.000, 0.000, 13:20:28.135
183, 0.00, 24275.16, 12505.22, 2725.19, -7501.96, 9413.35, 28568.39, 0.00, 0.000, 0.000, 0.000, 13:20:28.135
184, 0.00, 24267.91, 12497.33, 2811.67, -7403.03, 9419.14, 28596.40, 0.00, 0.000, 0.000, 0.000, 13:20:28.136
185, 0.00, 24272.74, 12500.46, 2793.32, -7009.44, 9428.75, 28596.44, 0.00, 0.000, 0.000, 0.000, 13:20:28.136
186, 0.00, 24281.41, 12515.19, 2726.47, -6844.53, 9436.46, 28568.52, 0.00, 0.000, 0.000, 0.000, 13:20:28.136
187, 0.00, 24279.29, 12515.23, 2692.89, -7125.78, 9426.94, 28547.02, 0.00, 0.000, 0.000, 0.000, 13:20:28.136
188, 0.00, 24271.63, 12508.08, 2736.19, -7498.34, 9411.92, 28565.44, 0.00, 0.000, 0.000, 0.000, 13:20:28.136
189, 0.00, 24269.88, 12501.42, 2824.72, -7390.16, 9421.80, 28598.54, 0.00, 0.000, 0.000, 0.000, 13:20:28.136
190, 0.00, 24275.13, 12509.51, 2810.26, -6998.67, 9438.85, 28597.49, 0.00, 0.000, 0.000, 0.000, 13:20:28.136
191, 0.00, 24278.60, 12512.19, 2726.69, -6845.42, 9435.41, 28562.71, 0.00, 0.034, -0.030, 0.996, 13:20:28.136
192, 0.00, 24279.85, 12516.22, 2686.37, -7133.51, 9426.85, 28546.13, 0.00, 0.000, 0.000, 0.000, 13:20:28.136
193, 0.00, 24270.35, 12506.72, 2731.07, -7506.34, 9415.81, 28563.43, 0.00, 0.000, 0.000, 0.000, 13:20:28.136
194, 0.00, 24265.19, 12498.42, 2812.07, -7397.69, 9415.99, 28593.07, 0.00, 0.000, 0.000, 0.000, 13:20:28.136
195, 0.00, 24270.93, 12505.98, 2787.73, -7009.08, 9429.17, 28593.42, 0.00, 0.000, 0.000, 0.000, 13:20:28.137
196, 0.00, 24275.63, 12510.11, 2707.69, -6858.77, 9429.37, 28560.59, 0.00, 0.000, 0.000, 0.000, 13:20:28.137
197, 0.00, 24279.09, 12519.79, 2678.52, -7138.72, 9426.00, 28547.49, 0.00, 0.000, 0.000, 0.000, 13:20:28.140
198, 0.00, 24270.51, 12510.49, 2728.75, -7501.87, 9415.67, 28565.91, 0.00, 0.000, 0.000, 0.000, 13:20:28.140
199, 0.00, 24267.15, 12506.67, 2809.52, -7395.50, 9419.25, 28597.18, 0.00, 0.000, 0.000, 0.000, 13:20:28.140
200, 0.00, 24271.65, 12516.44, 2789.48, -7006.24, 9429.13, 28594.88, 0.00, 0.000, 0.000, 0.000, 13:20:28.140
201, 0.00, 24279.02, 12524.58, 2715.31, -6851.77, 9435.25, 28564.72, 0.00, 0.036, -0.034, 0.990, 13:20:28.141
202, 0.00, 24276.74, 12522.32, 2684.71, -7134.32, 9427.74, 28546.35, 0.00, 0.000, 0.000, 0.000, 13:20:28.141
203, 0.00, 24268.34, 12513.85, 2734.51, -7501.02, 9414.58, 28565.37, 0.00, 0.000, 0.000, 0.000, 13:20:28.141
204, 0.00, 24265.19, 12507.90, 2816.34, -7391.36, 9417.48, 28596.22, 0.00, 0.000, 0.000, 0.000, 13:20:28.141
205, 0.00, 24273.70, 12515.30, 2795.04, -7001.77, 9430.78, 28597.65, 0.00, 0.000, 0.000, 0.000, 13:20:28.142
206, 0.00, 24278.49, 12521.98, 2718.08, -6856.49, 9433.78, 28563.70, 0.00, 0.000, 0.000, 0.000, 13:20:28.142
207, 0.00, 24276.16, 12519.73, 2684.51, -7143.26, 9423.85, 28543.91, 0.00, 0.000, 0.000, 0.000, 13:20:28.142
208, 0.00, 24271.18, 12513.58, 2733.93, -7506.07, 9409.26, 28566.47, 0.00, 0.000, 0.000, 0.000, 13:20:28.142
209, 0.00, 24267.53, 12510.83, 2812.65, -7392.06, 9415.14, 28598.07, 0.00, 0.000, 0.000, 0.000, 13:20:28.142
210, 0.00, 24272.52, 12513.71, 2787.40, -7007.32, 9428.90, 28595.32, 0.00, 0.000, 0.000, 0.000, 13:20:28.142
211, 0.00, 24279.00, 12526.25, 2715.31, -6856.33, 9436.64, 28564.30, 0.00, 0.034, -0.032, 0.998, 13:20:28.142
212, 0.00, 24279.25, 12525.60, 2688.56, -7135.86, 9427.21, 28546.78, 0.00, 0.000, 0.000, 0.000, 13:20:28.142
213, 0.00, 24273.44, 12517.13, 2733.35, -7500.64, 9414.46, 28567.85, 0.00, 0.000, 0.000, 0.000, 13:20:28.142
214, 0.00, 24269.88, 12513.47, 2815.67, -7380.93, 9419.79, 28599.30, 0.00, 0.000, 0.000, 0.000, 13:20:28.143
215, 0.00, 24275.54, 12521.45, 2787.04, -6997.59, 9429.89, 28597.13, 0.00, 0.000, 0.000, 0.000, 13:20:28.143
216, 0.00, 24280.54, 12527.10, 2706.66, -6858.79, 9432.97, 28565.89, 0.00, 0.000, 0.000, 0.000, 13:20:28.143
217, 0.00, 24277.70, 12523.68, 2673.58, -7145.43, 9423.23, 28547.83, 0.00, 0.000, 0.000, 0.000, 13:20:28.143
218, 0.00, 24270.71, 12514.81, 2724.32, -7502.65, 9414.46, 28567.34, 0.00, 0.000, 0.000, 0.000, 13:20:28.143
219, 0.00, 24266.35, 12509.62, 2803.94, -7385.11, 9411.94, 28597.40, 0.00, 0.000, 0.000, 0.000, 13:20:28.143
220, 0.00, 24271.33, 12516.84, 2776.89, -7003.07, 9426.07, 28593.76, 0.00, 0.000, 0.000, 0.000, 13:20:28.143
221, 0.00, 24281.66, 12533.56, 2711.78, -6855.10, 9437.64, 28566.38, 0.00, 0.044, -0.032, 0.992, 13:20:28.144
222, 0.00, 24279.04, 12526.65, 2682.34, -7142.97, 9423.61, 28545.99, 0.00, 0.000, 0.000, 0.000, 13:20:28.144
223, 0.00, 24271.54, 12517.56, 2731.90, -7504.98, 9411.94, 28565.82, 0.00, 0.000, 0.000, 0.000, 13:20:28.144
224, 0.00, 24268.05, 12509.94, 2813.03, -7381.24, 9411.38, 28595.84, 0.00, 0.000, 0.000, 0.000, 13:20:28.144
225, 0.00, 24276.32, 12518.63, 2779.06, -7005.53, 9425.31, 28595.86, 0.00, 0.000, 0.000, 0.000, 13:20:28.144
226, 0.00, 24283.47, 12528.33, 2703.18, -6865.87, 9427.76, 28565.48, 0.00, 0.000, 0.000, 0.000, 13:20:28.603
227, 0.00, 24279.40, 12527.79, 2677.98, -7149.25, 9422.85, 28546.66, 0.00, 0.000, 0.000, 0.000, 13:20:28.603
228, 0.00, 24274.24, 12522.90, 2730.02, -7502.12, 9415.29, 28569.64, 0.00, 0.000, 0.000, 0.000, 13:20:28.603
229, 0.00, 24271.15, 12517.36, 2808.72, -7377.01, 9419.43, 28600.42, 0.00, 0.000, 0.000, 0.000, 13:20:28.603
230, 0.00, 24276.27, 12523.77, 2780.29, -6992.61, 9431.16, 28597.51, 0.00, 0.000, 0.000, 0.000, 13:20:28.603
231, 0.00, 24282.89, 12530.48, 2698.17, -6861.25, 9432.06, 28565.93, 0.00, 0.034, -0.030, 0.996, 13:20:28.603
232, 0.00, 24278.53, 12525.31, 2666.76, -7150.19, 9419.05, 28544.72, 0.00, 0.000, 0.000, 0.000, 13:20:28.604
233, 0.00, 24273.05, 12522.01, 2719.78, -7500.40, 9411.02, 28567.47, 0.00, 0.000, 0.000, 0.000, 13:20:28.604
234, 0.00, 24270.46, 12520.78, 2801.14, -7373.88, 9415.72, 28600.42, 0.00, 0.000, 0.000, 0.000, 13:20:28.604
235, 0.00, 24273.93, 12525.18, 2768.24, -6997.64, 9426.49, 28595.97, 0.00, 0.000, 0.000, 0.000, 13:20:28.604
236, 0.00, 24278.24, 12529.23, 2690.01, -6866.84, 9429.60, 28562.58, 0.00, 0.000, 0.000, 0.000, 13:20:28.604
237, 0.00, 24276.74, 12529.96, 2664.57, -7157.36, 9419.90, 28545.03, 0.00, 0.000, 0.000, 0.000, 13:20:28.604
238, 0.00, 24271.09, 12523.17, 2720.83, -7503.46, 9412.41, 28566.91, 0.00, 0.000, 0.000, 0.000, 13:20:28.604
239, 0.00, 24268.65, 12522.90, 2803.07, -7368.39, 9416.59, 28598.56, 0.00, 0.000, 0.000, 0.000, 13:20:28.604
240, 0.00, 24272.83, 12525.43, 2767.73, -6993.95, 9423.74, 28593.49, 0.00, 0.000, 0.000, 0.000, 13:20:28.604
241, 0.00, 24277.48, 12531.97, 2688.98, -6865.14, 9427.59, 28561.44, 0.00, 0.034, -0.030, 0.994, 13:20:28.604
242, 0.00, 24274.87, 12535.17, 2668.55, -7153.72, 9420.17, 28545.17, 0.00, 0.000, 0.000, 0.000, 13:20:28.604
243, 0.00, 24265.90, 12527.28, 2729.28, -7503.01, 9410.67, 28564.86, 0.00, 0.000, 0.000, 0.000, 13:20:28.604
244, 0.00, 24266.48, 12523.82, 2811.38, -7365.88, 9414.53, 28598.94, 0.00, 0.000, 0.000, 0.000, 13:20:28.604
245, 0.00, 24275.25, 12531.80, 2773.65, -6995.43, 9425.42, 28597.67, 0.00, 0.000, 0.000, 0.000, 13:20:28.605
246, 0.00, 24278.29, 12532.26, 2686.77, -6868.71, 9427.92, 28562.91, 0.00, 0.000, 0.000, 0.000, 13:20:28.605
247, 0.00, 24278.82, 12533.36, 2657.02, -7156.54, 9419.65, 28549.35, 0.00, 0.000, 0.000, 0.000, 13:20:28.605
248, 0.00, 24271.27, 12525.60, 2714.31, -7497.09, 9410.22, 28570.13, 0.00, 0.000, 0.000, 0.000, 13:20:28.605
249, 0.00, 24267.69, 12521.36, 2791.91, -7364.21, 9413.39, 28599.82, 0.00, 0.000, 0.000, 0.000, 13:20:28.605
250, 0.00, 24276.29, 12531.17, 2762.05, -6990.42, 9426.29, 28599.28, 0.00, 0.040, -0.026, 0.994, 13:20:28.605
251, 0.00, 24282.71, 12541.14, 2685.99, -6868.62, 9428.95, 28566.71, 0.00, 0.000, 0.000, 0.000, 13:20:28.605
252, 0.00, 24281.06, 12538.93, 2662.83, -7157.39, 9421.39, 28549.68, 0.00, 0.000, 0.000, 0.000, 13:20:28.605
253, 0.00, 24273.81, 12530.03, 2717.99, -7497.27, 9412.72, 28570.74, 0.00, 0.000, 0.000, 0.000, 13:20:28.605
254, 0.00, 24268.58, 12524.64, 2790.93, -7365.59, 9412.27, 28599.41, 0.00, 0.000, 0.000, 0.000, 13:20:28.605
255, 0.00, 24273.26, 12530.52, 2758.00, -6996.45, 9419.67, 28594.00, 0.00, 0.000, 0.000, 0.000, 13:20:28.605
0, 0.00, 24284.95, 12544.00, 2683.30, -6870.28, 9432.97, 28566.15, 0.00, 0.000, 0.000, 0.000, 13:20:28.605
1, 0.00, 24280.43, 12540.02, 2659.21, -7156.69, 9421.35, 28548.45, 0.00, 0.000, 0.000, 0.000, 13:20:28.606
2, 0.00, 24273.97, 12532.31, 2716.16, -7500.22, 9411.63, 28571.83, 0.00, 0.000, 0.000, 0.000, 13:20:28.606
3, 0.00, 24272.07, 12531.28, 2796.05, -7361.52, 9413.91, 28603.17, 0.00, 0.000, 0.000, 0.000, 13:20:28.606
4, 0.00, 24278.08, 12540.87, 2764.87, -6987.07, 9425.91, 28600.33, 0.00, 0.040, -0.032, 1.000, 13:20:28.606
5, 0.00, 24282.80, 12544.29, 2683.13, -6868.60, 9428.88, 28567.50, 0.00, 0.000, 0.000, 0.000, 13:20:28.606
6, 0.00, 24281.17, 12540.67, 2652.62, -7164.83, 9415.47, 28549.79, 0.00, 0.000, 0.000, 0.000, 13:20:28.606
7, 0.00, 24274.66, 12536.89, 2712.72, -7502.85, 9406.80, 28571.85, 0.00, 0.000, 0.000, 0.000, 13:20:28.606
8, 0.00, 24269.54, 12532.49, 2796.78, -7359.00, 9409.37, 28601.31, 0.00, 0.000, 0.000, 0.000, 13:20:28.606
9, 0.00, 24277.01, 12537.70, 2762.61, -6989.12, 9424.08, 28598.21, 0.00, 0.000, 0.000, 0.000, 13:20:28.606
10, 0.00, 24285.88, 12545.90, 2684.58, -6873.34, 9427.90, 28568.57, 0.00, 0.000, 0.000, 0.000, 13:20:28.606
11, 0.00, 24281.84, 12536.87, 2656.55, -7163.44, 9415.76, 28550.93, 0.00, 0.000, 0.000, 0.000, 13:20:28.606
12, 0.00, 24276.52, 12528.22, 2708.41, -7503.48, 9407.89, 28573.53, 0.00, 0.000, 0.000, 0.000, 13:20:28.606
13, 0.00, 24273.46, 12529.56, 2791.26, -7358.13, 9412.10, 28604.17, 0.00, 0.000, 0.000, 0.000, 13:20:28.606
14, 0.00, 24277.41, 12539.02, 2765.74, -6988.50, 9420.54, 28598.54, 0.00, 0.034, -0.030, 1.000, 13:20:28.606
15, 0.00, 24284.92, 12547.40, 2691.73, -6870.08, 9423.81, 28568.21, 0.00, 0.000, 0.000, 0.000, 13:20:28.607
16, 0.00, 24281.10, 12542.44, 2662.94, -7171.80, 9414.24, 28550.17, 0.00, 0.000, 0.000, 0.000, 13:20:28.607
17, 0.00, 24275.04, 12536.67, 2722.69, -7508.08, 9403.78, 28571.99, 0.00, 0.000, 0.000, 0.000, 13:20:28.607
18, 0.00, 24271.69, 12532.94, 2805.43, -7357.57, 9407.00, 28602.05, 0.00, 0.000, 0.000, 0.000, 13:20:28.607
19, 0.00, 24278.31, 12542.39, 2769.20, -6988.07, 9427.09, 28599.79, 0.00, 0.000, 0.000, 0.000, 13:20:28.607
20, 0.00, 24282.62, 12548.43, 2692.78, -6877.39, 9429.04, 28565.93, 0.00, 0.000, 0.000, 0.000, 13:20:28.607
21, 0.00, 24282.06, 12547.11, 2670.94, -7170.24, 9419.25, 28549.64, 0.00, 0.000, 0.000, 0.000, 13:20:28.607
22, 0.00, 24275.67, 12540.67, 2730.22, -7498.76, 9410.51, 28573.06, 0.00, 0.000, 0.000, 0.000, 13:20:28.607
23, 0.00, 24272.07, 12536.85, 2802.71, -7348.67, 9413.62, 28602.28, 0.00, 0.000, 0.000, 0.000, 13:20:28.607
24, 0.00, 24275.96, 12538.12, 2759.37, -6986.73, 9423.07, 28595.88, 0.00, 0.030, -0.026, 0.992, 13:20:28.607
25, 0.00, 24280.97, 12548.96, 2688.07, -6873.61, 9425.71, 28563.92, 0.00, 0.000, 0.000, 0.000, 13:20:28.607
26, 0.00, 24280.97, 12550.91, 2669.07, -7166.48, 9415.74, 28549.39, 0.00, 0.000, 0.000, 0.000, 13:20:28.607
27, 0.00, 24273.64, 12541.97, 2725.66, -7498.12, 9403.92, 28571.61, 0.00, 0.000, 0.000, 0.000, 13:20:28.607
28, 0.00, 24269.12, 12537.52, 2798.39, -7349.19, 9408.88, 28600.24, 0.00, 0.000, 0.000, 0.000, 13:20:28.607
29, 0.00, 24277.82, 12547.38, 2758.79, -6985.88, 9425.71, 28597.33, 0.00, 0.000, 0.000, 0.000, 13:20:28.607
30, 0.00, 24281.17, 12552.58, 2679.17, -6879.91, 9425.91, 28562.62, 0.00, 0.000, 0.000, 0.000, 13:20:28.608
31, 0.00, 24281.12, 12553.57, 2661.53, -7175.51, 9421.35, 28547.94, 0.00, 0.000, 0.000, 0.000, 13:20:28.608
32, 0.00, 24273.90, 12546.68, 2724.70, -7495.30, 9410.78, 28571.41, 0.00, 0.000, 0.000, 0.000, 13:20:28.608
33, 0.00, 24269.88, 12543.55, 2800.87, -7340.02, 9414.38, 28601.29, 0.00, 0.000, 0.000, 0.000, 13:20:28.608
34, 0.00, 24273.30, 12546.70, 2758.76, -6986.04, 9421.89, 28592.93, 0.00, 0.032, -0.028, 0.996, 13:20:28.608
35, 0.00, 24281.41, 12552.29, 2685.49, -6880.69, 9424.34, 28561.64, 0.00, 0.000, 0.000, 0.000, 13:20:28.608
36, 0.00, 24277.84, 12552.43, 2669.51, -7179.07, 9415.52, 28546.42, 0.00, 0.000, 0.000, 0.000, 13:20:28.608
37, 0.00, 24269.39, 12540.49, 2729.39, -7501.09, 9407.71, 28567.34, 0.00, 0.000, 0.000, 0.000, 13:20:28.608
38, 0.00, 24273.70, 12542.73, 2813.24, -7339.91, 9416.68, 28603.53, 0.00, 0.000, 0.000, 0.000, 13:20:28.608
39, 0.00, 24275.78, 12549.74, 2775.06, -6981.95, 9424.77, 28596.35, 0.00, 0.000, 0.000, 0.000, 13:20:28.608
40, 0.00, 24281.66, 12556.47, 2697.65, -6881.32, 9427.47, 28564.30, 0.00, 0.000, 0.000, 0.000, 13:20:28.608
41, 0.00, 24279.54, 12550.04, 2675.88, -7183.00, 9417.64, 28548.29, 0.00, 0.000, 0.000, 0.000, 13:20:28.608
42, 0.00, 24276.94, 12551.42, 2748.35, -7500.91, 9410.87, 28574.78, 0.00, 0.000, 0.000, 0.000, 13:20:28.609
43, 0.00, 24270.10, 12548.85, 2827.18, -7343.67, 9409.88, 28600.29, 0.00, 0.000, 0.000, 0.000, 13:20:28.609
44, 0.00, 24279.54, 12559.13, 2788.56, -6983.29, 9424.63, 28598.59, 0.00, 0.028, -0.032, 0.998, 13:20:28.609
45, 0.00, 24280.54, 12555.96, 2706.93, -6885.19, 9421.84, 28561.77, 0.00, 0.000, 0.000, 0.000, 13:20:28.609
46, 0.00, 24283.52, 12561.39, 2692.83, -7177.50, 9419.67, 28550.82, 0.00, 0.000, 0.000, 0.000, 13:20:28.609
47, 0.00, 24273.95, 12551.60, 2751.03, -7499.08, 9409.03, 28571.09, 0.00, 0.000, 0.000, 0.000, 13:20:28.609
48, 0.00, 24272.50, 12548.31, 2821.97, -7345.43, 9415.02, 28602.95, 0.00, 0.000, 0.000, 0.000, 13:20:28.609
49, 0.00, 24277.48, 12553.10, 2779.13, -6986.40, 9422.56, 28597.36, 0.00, 0.000, 0.000, 0.000, 13:20:28.609
50, 0.00, 24287.07, 12562.31, 2706.82, -6882.35, 9428.52, 28567.50, 0.00, 0.000, 0.000, 0.000, 13:20:28.609
51, 0.00, 24283.02, 12557.50, 2693.74, -7175.40, 9417.08, 28550.87, 0.00, 0.000, 0.000, 0.000, 13:20:28.609
52, 0.00, 24275.02, 12550.15, 2753.98, -7492.37, 9409.48, 28575.16, 0.00, 0.000, 0.000, 0.000, 13:20:28.609
53, 0.00, 24273.61, 12550.26, 2826.33, -7334.81, 9415.38, 28606.59, 0.00, 0.000, 0.000, 0.000, 13:20:28.609
54, 0.00, 24280.39, 12560.47, 2784.38, -6981.92, 9427.05, 28600.31, 0.00, 0.026, -0.032, 0.994, 13:20:28.609
55, 0.00, 24284.41, 12565.21, 2703.02, -6890.93, 9425.31, 28565.35, 0.00, 0.000, 0.000, 0.000, 13:20:28.609
56, 0.00, 24282.40, 12560.63, 2684.40, -7186.62, 9419.29, 28550.53, 0.00, 0.000, 0.000, 0.000, 13:20:28.609
57, 0.00, 24273.79, 12552.92, 2750.74, -7493.06, 9408.36, 28571.54, 0.00, 0.000, 0.000, 0.000, 13:20:28.610
58, 0.00, 24272.94, 12556.16, 2828.37, -7330.72, 9413.64, 28603.28, 0.00, 0.000, 0.000, 0.000, 13:20:28.610
59, 0.00, 24276.43, 12562.04, 2785.12, -6980.11, 9423.20, 28594.83, 0.00, 0.000, 0.000, 0.000, 13:20:28.610
60, 0.00, 24276.70, 12562.84, 2704.43, -6889.77, 9424.48, 28557.50, 0.00, 0.000, 0.000, 0.000, 13:20:28.610
61, 0.00, 24279.87, 12565.57, 2692.89, -7183.43, 9417.77, 28548.12, 0.00, 0.000, 0.000, 0.000, 13:20:28.612
62, 0.00, 24271.87, 12555.04, 2750.56, -7494.36, 9406.24, 28571.14, 0.00, 0.000, 0.000, 0.000, 13:20:28.612
63, 0.00, 24265.70, 12547.44, 2818.85, -7332.94, 9405.97, 28596.26, 0.00, 0.000, 0.000, 0.000, 13:20:28.612
64, 0.00, 24277.01, 12558.80, 2774.45, -6985.30, 9421.55, 28595.44, 0.00, 0.024, -0.030, 0.996, 13:20:28.612
65, 0.00, 24282.35, 12565.32, 2698.26, -6896.72, 9422.67, 28562.71, 0.00, 0.000, 0.000, 0.000, 13:20:28.612
66, 0.00, 24281.55, 12569.03, 2686.05, -7186.96, 9415.74, 28549.35, 0.00, 0.000, 0.000, 0.000, 13:20:28.612
67, 0.00, 24270.48, 12554.28, 2746.36, -7499.21, 9403.87, 28569.39, 0.00, 0.000, 0.000, 0.000, 13:20:28.612
68, 0.00, 24267.31, 12548.67, 2817.39, -7339.53, 9412.10, 28598.74, 0.00, 0.000, 0.000, 0.000, 13:20:28.612
69, 0.00, 24280.54, 12568.54, 2782.19, -6979.65, 9429.33, 28600.67, 0.00, 0.000, 0.000, 0.000, 13:20:28.612
70, 0.00, 24283.89, 12572.77, 2701.43, -6891.49, 9429.62, 28566.33, 0.00, 0.000, 0.000, 0.000, 13:20:28.612
71, 0.00, 24281.75, 12572.77, 2689.21, -7182.42, 9422.00, 28551.45, 0.00, 0.000, 0.000, 0.000, 13:20:28.612
72, 0.00, 24273.30, 12563.51, 2753.29, -7494.63, 9411.96, 28573.89, 0.00, 0.000, 0.000, 0.000, 13:20:28.613
73, 0.00, 24269.14, 12560.14, 2824.79, -7330.68, 9414.67, 28602.72, 0.00, 0.000, 0.000, 0.000, 13:20:28.613
74, 0.00, 24277.82, 12571.83, 2787.40, -6973.68, 9427.05, 28598.38, 0.00, 0.028, -0.030, 0.990, 13:20:28.613
75, 0.00, 24282.67, 12578.49, 2708.38, -6887.00, 9425.69, 28563.81, 0.00, 0.000, 0.000, 0.000, 13:20:28.613
76, 0.00, 24278.64, 12571.87, 2688.15, -7188.28, 9415.76, 28546.15, 0.00, 0.000, 0.000, 0.000, 13:20:28.613
77, 0.00, 24271.76, 12560.67, 2746.72, -7499.93, 9406.08, 28569.64, 0.00, 0.000, 0.000, 0.000, 13:20:28.613
78, 0.00, 24269.46, 12557.19, 2818.85, -7330.37, 9410.22, 28600.58, 0.00, 0.000, 0.000, 0.000, 13:20:28.613
79, 0.00, 24278.98, 12567.38, 2773.92, -6977.23, 9424.52, 28598.47, 0.00, 0.000, 0.000, 0.000, 13:20:28.613
80, 0.00, 24283.25, 12576.19, 2699.42, -6888.14, 9425.42, 28565.48, 0.00, 0.000, 0.000, 0.000, 13:20:28.613
81, 0.00, 24277.53, 12570.60, 2683.62, -7184.79, 9412.97, 28547.85, 0.00, 0.000, 0.000, 0.000, 13:20:28.613
82, 0.00, 24275.36, 12567.40, 2748.77, -7494.11, 9410.87, 28575.83, 0.00, 0.000, 0.000, 0.000, 13:20:28.613
83, 0.00, 24268.65, 12560.79, 2817.42, -7323.79, 9413.26, 28602.01, 0.00, 0.000, 0.000, 0.000, 13:20:28.613
84, 0.00, 24273.39, 12566.80, 2768.06, -6973.32, 9419.79, 28594.09, 0.00, 0.032, -0.032, 0.990, 13:20:28.613
85, 0.00, 24283.22, 12579.79, 2695.53, -6891.71, 9429.66, 28566.00, 0.00, 0.000, 0.000, 0.000, 13:20:28.614
86, 0.00, 24282.13, 12576.57, 2687.60, -7186.31, 9420.88, 28552.72, 0.00, 0.000, 0.000, 0.000, 13:20:28.614
87, 0.00, 24276.52, 12568.79, 2751.92, -7491.95, 9409.12, 28576.50, 0.00, 0.000, 0.000, 0.000, 13:20:28.614
88, 0.00, 24270.71, 12562.08, 2821.19, -7320.62, 9408.16, 28601.92, 0.00, 0.000, 0.000, 0.000, 13:20:28.614
89, 0.00, 24276.86, 12567.22, 2771.37, -6973.61, 9417.37, 28594.56, 0.00, 0.000, 0.000, 0.000, 13:20:28.614
90, 0.00, 24283.85, 12577.26, 2697.65, -6888.72, 9419.54, 28564.05, 0.00, 0.000, 0.000, 0.000, 13:20:29.085
91, 0.00, 24277.48, 12567.18, 2679.55, -7193.80, 9406.64, 28544.92, 0.00, 0.000, 0.000, 0.000, 13:20:29.085
92, 0.00, 24273.81, 12567.22, 2751.75, -7496.48, 9405.39, 28571.52, 0.00, 0.000, 0.000, 0.000, 13:20:29.085
93, 0.00, 24272.90, 12569.75, 2829.35, -7318.30, 9411.13, 28603.10, 0.00, 0.000, 0.000, 0.000, 13:20:29.085
94, 0.00, 24278.08, 12575.22, 2782.14, -6971.55, 9422.53, 28595.75, 0.00, 0.040, -0.026, 0.994, 13:20:29.085
95, 0.00, 24281.88, 12579.61, 2698.91, -6894.42, 9424.34, 28562.29, 0.00, 0.000, 0.000, 0.000, 13:20:29.085
96, 0.00, 24278.38, 12578.15, 2686.86, -7188.68, 9416.45, 28549.03, 0.00, 0.000, 0.000, 0.000, 13:20:29.085
97, 0.00, 24265.70, 12565.61, 2748.17, -7493.78, 9403.49, 28568.26, 0.00, 0.000, 0.000, 0.000, 13:20:29.085
98, 0.00, 24263.29, 12561.41, 2815.29, -7321.31, 9406.46, 28596.26, 0.00, 0.000, 0.000, 0.000, 13:20:29.086
99, 0.00, 24278.08, 12575.45, 2770.36, -6969.79, 9424.63, 28596.91, 0.00, 0.000, 0.000, 0.000, 13:20:29.086
100, 0.00, 24280.65, 12577.95, 2687.10, -6896.47, 9423.90, 28562.60, 0.00, 0.000, 0.000, 0.000, 13:20:29.086
101, 0.00, 24280.61, 12577.28, 2681.94, -7188.57, 9416.25, 28549.44, 0.00, 0.000, 0.000, 0.000, 13:20:29.086
102, 0.00, 24272.72, 12568.92, 2746.34, -7488.80, 9409.55, 28573.22, 0.00, 0.000, 0.000, 0.000, 13:20:29.086
103, 0.00, 24274.04, 12574.84, 2818.89, -7316.04, 9414.53, 28606.25, 0.00, 0.000, 0.000, 0.000, 13:20:29.086
104, 0.00, 24277.26, 12579.52, 2771.75, -6972.96, 9419.72, 28594.50, 0.00, 0.038, -0.028, 0.990, 13:20:29.086
105, 0.00, 24280.43, 12583.09, 2693.61, -6895.74, 9420.23, 28559.70, 0.00, 0.000, 0.000, 0.000, 13:20:29.087
106, 0.00, 24278.31, 12578.87, 2679.04, -7197.31, 9411.63, 28546.44, 0.00, 0.000, 0.000, 0.000, 13:20:29.087
107, 0.00, 24273.61, 12575.07, 2745.60, -7493.15, 9401.70, 28572.61, 0.00, 0.000, 0.000, 0.000, 13:20:29.087
108, 0.00, 24273.84, 12577.39, 2819.87, -7313.09, 9411.00, 28602.39, 0.00, 0.000, 0.000, 0.000, 13:20:29.087
109, 0.00, 24278.31, 12580.43, 2772.02, -6970.93, 9419.32, 28593.67, 0.00, 0.000, 0.000, 0.000, 13:20:29.087
110, 0.00, 24283.58, 12585.24, 2688.98, -6902.35, 9420.05, 28561.24, 0.00, 0.000, 0.000, 0.000, 13:20:29.087
111, 0.00, 24279.83, 12578.29, 2677.00, -7199.88, 9409.86, 28546.15, 0.00, 0.000, 0.000, 0.000, 13:20:29.087
112, 0.00, 24270.37, 12567.96, 2740.73, -7498.32, 9396.65, 28569.48, 0.00, 0.000, 0.000, 0.000, 13:20:29.087
113, 0.00, 24272.83, 12570.75, 2810.44, -7318.07, 9406.24, 28604.55, 0.00, 0.000, 0.000, 0.000, 13:20:29.087
114, 0.00, 24276.83, 12576.72, 2764.75, -6973.72, 9416.05, 28593.74, 0.00, 0.036, -0.030, 0.990, 13:20:29.087
115, 0.00, 24283.11, 12585.08, 2690.88, -6899.45, 9420.01, 28562.15, 0.00, 0.000, 0.000, 0.000, 13:20:29.088
116, 0.00, 24275.69, 12582.06, 2680.47, -7204.37, 9406.13, 28543.04, 0.00, 0.000, 0.000, 0.000, 13:20:29.089
117, 0.00, 24267.31, 12572.03, 2746.16, -7500.60, 9392.85, 28566.78, 0.00, 0.000, 0.000, 0.000, 13:20:29.089
118, 0.00, 24264.03, 12570.87, 2814.78, -7315.86, 9404.32, 28597.40, 0.00, 0.000, 0.000, 0.000, 13:20:29.089
119, 0.00, 24271.40, 12579.18, 2766.63, -6971.29, 9425.31, 28591.93, 0.00, 0.000, 0.000, 0.000, 13:20:29.089
120, 0.00, 24273.05, 12584.66, 2686.21, -6900.48, 9425.75, 28556.30, 0.00, 0.000, 0.000, 0.000, 13:20:29.089
121, 0.00, 24267.31, 12580.34, 2675.59, -7201.44, 9412.88, 28539.09, 0.00, 0.000, 0.000, 0.000, 13:20:29.089
122, 0.00, 24258.64, 12568.16, 2739.63, -7498.65, 9401.01, 28560.34, 0.00, 0.000, 0.000, 0.000, 13:20:29.089
123, 0.00, 24263.69, 12572.34, 2813.70, -7315.48, 9413.19, 28597.00, 0.00, 0.000, 0.000, 0.000, 13:20:29.089
124, 0.00, 24272.54, 12584.21, 2767.06, -6971.73, 9427.21, 28591.75, 0.00, 0.034, -0.034, 0.992, 13:20:29.089
125, 0.00, 24273.52, 12586.29, 2686.75, -6904.50, 9423.83, 28554.44, 0.00, 0.000, 0.000, 0.000, 13:20:29.089
126, 0.00, 24270.35, 12582.98, 2679.19, -7201.22, 9414.78, 28542.08, 0.00, 0.000, 0.000, 0.000, 13:20:29.089
127, 0.00, 24264.47, 12576.99, 2749.44, -7489.71, 9408.14, 28569.22, 0.00, 0.000, 0.000, 0.000, 13:20:29.089
128, 0.00, 24261.52, 12577.64, 2819.29, -7304.15, 9408.21, 28596.40, 0.00, 0.000, 0.000, 0.000, 13:20:29.089
129, 0.00, 24270.44, 12585.84, 2764.82, -6969.65, 9420.66, 28589.91, 0.00, 0.000, 0.000, 0.000, 13:20:29.089
130, 0.00, 24272.50, 12587.16, 2684.91, -6905.39, 9419.65, 28554.44, 0.00, 0.000, 0.000, 0.000, 13:20:29.089
131, 0.00, 24273.95, 12588.90, 2681.47, -7204.97, 9411.40, 28546.44, 0.00, 0.000, 0.000, 0.000, 13:20:29.089
132, 0.00, 24273.97, 12587.81, 2754.14, -7490.65, 9405.46, 28576.86, 0.00, 0.000, 0.000, 0.000, 13:20:29.089
133, 0.00, 24268.61, 12583.38, 2821.19, -7303.41, 9407.42, 28601.58, 0.00, 0.000, 0.000, 0.000, 13:20:29.089
134, 0.00, 24269.52, 12582.20, 2766.63, -6965.76, 9411.16, 28587.30, 0.00, 0.032, -0.034, 0.990, 13:20:29.089
135, 0.00, 24275.25, 12589.08, 2689.16, -6904.70, 9414.46, 28556.32, 0.00, 0.000, 0.000, 0.000, 13:20:29.089
136, 0.00, 24271.42, 12586.18, 2681.99, -7208.59, 9405.14, 28542.37, 0.00, 0.000, 0.000, 0.000, 13:20:29.090
137, 0.00, 24267.04, 12582.98, 2751.68, -7498.36, 9395.44, 28569.35, 0.00, 0.000, 0.000, 0.000, 13:20:29.090
138, 0.00, 24263.67, 12577.86, 2815.83, -7313.92, 9399.85, 28596.89, 0.00, 0.000, 0.000, 0.000, 13:20:29.091
139, 0.00, 24268.49, 12581.86, 2760.40, -6979.13, 9411.63, 28587.79, 0.00, 0.000, 0.000, 0.000, 13:20:29.091
140, 0.00, 24270.95, 12585.33, 2679.44, -6913.75, 9411.27, 28552.38, 0.00, 0.000, 0.000, 0.000, 13:20:29.091
141, 0.00, 24269.46, 12586.42, 2672.24, -7218.25, 9402.35, 28540.49, 0.00, 0.000, 0.000, 0.000, 13:20:29.091
142, 0.00, 24264.81, 12577.68, 2745.64, -7503.39, 9397.08, 28567.63, 0.00, 0.000, 0.000, 0.000, 13:20:29.091
143, 0.00, 24259.76, 12571.54, 2808.92, -7314.30, 9399.15, 28593.47, 0.00, 0.000, 0.000, 0.000, 13:20:29.091
144, 0.00, 24268.85, 12593.29, 2767.77, -6971.82, 9417.55, 28589.27, 0.00, 0.036, -0.034, 0.994, 13:20:29.091
145, 0.00, 24276.47, 12594.18, 2694.10, -6907.74, 9420.46, 28557.17, 0.00, 0.000, 0.000, 0.000, 13:20:29.091
146, 0.00, 24272.07, 12588.50, 2688.09, -7210.38, 9407.40, 28542.80, 0.00, 0.000, 0.000, 0.000, 13:20:29.091
147, 0.00, 24262.57, 12580.52, 2752.04, -7496.46, 9394.13, 28566.22, 0.00, 0.000, 0.000, 0.000, 13:20:29.091
148, 0.00, 24266.86, 12583.90, 2819.20, -7308.51, 9408.09, 28601.83, 0.00, 0.000, 0.000, 0.000, 13:20:29.091
149, 0.00, 24272.45, 12589.35, 2770.70, -6971.73, 9417.57, 28592.42, 0.00, 0.000, 0.000, 0.000, 13:20:29.091
150, 0.00, 24280.72, 12598.47, 2695.80, -6909.35, 9417.30, 28559.65, 0.00, 0.000, 0.000, 0.000, 13:20:29.091
151, 0.00, 24275.02, 12591.74, 2684.35, -7217.87, 9405.68, 28545.63, 0.00, 0.000, 0.000, 0.000, 13:20:29.091
152, 0.00, 24261.16, 12572.01, 2745.98, -7504.69, 9390.71, 28564.37, 0.00, 0.000, 0.000, 0.000, 13:20:29.091
153, 0.00, 24273.55, 12588.86, 2815.63, -7306.20, 9409.03, 28605.38, 0.00, 0.000, 0.000, 0.000, 13:20:29.091
154, 0.00, 24275.36, 12593.69, 2762.76, -6972.09, 9414.71, 28592.28, 0.00, 0.034, -0.032, 0.996, 13:20:29.091
155, 0.00, 24276.41, 12598.07, 2689.54, -6910.87, 9411.76, 28555.52, 0.00, 0.000, 0.000, 0.000, 13:20:29.091
156, 0.00, 24270.33, 12599.97, 2687.71, -7215.01, 9403.47, 28544.63, 0.00, 0.000, 0.000, 0.000, 13:20:29.091
157, 0.00, 24262.64, 12587.41, 2754.47, -7495.77, 9391.98, 28567.94, 0.00, 0.000, 0.000, 0.000, 13:20:29.091
158, 0.00, 24263.49, 12584.03, 2815.43, -7307.88, 9396.58, 28597.74, 0.00, 0.000, 0.000, 0.000, 13:20:29.091
159, 0.00, 24273.81, 12599.88, 2770.25, -6968.87, 9416.75, 28594.41, 0.00, 0.000, 0.000, 0.000, 13:20:29.091
160, 0.00, 24274.89, 12600.62, 2693.74, -6911.05, 9414.26, 28556.90, 0.00, 0.000, 0.000, 0.000, 13:20:29.091
161, 0.00, 24272.16, 12599.37, 2689.65, -7217.18, 9405.21, 28545.37, 0.00, 0.000, 0.000, 0.000, 13:20:29.091
162, 0.00, 24263.44, 12586.02, 2753.53, -7496.82, 9390.84, 28568.72, 0.00, 0.000, 0.000, 0.000, 13:20:29.091
163, 0.00, 24265.99, 12588.41, 2817.01, -7302.40, 9399.40, 28601.40, 0.00, 0.000, 0.000, 0.000, 13:20:29.091
164, 0.00, 24270.42, 12590.16, 2759.90, -6968.60, 9412.03, 28590.03, 0.00, 0.038, -0.032, 0.994, 13:20:29.092
165, 0.00, 24275.20, 12590.13, 2679.66, -6913.60, 9413.41, 28557.62, 0.00, 0.000, 0.000, 0.000, 13:20:29.093
166, 0.00, 24270.62, 12592.82, 2680.04, -7212.91, 9401.21, 28545.63, 0.00, 0.000, 0.000, 0.000, 13:20:29.093
167, 0.00, 24269.72, 12600.62, 2760.37, -7482.18, 9401.10, 28574.78, 0.00, 0.000, 0.000, 0.000, 13:20:29.093
168, 0.00, 24268.25, 12594.07, 2820.99, -7286.98, 9404.61, 28601.83, 0.00, 0.000, 0.000, 0.000, 13:20:29.093
169, 0.00, 24272.99, 12596.84, 2761.98, -6955.50, 9413.91, 28589.65, 0.00, 0.000, 0.000, 0.000, 13:20:29.093
170, 0.00, 24274.57, 12601.94, 2681.09, -6907.25, 9413.21, 28553.86, 0.00, 0.000, 0.000, 0.000, 13:20:29.093
171, 0.00, 24278.06, 12607.41, 2682.72, -7216.71, 9409.97, 28549.93, 0.00, 0.000, 0.000, 0.000, 13:20:29.093
172, 0.00, 24269.01, 12598.74, 2758.70, -7490.31, 9400.72, 28573.82, 0.00, 0.000, 0.000, 0.000, 13:20:29.093
173, 0.00, 24267.22, 12597.38, 2819.14, -7293.40, 9405.19, 28601.25, 0.00, 0.000, 0.000, 0.000, 13:20:29.093
174, 0.00, 24270.98, 12600.10, 2757.65, -6965.36, 9410.78, 28589.91, 0.00, 0.034, -0.028, 0.994, 13:20:29.093
175, 0.00, 24274.53, 12603.10, 2679.04, -6912.25, 9409.44, 28555.20, 0.00, 0.000, 0.000, 0.000, 13:20:29.093
176, 0.00, 24269.93, 12598.45, 2677.40, -7220.42, 9400.47, 28542.73, 0.00, 0.000, 0.000, 0.000, 13:20:29.093
177, 0.00, 24267.45, 12598.61, 2755.50, -7486.40, 9396.58, 28572.66, 0.00, 0.000, 0.000, 0.000, 13:20:29.093
178, 0.00, 24263.55, 12592.66, 2810.80, -7296.77, 9399.04, 28597.80, 0.00, 0.000, 0.000, 0.000, 13:20:29.093
179, 0.00, 24270.26, 12603.43, 2759.75, -6962.59, 9410.40, 28589.33, 0.00, 0.000, 0.000, 0.000, 13:20:29.093
180, 0.00, 24276.86, 12609.65, 2688.31, -6908.07, 9416.34, 28557.41, 0.00, 0.000, 0.000, 0.000, 13:20:29.093
181, 0.00, 24269.97, 12605.69, 2688.49, -7219.41, 9403.02, 28542.51, 0.00, 0.000, 0.000, 0.000, 13:20:29.095
182, 0.00, 24264.90, 12599.41, 2759.05, -7497.07, 9396.14, 28569.75, 0.00, 0.000, 0.000, 0.000, 13:20:29.095
183, 0.00, 24261.99, 12590.20, 2813.06, -7295.65, 9399.98, 28594.50, 0.00, 0.000, 0.000, 0.000, 13:20:29.095
184, 0.00, 24276.14, 12611.81, 2763.15, -6961.67, 9419.56, 28593.94, 0.00, 0.032, -0.032, 0.988, 13:20:29.095
185, 0.00, 24276.65, 12609.47, 2683.68, -6914.82, 9413.84, 28556.95, 0.00, 0.000, 0.000, 0.000, 13:20:29.095
186, 0.00, 24273.37, 12605.69, 2682.52, -7222.61, 9401.17, 28546.39, 0.00, 0.000, 0.000, 0.000, 13:20:29.095
187, 0.00, 24265.63, 12598.56, 2755.77, -7491.59, 9397.14, 28572.30, 0.00, 0.000, 0.000, 0.000, 13:20:29.095
188, 0.00, 24264.14, 12598.83, 2820.07, -7286.04, 9403.22, 28599.12, 0.00, 0.000, 0.000, 0.000, 13:20:29.095
189, 0.00, 24268.65, 12602.05, 2763.06, -6951.26, 9411.11, 28586.09, 0.00, 0.000, 0.000, 0.000, 13:20:29.095
190, 0.00, 24276.38, 12607.63, 2683.51, -6910.38, 9414.31, 28555.09, 0.00, 0.000, 0.000, 0.000, 13:20:29.095
191, 0.00, 24272.18, 12607.97, 2683.01, -7220.33, 9405.08, 28543.98, 0.00, 0.000, 0.000, 0.000, 13:20:29.095
192, 0.00, 24267.56, 12603.10, 2754.58, -7487.25, 9396.38, 28572.41, 0.00, 0.000, 0.000, 0.000, 13:20:29.095
193, 0.00, 24266.93, 12600.71, 2810.87, -7284.48, 9401.66, 28599.48, 0.00, 0.000, 0.000, 0.000, 13:20:29.095
194, 0.00, 24270.26, 12605.67, 2750.74, -6960.02, 9408.05, 28586.07, 0.00, 0.032, -0.034, 0.990, 13:20:29.095
195, 0.00, 24267.98, 12606.25, 2671.37, -6921.02, 9400.92, 28546.71, 0.00, 0.000, 0.000, 0.000, 13:20:29.095
196, 0.00, 24275.42, 12614.72, 2679.08, -7221.40, 9404.63, 28546.06, 0.00, 0.000, 0.000, 0.000, 13:20:29.095
197, 0.00, 24265.37, 12600.97, 2748.64, -7488.12, 9393.52, 28568.66, 0.00, 0.000, 0.000, 0.000, 13:20:29.095
198, 0.00, 24261.21, 12595.21, 2798.57, -7294.00, 9395.89, 28592.08, 0.00, 0.000, 0.000, 0.000, 13:20:29.096
199, 0.00, 24274.91, 12610.16, 2746.38, -6958.23, 9412.95, 28587.75, 0.00, 0.000, 0.000, 0.000, 13:20:29.096
200, 0.00, 24282.33, 12622.12, 2672.80, -6915.63, 9417.33, 28557.55, 0.00, 0.000, 0.000, 0.000, 13:20:29.097
201, 0.00, 24274.46, 12613.60, 2666.32, -7232.22, 9401.12, 28543.65, 0.00, 0.000, 0.000, 0.000, 13:20:29.097
202, 0.00, 24264.72, 12599.19, 2731.67, -7501.40, 9391.22, 28567.83, 0.00, 0.000, 0.000, 0.000, 13:20:29.097
203, 0.00, 24265.68, 12602.99, 2792.43, -7294.36, 9397.08, 28596.60, 0.00, 0.000, 0.000, 0.000, 13:20:29.097
204, 0.00, 24269.59, 12608.93, 2738.49, -6960.33, 9407.98, 28583.34, 0.00, 0.028, -0.030, 0.990, 13:20:29.097
205, 0.00, 24270.33, 12608.89, 2655.52, -6924.15, 9404.72, 28545.57, 0.00, 0.000, 0.000, 0.000, 13:20:29.097
206, 0.00, 24273.14, 12618.88, 2663.75, -7231.62, 9402.06, 28542.82, 0.00, 0.000, 0.000, 0.000, 13:20:29.097
207, 0.00, 24267.47, 12612.13, 2744.68, -7485.87, 9396.43, 28569.57, 0.00, 0.000, 0.000, 0.000, 13:20:29.097
208, 0.00, 24262.91, 12607.08, 2796.05, -7282.35, 9398.28, 28592.82, 0.00, 0.000, 0.000, 0.000, 13:20:29.097
209, 0.00, 24273.46, 12619.28, 2741.91, -6958.03, 9412.52, 28587.23, 0.00, 0.000, 0.000, 0.000, 13:20:29.097
210, 0.00, 24277.75, 12619.28, 2667.77, -6920.37, 9411.25, 28554.78, 0.00, 0.000, 0.000, 0.000, 13:20:29.097
211, 0.00, 24273.39, 12610.14, 2668.71, -7234.59, 9398.48, 28542.44, 0.00, 0.000, 0.000, 0.000, 13:20:29.567
212, 0.00, 24260.89, 12599.54, 2740.64, -7499.46, 9386.41, 28564.61, 0.00, 0.000, 0.000, 0.000, 13:20:29.567
213, 0.00, 24260.45, 12601.49, 2799.40, -7288.95, 9392.40, 28592.60, 0.00, 0.000, 0.000, 0.000, 13:20:29.567
214, 0.00, 24271.71, 12614.99, 2741.55, -6962.10, 9412.86, 28585.85, 0.00, 0.026, -0.032, 0.992, 13:20:29.567
215, 0.00, 24277.55, 12620.20, 2664.64, -6926.07, 9414.91, 28555.00, 0.00, 0.000, 0.000, 0.000, 13:20:29.567
216, 0.00, 24271.02, 12615.64, 2663.57, -7235.26, 9399.82, 28541.30, 0.00, 0.000, 0.000, 0.000, 13:20:29.567
217, 0.00, 24264.18, 12613.67, 2740.75, -7494.32, 9392.74, 28568.99, 0.00, 0.000, 0.000, 0.000, 13:20:29.567
218, 0.00, 24258.93, 12608.86, 2795.73, -7286.98, 9395.51, 28592.04, 0.00, 0.000, 0.000, 0.000, 13:20:29.567
219, 0.00, 24265.68, 12609.69, 2735.67, -6963.33, 9405.52, 28579.97, 0.00, 0.000, 0.000, 0.000, 13:20:29.567
220, 0.00, 24276.54, 12623.13, 2672.62, -6913.15, 9415.45, 28553.03, 0.00, 0.000, 0.000, 0.000, 13:20:29.567
221, 0.00, 24269.99, 12619.15, 2672.11, -7228.78, 9402.53, 28541.70, 0.00, 0.000, 0.000, 0.000, 13:20:29.567
222, 0.00, 24263.00, 12614.00, 2748.80, -7484.10, 9394.19, 28569.51, 0.00, 0.000, 0.000, 0.000, 13:20:29.567
223, 0.00, 24255.55, 12606.61, 2797.21, -7281.59, 9395.24, 28589.40, 0.00, 0.000, 0.000, 0.000, 13:20:29.567
224, 0.00, 24275.09, 12623.97, 2745.26, -6955.86, 9413.73, 28587.81, 0.00, 0.026, -0.032, 0.994, 13:20:29.567
225, 0.00, 24276.47, 12626.37, 2668.98, -6924.41, 9411.13, 28553.23, 0.00, 0.000, 0.000, 0.000, 13:20:29.567
226, 0.00, 24267.78, 12614.83, 2663.46, -7239.04, 9391.67, 28538.84, 0.00, 0.000, 0.000, 0.000, 13:20:29.567
227, 0.00, 24260.27, 12607.81, 2733.08, -7498.16, 9383.55, 28564.52, 0.00, 0.000, 0.000, 0.000, 13:20:29.567
228, 0.00, 24256.36, 12601.26, 2784.94, -7282.29, 9390.50, 28587.28, 0.00, 0.000, 0.000, 0.000, 13:20:29.567
229, 0.00, 24268.36, 12613.11, 2724.66, -6954.83, 9411.00, 28581.17, 0.00, 0.000, 0.000, 0.000, 13:20:29.567
230, 0.00, 24277.03, 12623.24, 2654.25, -6920.41, 9413.79, 28553.64, 0.00, 0.000, 0.000, 0.000, 13:20:29.567
231, 0.00, 24271.49, 12619.73, 2652.48, -7241.41, 9403.56, 28542.37, 0.00, 0.000, 0.000, 0.000, 13:20:29.568
232, 0.00, 24262.01, 12615.50, 2734.58, -7492.82, 9395.13, 28566.27, 0.00, 0.000, 0.000, 0.000, 13:20:29.568
233, 0.00, 24259.78, 12617.60, 2797.07, -7271.33, 9397.46, 28591.21, 0.00, 0.000, 0.000, 0.000, 13:20:29.568
234, 0.00, 24265.19, 12624.91, 2737.44, -6943.77, 9408.16, 28577.80, 0.00, 0.030, -0.030, 1.000, 13:20:29.568
235, 0.00, 24264.85, 12622.10, 2653.73, -6920.84, 9404.45, 28538.73, 0.00, 0.000, 0.000, 0.000, 13:20:29.568
236, 0.00, 24264.14, 12622.12, 2651.30, -7248.09, 9394.95, 28533.25, 0.00, 0.000, 0.000, 0.000, 13:20:29.568
237, 0.00, 24259.15, 12615.39, 2724.92, -7501.40, 9389.74, 28563.32, 0.00, 0.000, 0.000, 0.000, 13:20:29.568
238, 0.00, 24257.48, 12608.80, 2779.42, -7276.50, 9392.11, 28588.86, 0.00, 0.000, 0.000, 0.000, 13:20:29.568
239, 0.00, 24271.51, 12622.63, 2721.26, -6952.17, 9407.76, 28582.90, 0.00, 0.000, 0.000, 0.000, 13:20:29.568
240, 0.00, 24275.76, 12626.68, 2649.22, -6926.51, 9406.53, 28550.51, 0.00, 0.000, 0.000, 0.000, 13:20:29.568
241, 0.00, 24271.15, 12623.17, 2654.18, -7240.78, 9398.86, 28541.19, 0.00, 0.000, 0.000, 0.000, 13:20:29.568
242, 0.00, 24263.35, 12612.75, 2727.05, -7491.75, 9392.16, 28567.72, 0.00, 0.000, 0.000, 0.000, 13:20:29.568
243, 0.00, 24259.64, 12612.26, 2781.52, -7271.89, 9396.32, 28592.19, 0.00, 0.000, 0.000, 0.000, 13:20:29.568
244, 0.00, 24265.46, 12612.73, 2714.35, -6955.57, 9398.28, 28576.55, 0.00, 0.028, -0.030, 0.994, 13:20:29.568
245, 0.00, 24273.75, 12626.92, 2645.02, -6930.49, 9403.38, 28547.60, 0.00, 0.000, 0.000, 0.000, 13:20:29.569
246, 0.00, 24270.22, 12623.84, 2650.22, -7250.15, 9393.61, 28539.67, 0.00, 0.000, 0.000, 0.000, 13:20:29.569
247, 0.00, 24262.04, 12616.71, 2721.82, -7501.60, 9387.33, 28566.02, 0.00, 0.000, 0.000, 0.000, 13:20:29.569
248, 0.00, 24262.28, 12610.76, 2774.79, -7277.77, 9390.95, 28592.95, 0.00, 0.000, 0.000, 0.000, 13:20:29.569
249, 0.00, 24269.10, 12620.15, 2714.73, -6954.14, 9401.50, 28582.07, 0.00, 0.000, 0.000, 0.000, 13:20:29.569
250, 0.00, 24274.66, 12631.95, 2646.74, -6930.00, 9404.47, 28550.69, 0.00, 0.000, 0.000, 0.000, 13:20:29.569
251, 0.00, 24267.73, 12621.40, 2658.27, -7245.34, 9392.27, 28537.97, 0.00, 0.000, 0.000, 0.000, 13:20:29.569
252, 0.00, 24262.04, 12609.36, 2723.74, -7503.79, 9386.41, 28566.45, 0.00, 0.000, 0.000, 0.000, 13:20:29.569
253, 0.00, 24263.85, 12615.88, 2783.19, -7274.91, 9393.01, 28595.08, 0.00, 0.000, 0.000, 0.000, 13:20:29.569
254, 0.00, 24267.11, 12617.98, 2719.31, -6950.61, 9395.31, 28577.40, 0.00, 0.028, -0.028, 0.994, 13:20:29.569
255, 0.00, 24270.22, 12627.35, 2651.63, -6927.99, 9402.01, 28546.64, 0.00, 0.000, 0.000, 0.000, 13:20:29.569
0, 0.00, 24270.22, 12627.33, 2656.08, -7253.52, 9395.56, 28539.24, 0.00, 0.000, 0.000, 0.000, 13:20:29.569
1, 0.00, 24266.42, 12621.60, 2733.48, -7495.90, 9389.88, 28570.54, 0.00, 0.000, 0.000, 0.000, 13:20:29.569
2, 0.00, 24269.61, 12628.36, 2790.35, -7270.22, 9400.81, 28601.49, 0.00, 0.000, 0.000, 0.000, 13:20:29.569
3, 0.00, 24267.18, 12626.10, 2725.97, -6949.58, 9402.35, 28581.78, 0.00, 0.000, 0.000, 0.000, 13:20:29.570
4, 0.00, 24273.81, 12630.50, 2650.94, -6929.62, 9403.24, 28549.50, 0.00, 0.000, 0.000, 0.000, 13:20:29.570
5, 0.00, 24273.08, 12634.81, 2657.89, -7251.04, 9397.88, 28546.87, 0.00, 0.000, 0.000, 0.000, 13:20:29.570
6, 0.00, 24266.46, 12622.14, 2731.18, -7501.96, 9387.49, 28571.94, 0.00, 0.000, 0.000, 0.000, 13:20:29.570
7, 0.00, 24262.73, 12607.48, 2779.31, -7275.65, 9386.35, 28594.63, 0.00, 0.000, 0.000, 0.000, 13:20:29.570
8, 0.00, 24271.49, 12625.27, 2717.03, -6959.26, 9401.79, 28584.51, 0.00, 0.034, -0.030, 0.992, 13:20:29.570
9, 0.00, 24278.15, 12633.16, 2650.63, -6938.00, 9406.93, 28554.42, 0.00, 0.000, 0.000, 0.000, 13:20:29.570
10, 0.00, 24269.34, 12621.43, 2651.52, -7260.79, 9389.65, 28540.76, 0.00, 0.000, 0.000, 0.000, 13:20:29.570
11, 0.00, 24264.14, 12616.13, 2730.13, -7505.94, 9383.75, 28569.51, 0.00, 0.000, 0.000, 0.000, 13:20:29.570
12, 0.00, 24265.84, 12619.28, 2791.82, -7270.80, 9391.53, 28597.54, 0.00, 0.000, 0.000, 0.000, 13:20:29.570
13, 0.00, 24266.82, 12626.03, 2733.24, -6945.18, 9400.23, 28583.54, 0.00, 0.000, 0.000, 0.000, 13:20:29.570
14, 0.00, 24268.47, 12623.82, 2651.52, -6934.27, 9398.71, 28545.61, 0.00, 0.000, 0.000, 0.000, 13:20:29.570
15, 0.00, 24274.96, 12628.22, 2659.25, -7246.14, 9398.44, 28544.88, 0.00, 0.000, 0.000, 0.000, 13:20:29.572
16, 0.00, 24267.15, 12622.83, 2730.56, -7490.40, 9393.16, 28572.66, 0.00, 0.000, 0.000, 0.000, 13:20:29.572
17, 0.00, 24262.17, 12620.31, 2779.64, -7263.29, 9393.97, 28594.99, 0.00, 0.000, 0.000, 0.000, 13:20:29.572
18, 0.00, 24263.51, 12626.03, 2712.79, -6948.08, 9402.31, 28579.16, 0.00, 0.032, -0.032, 0.990, 13:20:29.572
19, 0.00, 24273.55, 12632.02, 2641.55, -6934.23, 9401.39, 28548.59, 0.00, 0.000, 0.000, 0.000, 13:20:29.572
20, 0.00, 24274.24, 12640.04, 2659.34, -7254.50, 9394.95, 28544.61, 0.00, 0.000, 0.000, 0.000, 13:20:29.572
21, 0.00, 24255.93, 12623.44, 2730.00, -7502.45, 9379.60, 28562.60, 0.00, 0.000, 0.000, 0.000, 13:20:29.572
22, 0.00, 24260.16, 12618.34, 2775.33, -7275.07, 9388.13, 28592.11, 0.00, 0.000, 0.000, 0.000, 13:20:29.572
23, 0.00, 24272.79, 12626.75, 2714.19, -6950.54, 9401.46, 28584.17, 0.00, 0.000, 0.000, 0.000, 13:20:29.572
24, 0.00, 24268.94, 12636.47, 2644.26, -6939.37, 9400.00, 28546.71, 0.00, 0.000, 0.000, 0.000, 13:20:29.572
25, 0.00, 24267.82, 12633.92, 2650.89, -7264.47, 9392.05, 28540.88, 0.00, 0.000, 0.000, 0.000, 13:20:29.572
26, 0.00, 24262.13, 12629.45, 2732.41, -7498.83, 9385.85, 28571.70, 0.00, 0.000, 0.000, 0.000, 13:20:29.572
27, 0.00, 24260.78, 12626.97, 2783.42, -7259.85, 9393.16, 28594.90, 0.00, 0.000, 0.000, 0.000, 13:20:29.572
28, 0.00, 24274.29, 12638.82, 2715.69, -6942.29, 9404.45, 28585.42, 0.00, 0.026, -0.030, 0.992, 13:20:29.572
29, 0.00, 24272.45, 12636.58, 2635.83, -6937.96, 9399.76, 28547.18, 0.00, 0.000, 0.000, 0.000, 13:20:29.572
30, 0.00, 24270.10, 12628.80, 2639.34, -7264.00, 9391.17, 28541.63, 0.00, 0.000, 0.000, 0.000, 13:20:29.572
31, 0.00, 24256.56, 12615.12, 2710.57, -7501.87, 9381.14, 28566.45, 0.00, 0.000, 0.000, 0.000, 13:20:29.572
32, 0.00, 24264.81, 12626.41, 2768.13, -7259.78, 9392.31, 28596.40, 0.00, 0.000, 0.000, 0.000, 13:20:29.572
33, 0.00, 24275.29, 12639.29, 2709.99, -6939.46, 9409.01, 28587.90, 0.00, 0.000, 0.000, 0.000, 13:20:29.572
34, 0.00, 24271.38, 12636.80, 2629.48, -6940.08, 9403.78, 28547.76, 0.00, 0.000, 0.000, 0.000, 13:20:29.572
35, 0.00, 24260.89, 12626.48, 2632.70, -7266.17, 9386.41, 28532.40, 0.00, 0.000, 0.000, 0.000, 13:20:29.572
36, 0.00, 24261.57, 12631.60, 2718.17, -7490.70, 9389.39, 28571.29, 0.00, 0.000, 0.000, 0.000, 13:20:29.572
37, 0.00, 24265.30, 12630.77, 2767.91, -7251.93, 9395.47, 28597.78, 0.00, 0.000, 0.000, 0.000, 13:20:29.572
38, 0.00, 24268.74, 12629.61, 2700.16, -6936.91, 9399.85, 28580.37, 0.00, 0.028, -0.032, 0.998, 13:20:29.572
39, 0.00, 24272.81, 12638.73, 2623.22, -6943.12, 9398.71, 28547.76, 0.00, 0.000, 0.000, 0.000, 13:20:29.572
40, 0.00, 24272.18, 12637.18, 2634.91, -7269.12, 9391.78, 28543.85, 0.00, 0.000, 0.000, 0.000, 13:20:29.573
41, 0.00, 24263.06, 12628.18, 2712.54, -7499.39, 9384.74, 28569.62, 0.00, 0.000, 0.000, 0.000, 13:20:29.573
42, 0.00, 24262.95, 12629.88, 2762.45, -7260.23, 9393.07, 28596.35, 0.00, 0.000, 0.000, 0.000, 13:20:29.573
43, 0.00, 24271.33, 12638.99, 2701.74, -6942.76, 9402.28, 28582.58, 0.00, 0.000, 0.000, 0.000, 13:20:29.573
44, 0.00, 24271.98, 12641.03, 2628.92, -6943.70, 9399.67, 28546.82, 0.00, 0.000, 0.000, 0.000, 13:20:29.573
45, 0.00, 24266.42, 12636.71, 2638.36, -7273.41, 9388.20, 28537.88, 0.00, 0.000, 0.000, 0.000, 13:20:29.573
46, 0.00, 24264.03, 12633.41, 2721.86, -7497.53, 9385.65, 28572.81, 0.00, 0.000, 0.000, 0.000, 13:20:29.575
47, 0.00, 24256.31, 12628.78, 2768.64, -7257.66, 9388.87, 28592.19, 0.00, 0.000, 0.000, 0.000, 13:20:29.575
48, 0.00, 24266.75, 12634.64, 2705.50, -6942.14, 9396.87, 28577.71, 0.00, 0.028, -0.034, 0.996, 13:20:29.575
49, 0.00, 24274.24, 12642.59, 2636.68, -6941.62, 9400.54, 28548.18, 0.00, 0.000, 0.000, 0.000, 13:20:29.575
50, 0.00, 24270.17, 12640.20, 2646.42, -7271.69, 9390.15, 28540.45, 0.00, 0.000, 0.000, 0.000, 13:20:29.575
51, 0.00, 24260.34, 12630.81, 2725.44, -7498.25, 9383.49, 28567.34, 0.00, 0.000, 0.000, 0.000, 13:20:29.575
52, 0.00, 24251.06, 12614.27, 2767.06, -7258.37, 9384.92, 28585.78, 0.00, 0.000, 0.000, 0.000, 13:20:29.575
53, 0.00, 24265.01, 12633.27, 2703.89, -6940.91, 9396.74, 28576.97, 0.00, 0.000, 0.000, 0.000, 13:20:29.575
54, 0.00, 24272.29, 12643.91, 2632.05, -6947.88, 9396.02, 28546.93, 0.00, 0.000, 0.000, 0.000, 13:20:29.575
55, 0.00, 24273.86, 12644.76, 2640.26, -7277.86, 9391.04, 28545.17, 0.00, 0.000, 0.000, 0.000, 13:20:29.575
56, 0.00, 24259.55, 12628.24, 2711.53, -7504.17, 9377.74, 28566.49, 0.00, 0.000, 0.000, 0.000, 13:20:29.575
57, 0.00, 24252.29, 12623.80, 2757.87, -7258.75, 9381.21, 28585.38, 0.00, 0.000, 0.000, 0.000, 13:20:29.575
58, 0.00, 24263.38, 12635.91, 2696.11, -6943.66, 9396.81, 28575.86, 0.00, 0.036, -0.034, 0.994, 13:20:29.575
59, 0.00, 24275.47, 12645.10, 2627.69, -6947.55, 9399.00, 28549.23, 0.00, 0.000, 0.000, 0.000, 13:20:29.575
60, 0.00, 24269.17, 12637.30, 2635.45, -7280.34, 9388.69, 28541.99, 0.00, 0.000, 0.000, 0.000, 13:20:29.575
61, 0.00, 24259.55, 12628.89, 2714.57, -7505.22, 9380.36, 28569.44, 0.00, 0.000, 0.000, 0.000, 13:20:29.576
62, 0.00, 24256.85, 12627.68, 2762.90, -7257.14, 9384.36, 28592.02, 0.00, 0.000, 0.000, 0.000, 13:20:29.576
63, 0.00, 24266.97, 12635.24, 2699.00, -6944.26, 9395.64, 28579.30, 0.00, 0.000, 0.000, 0.000, 13:20:29.576
64, 0.00, 24270.80, 12640.27, 2631.65, -6948.17, 9394.55, 28547.22, 0.00, 0.000, 0.000, 0.000, 13:20:29.576
65, 0.00, 24267.78, 12638.95, 2644.03, -7277.97, 9387.60, 28541.25, 0.00, 0.000, 0.000, 0.000, 13:20:29.576
66, 0.00, 24257.25, 12622.14, 2715.40, -7510.50, 9376.94, 28566.18, 0.00, 0.000, 0.000, 0.000, 13:20:29.576
67, 0.00, 24262.73, 12636.31, 2772.40, -7257.99, 9389.74, 28597.07, 0.00, 0.000, 0.000, 0.000, 13:20:29.576
68, 0.00, 24264.79, 12637.65, 2705.83, -6947.84, 9396.94, 28580.08, 0.00, 0.028, -0.028, 0.992, 13:20:29.576
69, 0.00, 24270.73, 12645.41, 2635.99, -6954.83, 9398.60, 28547.80, 0.00, 0.000, 0.000, 0.000, 13:20:29.576
70, 0.00, 24274.46, 12643.82, 2654.34, -7280.39, 9392.83, 28547.38, 0.00, 0.000, 0.000, 0.000, 13:20:29.576
71, 0.00, 24260.25, 12625.90, 2729.80, -7503.52, 9379.48, 28571.21, 0.00, 0.000, 0.000, 0.000, 13:20:29.576
72, 0.00, 24260.45, 12626.90, 2777.27, -7258.82, 9382.32, 28593.27, 0.00, 0.000, 0.000, 0.000, 13:20:29.576
73, 0.00, 24267.71, 12643.60, 2720.10, -6947.10, 9395.82, 28579.34, 0.00, 0.000, 0.000, 0.000, 13:20:29.576
74, 0.00, 24272.18, 12645.75, 2649.78, -6961.83, 9396.20, 28547.54, 0.00, 0.000, 0.000, 0.000, 13:20:29.576
75, 0.00, 24266.97, 12642.50, 2661.82, -7291.07, 9386.48, 28541.75, 0.00, 0.000, 0.000, 0.000, 13:20:30.047
76, 0.00, 24257.59, 12628.87, 2740.08, -7505.74, 9378.03, 28569.24, 0.00, 0.000, 0.000, 0.000, 13:20:30.047
77, 0.00, 24267.40, 12638.88, 2792.78, -7246.82, 9390.35, 28601.49, 0.00, 0.000, 0.000, 0.000, 13:20:30.047
78, 0.00, 24274.48, 12646.57, 2728.07, -6939.93, 9401.95, 28586.79, 0.00, 0.032, -0.024, 0.986, 13:20:30.047
79, 0.00, 24275.38, 12649.54, 2655.07, -6951.21, 9398.30, 28551.13, 0.00, 0.000, 0.000, 0.000, 13:20:30.047
80, 0.00, 24265.97, 12639.67, 2661.24, -7289.55, 9380.33, 28540.67, 0.00, 0.000, 0.000, 0.000, 13:20:30.048
81, 0.00, 24257.97, 12628.51, 2734.13, -7512.89, 9375.26, 28567.96, 0.00, 0.000, 0.000, 0.000, 13:20:30.048
82, 0.00, 24260.61, 12623.39, 2779.01, -7255.73, 9384.65, 28593.09, 0.00, 0.000, 0.000, 0.000, 13:20:30.048
83, 0.00, 24269.12, 12643.11, 2717.77, -6941.98, 9398.24, 28581.82, 0.00, 0.000, 0.000, 0.000, 13:20:30.049
84, 0.00, 24265.72, 12644.14, 2644.90, -6955.35, 9395.02, 28545.99, 0.00, 0.000, 0.000, 0.000, 13:20:30.049
85, 0.00, 24266.86, 12642.46, 2652.59, -7292.41, 9387.00, 28543.36, 0.00, 0.000, 0.000, 0.000, 13:20:30.049
86, 0.00, 24258.77, 12636.58, 2732.48, -7505.67, 9379.82, 28571.52, 0.00, 0.000, 0.000, 0.000, 13:20:30.049
87, 0.00, 24257.45, 12631.40, 2778.12, -7249.63, 9383.31, 28592.60, 0.00, 0.000, 0.000, 0.000, 13:20:30.049
88, 0.00, 24270.37, 12643.29, 2711.24, -6935.17, 9397.28, 28582.45, 0.00, 0.026, -0.028, 0.990, 13:20:30.049
89, 0.00, 24276.59, 12652.61, 2641.08, -6956.18, 9399.00, 28551.65, 0.00, 0.000, 0.000, 0.000, 13:20:30.049
90, 0.00, 24264.36, 12640.83, 2648.88, -7298.07, 9379.98, 28540.40, 0.00, 0.000, 0.000, 0.000, 13:20:30.049
91, 0.00, 24259.96, 12634.01, 2728.88, -7509.25, 9371.80, 28570.29, 0.00, 0.000, 0.000, 0.000, 13:20:30.049
92, 0.00, 24264.31, 12637.00, 2777.16, -7249.36, 9390.79, 28599.03, 0.00, 0.000, 0.000, 0.000, 13:20:30.049
93, 0.00, 24270.95, 12643.51, 2706.97, -6940.26, 9400.88, 28583.77, 0.00, 0.000, 0.000, 0.000, 13:20:30.049
94, 0.00, 24272.52, 12648.72, 2632.61, -6961.88, 9395.09, 28549.79, 0.00, 0.000, 0.000, 0.000, 13:20:30.049
95, 0.00, 24265.79, 12641.54, 2643.09, -7302.40, 9381.61, 28540.27, 0.00, 0.000, 0.000, 0.000, 13:20:30.050
96, 0.00, 24265.61, 12643.22, 2734.47, -7504.13, 9382.46, 28576.97, 0.00, 0.000, 0.000, 0.000, 13:20:30.050
97, 0.00, 24259.29, 12634.41, 2772.04, -7250.70, 9382.55, 28595.70, 0.00, 0.000, 0.000, 0.000, 13:20:30.050
98, 0.00, 24273.52, 12648.87, 2706.37, -6946.72, 9399.20, 28585.24, 0.00, 0.028, -0.030, 0.994, 13:20:30.050
99, 0.00, 24272.56, 12652.18, 2631.78, -6968.85, 9394.93, 28549.53, 0.00, 0.000, 0.000, 0.000, 13:20:30.050
100, 0.00, 24268.61, 12645.43, 2641.84, -7304.91, 9382.55, 28543.82, 0.00, 0.000, 0.000, 0.000, 13:20:30.050
101, 0.00, 24260.49, 12631.22, 2719.25, -7511.91, 9373.96, 28570.83, 0.00, 0.000, 0.000, 0.000, 13:20:30.050
102, 0.00, 24254.90, 12631.82, 2763.90, -7254.75, 9379.66, 28591.12, 0.00, 0.000, 0.000, 0.000, 13:20:30.050
103, 0.00, 24262.39, 12640.72, 2697.59, -6949.51, 9390.93, 28574.76, 0.00, 0.000, 0.000, 0.000, 13:20:30.051
104, 0.00, 24271.15, 12647.20, 2629.88, -6970.82, 9393.81, 28544.83, 0.00, 0.000, 0.000, 0.000, 13:20:30.051
105, 0.00, 24270.02, 12642.50, 2647.97, -7300.57, 9387.44, 28543.47, 0.00, 0.000, 0.000, 0.000, 13:20:30.051
106, 0.00, 24260.76, 12638.88, 2730.67, -7503.37, 9379.64, 28571.68, 0.00, 0.000, 0.000, 0.000, 13:20:30.051
107, 0.00, 24262.68, 12634.17, 2773.76, -7241.21, 9385.72, 28594.94, 0.00, 0.000, 0.000, 0.000, 13:20:30.052
108, 0.00, 24269.63, 12649.43, 2705.28, -6935.79, 9396.90, 28580.19, 0.00, 0.028, -0.026, 0.996, 13:20:30.052
109, 0.00, 24273.79, 12654.17, 2634.89, -6964.71, 9395.11, 28548.81, 0.00, 0.000, 0.000, 0.000, 13:20:30.052
110, 0.00, 24268.27, 12649.57, 2649.31, -7298.76, 9384.63, 28544.50, 0.00, 0.000, 0.000, 0.000, 13:20:30.052
111, 0.00, 24262.39, 12639.73, 2724.28, -7508.98, 9376.40, 28574.18, 0.00, 0.000, 0.000, 0.000, 13:20:30.052
112, 0.00, 24262.21, 12638.95, 2768.60, -7246.57, 9383.53, 28597.09, 0.00, 0.000, 0.000, 0.000, 13:20:30.053
113, 0.00, 24261.57, 12641.19, 2697.10, -6944.62, 9387.87, 28576.01, 0.00, 0.000, 0.000, 0.000, 13:20:30.053
114, 0.00, 24265.95, 12640.98, 2623.71, -6975.02, 9385.72, 28541.23, 0.00, 0.000, 0.000, 0.000, 13:20:30.053
115, 0.00, 24258.57, 12637.97, 2636.66, -7311.34, 9372.78, 28532.87, 0.00, 0.000, 0.000, 0.000, 13:20:30.053
116, 0.00, 24269.61, 12645.61, 2727.20, -7503.82, 9381.38, 28578.36, 0.00, 0.000, 0.000, 0.000, 13:20:30.053
117, 0.00, 24267.91, 12649.81, 2769.96, -7241.50, 9390.03, 28602.52, 0.00, 0.000, 0.000, 0.000, 13:20:30.053
118, 0.00, 24269.17, 12647.38, 2691.98, -6948.02, 9392.96, 28580.91, 0.00, 0.030, -0.030, 0.998, 13:20:30.053
119, 0.00, 24275.92, 12655.38, 2625.91, -6972.13, 9393.12, 28550.37, 0.00, 0.000, 0.000, 0.000, 13:20:30.053
120, 0.00, 24267.60, 12646.26, 2640.17, -7302.78, 9380.20, 28541.46, 0.00, 0.000, 0.000, 0.000, 13:20:30.053
121, 0.00, 24259.49, 12633.63, 2721.50, -7499.10, 9374.12, 28569.75, 0.00, 0.000, 0.000, 0.000, 13:20:30.053
122, 0.00, 24254.75, 12639.93, 2763.99, -7240.49, 9379.44, 28591.61, 0.00, 0.000, 0.000, 0.000, 13:20:30.054
123, 0.00, 24269.03, 12642.55, 2687.42, -6946.43, 9387.31, 28576.53, 0.00, 0.000, 0.000, 0.000, 13:20:30.054
124, 0.00, 24272.85, 12650.71, 2624.14, -6972.83, 9392.85, 28548.05, 0.00, 0.000, 0.000, 0.000, 13:20:30.054
125, 0.00, 24271.71, 12654.01, 2647.52, -7305.73, 9386.59, 28546.64, 0.00, 0.000, 0.000, 0.000, 13:20:30.054
126, 0.00, 24262.28, 12646.91, 2731.07, -7498.72, 9380.92, 28573.96, 0.00, 0.000, 0.000, 0.000, 13:20:30.054
127, 0.00, 24259.26, 12643.29, 2766.88, -7239.33, 9383.49, 28593.07, 0.00, 0.026, -0.034, 0.994, 13:20:30.054
128, 0.00, 24266.19, 12651.38, 2694.53, -6941.45, 9394.42, 28577.06, 0.00, 0.000, 0.000, 0.000, 13:20:30.054
129, 0.00, 24265.68, 12653.01, 2623.00, -6971.73, 9390.68, 28541.37, 0.00, 0.000, 0.000, 0.000, 13:20:30.054
130, 0.00, 24265.63, 12647.38, 2637.24, -7308.08, 9377.00, 28538.28, 0.00, 0.000, 0.000, 0.000, 13:20:30.055
131, 0.00, 24260.25, 12643.91, 2723.09, -7495.28, 9375.60, 28571.99, 0.00, 0.000, 0.000, 0.000, 13:20:30.055
132, 0.00, 24261.68, 12642.77, 2762.27, -7232.33, 9382.03, 28595.26, 0.00, 0.000, 0.000, 0.000, 13:20:30.055
133, 0.00, 24268.94, 12650.37, 2692.87, -6935.12, 9389.50, 28578.36, 0.00, 0.000, 0.000, 0.000, 13:20:30.055
134, 0.00, 24267.27, 12641.39, 2614.84, -6978.13, 9381.90, 28539.18, 0.00, 0.000, 0.000, 0.000, 13:20:30.055
135, 0.00, 24274.73, 12662.62, 2645.42, -7307.97, 9385.79, 28548.45, 0.00, 0.000, 0.000, 0.000, 13:20:30.055
136, 0.00, 24262.35, 12646.93, 2728.50, -7501.00, 9375.30, 28574.31, 0.00, 0.000, 0.000, 0.000, 13:20:30.056
137, 0.00, 24255.82, 12641.61, 2764.64, -7237.56, 9378.05, 28591.66, 0.00, 0.032, -0.034, 0.990, 13:20:30.056
138, 0.00, 24270.55, 12653.28, 2691.37, -6943.19, 9393.45, 28579.23, 0.00, 0.000, 0.000, 0.000, 13:20:30.056
139, 0.00, 24276.18, 12654.95, 2622.89, -6978.71, 9395.02, 28548.61, 0.00, 0.000, 0.000, 0.000, 13:20:30.056
140, 0.00, 24269.32, 12655.09, 2643.79, -7311.08, 9382.03, 28542.73, 0.00, 0.000, 0.000, 0.000, 13:20:30.056
141, 0.00, 24260.56, 12647.26, 2725.55, -7504.42, 9375.57, 28572.08, 0.00, 0.000, 0.000, 0.000, 13:20:30.056
142, 0.00, 24264.79, 12647.26, 2768.44, -7234.28, 9383.66, 28596.17, 0.00, 0.000, 0.000, 0.000, 13:20:30.056
143, 0.00, 24267.31, 12648.61, 2688.85, -6941.62, 9390.21, 28575.38, 0.00, 0.000, 0.000, 0.000, 13:20:30.057
144, 0.00, 24271.33, 12661.12, 2617.97, -6983.11, 9390.93, 28545.10, 0.00, 0.000, 0.000, 0.000, 13:20:30.057
145, 0.00, 24265.68, 12651.06, 2631.05, -7320.71, 9374.97, 28539.02, 0.00, 0.000, 0.000, 0.000, 13:20:30.057
146, 0.00, 24261.21, 12640.67, 2710.24, -7507.75, 9370.43, 28570.85, 0.00, 0.000, 0.000, 0.000, 13:20:30.057
147, 0.00, 24263.02, 12649.14, 2759.57, -7237.81, 9383.87, 28595.68, 0.00, 0.030, -0.034, 0.992, 13:20:30.057
148, 0.00, 24272.50, 12664.79, 2698.79, -6937.56, 9396.43, 28580.93, 0.00, 0.000, 0.000, 0.000, 13:20:30.057
149, 0.00, 24271.98, 12663.18, 2624.25, -6977.79, 9389.65, 28545.21, 0.00, 0.000, 0.000, 0.000, 13:20:30.057
150, 0.00, 24266.19, 12660.38, 2640.10, -7316.17, 9381.36, 28541.79, 0.00, 0.000, 0.000, 0.000, 13:20:30.058
151, 0.00, 24253.99, 12644.52, 2718.06, -7506.12, 9371.17, 28567.92, 0.00, 0.000, 0.000, 0.000, 13:20:30.058
152, 0.00, 24257.81, 12646.82, 2759.79, -7235.84, 9380.22, 28592.53, 0.00, 0.000, 0.000, 0.000, 13:20:30.058
153, 0.00, 24267.53, 12657.35, 2694.28, -6935.79, 9392.45, 28578.56, 0.00, 0.000, 0.000, 0.000, 13:20:30.058
154, 0.00, 24270.64, 12663.31, 2619.69, -6984.18, 9389.50, 28546.64, 0.00, 0.000, 0.000, 0.000, 13:20:30.058
155, 0.00, 24270.06, 12661.79, 2639.27, -7322.97, 9378.77, 28544.83, 0.00, 0.000, 0.000, 0.000, 13:20:30.058
156, 0.00, 24259.78, 12645.01, 2719.94, -7504.22, 9373.29, 28572.26, 0.00, 0.000, 0.000, 0.000, 13:20:30.058
157, 0.00, 24256.04, 12644.52, 2750.67, -7235.35, 9378.37, 28590.58, 0.00, 0.036, -0.036, 0.990, 13:20:30.058
158, 0.00, 24266.64, 12652.27, 2679.30, -6939.17, 9388.85, 28574.56, 0.00, 0.000, 0.000, 0.000, 13:20:30.059
159, 0.00, 24271.04, 12663.07, 2612.76, -6981.59, 9390.48, 28544.94, 0.00, 0.000, 0.000, 0.000, 13:20:30.059
160, 0.00, 24273.39, 12664.77, 2636.99, -7319.12, 9385.36, 28547.94, 0.00, 0.000, 0.000, 0.000, 13:20:30.059
161, 0.00, 24263.13, 12653.05, 2720.25, -7502.63, 9375.93, 28575.32, 0.00, 0.000, 0.000, 0.000, 13:20:30.059
162, 0.00, 24257.25, 12645.79, 2746.31, -7237.92, 9375.91, 28591.48, 0.00, 0.000, 0.000, 0.000, 13:20:30.059
163, 0.00, 24276.72, 12664.03, 2675.30, -6943.26, 9393.43, 28583.10, 0.00, 0.000, 0.000, 0.000, 13:20:30.059
164, 0.00, 24275.71, 12667.98, 2604.25, -6987.09, 9388.96, 28548.52, 0.00, 0.000, 0.000, 0.000, 13:20:30.059
165, 0.00, 24266.37, 12660.65, 2619.83, -7326.59, 9373.49, 28541.48, 0.00, 0.000, 0.000, 0.000, 13:20:30.059
166, 0.00, 24258.93, 12654.01, 2702.73, -7503.61, 9368.51, 28572.66, 0.00, 0.000, 0.000, 0.000, 13:20:30.061
167, 0.00, 24263.58, 12656.63, 2741.02, -7233.54, 9379.31, 28597.60, 0.00, 0.032, -0.034, 0.988, 13:20:30.061
168, 0.00, 24269.61, 12661.32, 2671.37, -6941.83, 9387.13, 28577.67, 0.00, 0.000, 0.000, 0.000, 13:20:30.061
169, 0.00, 24267.80, 12662.02, 2607.62, -6985.68, 9385.94, 28541.48, 0.00, 0.000, 0.000, 0.000, 13:20:30.061
170, 0.00, 24269.14, 12663.34, 2637.35, -7321.00, 9379.84, 28544.38, 0.00, 0.000, 0.000, 0.000, 13:20:30.062
171, 0.00, 24262.19, 12656.25, 2724.66, -7496.22, 9375.06, 28573.75, 0.00, 0.000, 0.000, 0.000, 13:20:30.062
172, 0.00, 24261.83, 12653.84, 2754.09, -7229.18, 9382.05, 28594.92, 0.00, 0.000, 0.000, 0.000, 13:20:30.062
173, 0.00, 24267.38, 12662.62, 2683.68, -6939.08, 9389.52, 28575.50, 0.00, 0.000, 0.000, 0.000, 13:20:30.062
174, 0.00, 24269.14, 12663.16, 2621.26, -6982.89, 9385.70, 28541.41, 0.00, 0.000, 0.000, 0.000, 13:20:30.062
175, 0.00, 24269.66, 12666.80, 2645.24, -7317.49, 9379.64, 28544.65, 0.00, 0.000, 0.000, 0.000, 13:20:30.062
176, 0.00, 24256.43, 12652.79, 2725.08, -7496.71, 9369.78, 28569.28, 0.00, 0.000, 0.000, 0.000, 13:20:30.063
177, 0.00, 24256.51, 12655.76, 2758.74, -7230.39, 9379.35, 28590.18, 0.00, 0.032, -0.030, 0.986, 13:20:30.063
178, 0.00, 24263.11, 12662.40, 2685.76, -6946.45, 9388.04, 28572.50, 0.00, 0.000, 0.000, 0.000, 13:20:30.063
179, 0.00, 24271.00, 12664.45, 2617.23, -6990.60, 9386.53, 28543.15, 0.00, 0.000, 0.000, 0.000, 13:20:30.063
180, 0.00, 24266.57, 12669.37, 2644.08, -7320.06, 9382.97, 28544.23, 0.00, 0.000, 0.000, 0.000, 13:20:30.063
181, 0.00, 24253.59, 12652.54, 2719.74, -7496.71, 9370.86, 28568.84, 0.00, 0.000, 0.000, 0.000, 13:20:30.063
182, 0.00, 24263.22, 12656.83, 2749.73, -7229.25, 9383.84, 28595.93, 0.00, 0.000, 0.000, 0.000, 13:20:30.064
183, 0.00, 24269.28, 12663.72, 2673.74, -6946.79, 9390.62, 28577.62, 0.00, 0.000, 0.000, 0.000, 13:20:30.064
184, 0.00, 24279.58, 12677.06, 2617.34, -6984.90, 9393.54, 28552.70, 0.00, 0.000, 0.000, 0.000, 13:20:30.064
185, 0.00, 24271.04, 12669.82, 2636.81, -7318.36, 9378.19, 28546.98, 0.00, 0.000, 0.000, 0.000, 13:20:30.064
186, 0.00, 24261.77, 12661.06, 2719.56, -7492.08, 9371.55, 28576.23, 0.00, 0.000, 0.000, 0.000, 13:20:30.064
187, 0.00, 24260.76, 12661.53, 2751.48, -7223.68, 9377.99, 28595.21, 0.00, 0.034, -0.030, 0.992, 13:20:30.064
188, 0.00, 24267.67, 12667.14, 2674.56, -6944.04, 9388.38, 28575.32, 0.00, 0.000, 0.000, 0.000, 13:20:30.064
189, 0.00, 24271.38, 12675.03, 2611.82, -6989.28, 9386.86, 28545.21, 0.00, 0.000, 0.000, 0.000, 13:20:30.064
190, 0.00, 24267.94, 12674.74, 2640.32, -7317.51, 9380.51, 28545.70, 0.00, 0.000, 0.000, 0.000, 13:20:30.065
191, 0.00, 24260.27, 12666.87, 2730.80, -7484.19, 9374.43, 28575.23, 0.00, 0.000, 0.000, 0.000, 13:20:30.065
192, 0.00, 24260.83, 12664.72, 2762.39, -7213.60, 9383.28, 28597.07, 0.00, 0.000, 0.000, 0.000, 13:20:30.065
193, 0.00, 24268.47, 12671.43, 2685.74, -6935.75, 9393.97, 28580.06, 0.00, 0.000, 0.000, 0.000, 13:20:30.065
194, 0.00, 24268.92, 12674.65, 2618.60, -6989.41, 9388.85, 28545.41, 0.00, 0.000, 0.000, 0.000, 13:20:30.065
195, 0.00, 24264.52, 12666.62, 2640.12, -7321.63, 9378.66, 28543.38, 0.00, 0.000, 0.000, 0.000, 13:20:30.528
196, 0.00, 24257.86, 12655.45, 2722.35, -7486.76, 9372.38, 28571.54, 0.00, 0.000, 0.000, 0.000, 13:20:30.537
197, 0.00, 24254.95, 12658.53, 2758.00, -7215.23, 9376.58, 28591.23, 0.00, 0.038, -0.028, 0.994, 13:20:30.537
198, 0.00, 24266.60, 12671.74, 2687.10, -6939.59, 9387.08, 28576.32, 0.00, 0.000, 0.000, 0.000, 13:20:30.537
199, 0.00, 24269.37, 12671.70, 2621.28, -6990.98, 9384.40, 28543.38, 0.00, 0.000, 0.000, 0.000, 13:20:30.537
200, 0.00, 24265.19, 12667.72, 2641.69, -7321.58, 9373.72, 28542.04, 0.00, 0.000, 0.000, 0.000, 13:20:30.538
201, 0.00, 24254.62, 12654.80, 2719.76, -7490.38, 9365.02, 28569.69, 0.00, 0.000, 0.000, 0.000, 13:20:30.538
202, 0.00, 24258.59, 12662.80, 2753.98, -7217.53, 9376.58, 28593.04, 0.00, 0.000, 0.000, 0.000, 13:20:30.538
203, 0.00, 24266.35, 12675.96, 2681.09, -6943.17, 9391.38, 28576.21, 0.00, 0.000, 0.000, 0.000, 13:20:30.538
204, 0.00, 24266.30, 12676.93, 2616.56, -6994.58, 9385.05, 28542.66, 0.00, 0.000, 0.000, 0.000, 13:20:30.538
205, 0.00, 24258.10, 12668.72, 2640.93, -7325.99, 9372.60, 28536.81, 0.00, 0.000, 0.000, 0.000, 13:20:30.539
206, 0.00, 24252.22, 12660.43, 2723.14, -7489.09, 9364.98, 28568.48, 0.00, 0.000, 0.000, 0.000, 13:20:30.539
207, 0.00, 24254.10, 12662.58, 2751.97, -7212.62, 9373.29, 28591.10, 0.00, 0.038, -0.026, 0.996, 13:20:30.539
208, 0.00, 24265.81, 12673.68, 2673.85, -6936.46, 9385.79, 28576.21, 0.00, 0.000, 0.000, 0.000, 13:20:30.539
209, 0.00, 24268.96, 12674.02, 2613.39, -6989.70, 9385.45, 28543.65, 0.00, 0.000, 0.000, 0.000, 13:20:30.540
210, 0.00, 24264.92, 12669.95, 2637.01, -7325.47, 9375.89, 28543.49, 0.00, 0.000, 0.000, 0.000, 13:20:30.540
211, 0.00, 24259.62, 12663.51, 2720.16, -7487.81, 9371.26, 28575.21, 0.00, 0.000, 0.000, 0.000, 13:20:30.540
212, 0.00, 24261.41, 12666.89, 2751.63, -7208.53, 9379.86, 28596.62, 0.00, 0.000, 0.000, 0.000, 13:20:30.540
213, 0.00, 24263.49, 12669.88, 2673.45, -6934.05, 9386.41, 28574.22, 0.00, 0.000, 0.000, 0.000, 13:20:30.540
214, 0.00, 24270.15, 12676.63, 2607.69, -6990.93, 9386.59, 28543.87, 0.00, 0.000, 0.000, 0.000, 13:20:30.541
215, 0.00, 24268.21, 12675.76, 2630.84, -7324.24, 9377.88, 28546.66, 0.00, 0.000, 0.000, 0.000, 13:20:30.541
216, 0.00, 24263.15, 12664.97, 2711.47, -7486.11, 9369.18, 28577.91, 0.00, 0.000, 0.000, 0.000, 13:20:30.541
217, 0.00, 24261.88, 12664.45, 2740.30, -7211.43, 9378.63, 28596.42, 0.00, 0.030, -0.030, 0.994, 13:20:30.541
218, 0.00, 24266.80, 12672.41, 2664.69, -6939.19, 9388.13, 28576.01, 0.00, 0.000, 0.000, 0.000, 13:20:30.542
219, 0.00, 24274.37, 12678.54, 2602.88, -6993.01, 9388.47, 28547.42, 0.00, 0.000, 0.000, 0.000, 13:20:30.542
220, 0.00, 24265.77, 12673.46, 2627.20, -7326.77, 9374.57, 28543.60, 0.00, 0.000, 0.000, 0.000, 13:20:30.542
221, 0.00, 24264.52, 12669.10, 2713.77, -7482.27, 9377.18, 28579.39, 0.00, 0.000, 0.000, 0.000, 13:20:30.542
222, 0.00, 24264.74, 12671.67, 2742.40, -7209.31, 9381.65, 28599.41, 0.00, 0.000, 0.000, 0.000, 13:20:30.542
223, 0.00, 24270.17, 12678.20, 2663.08, -6937.36, 9390.19, 28577.96, 0.00, 0.000, 0.000, 0.000, 13:20:30.543
224, 0.00, 24274.89, 12681.62, 2600.60, -6992.54, 9389.72, 28547.11, 0.00, 0.000, 0.000, 0.000, 13:20:30.543
225, 0.00, 24258.48, 12670.40, 2622.98, -7326.77, 9372.15, 28538.95, 0.00, 0.000, 0.000, 0.000, 13:20:30.543
226, 0.00, 24255.71, 12658.53, 2702.08, -7483.07, 9373.94, 28570.42, 0.00, 0.000, 0.000, 0.000, 13:20:30.543
227, 0.00, 24268.36, 12671.11, 2737.40, -7198.54, 9389.05, 28600.08, 0.00, 0.032, -0.032, 0.992, 13:20:30.543
228, 0.00, 24271.58, 12680.46, 2659.16, -6927.61, 9396.36, 28578.87, 0.00, 0.000, 0.000, 0.000, 13:20:30.543
229, 0.00, 24272.38, 12682.80, 2596.18, -6984.96, 9391.89, 28547.15, 0.00, 0.000, 0.000, 0.000, 13:20:30.544
230, 0.00, 24264.67, 12674.74, 2620.81, -7320.26, 9378.30, 28544.21, 0.00, 0.000, 0.000, 0.000, 13:20:30.544
231, 0.00, 24258.55, 12669.30, 2711.02, -7472.17, 9375.10, 28574.87, 0.00, 0.000, 0.000, 0.000, 13:20:30.544
232, 0.00, 24259.31, 12664.86, 2732.57, -7198.27, 9377.54, 28594.81, 0.00, 0.000, 0.000, 0.000, 13:20:30.544
233, 0.00, 24271.49, 12675.67, 2653.24, -6933.89, 9389.36, 28579.95, 0.00, 0.000, 0.000, 0.000, 13:20:30.544
234, 0.00, 24278.75, 12684.46, 2597.25, -6993.41, 9391.60, 28552.38, 0.00, 0.000, 0.000, 0.000, 13:20:30.544
235, 0.00, 24269.63, 12674.20, 2620.83, -7331.24, 9374.39, 28547.96, 0.00, 0.000, 0.000, 0.000, 13:20:30.544
236, 0.00, 24262.35, 12660.99, 2707.80, -7485.40, 9365.51, 28576.91, 0.00, 0.000, 0.000, 0.000, 13:20:30.545
237, 0.00, 24264.05, 12667.65, 2738.38, -7207.52, 9375.62, 28597.22, 0.00, 0.026, -0.032, 0.992, 13:20:30.545
238, 0.00, 24272.81, 12680.55, 2669.54, -6924.70, 9389.65, 28581.09, 0.00, 0.000, 0.000, 0.000, 13:20:30.545
239, 0.00, 24273.55, 12684.48, 2603.93, -6988.63, 9385.41, 28547.67, 0.00, 0.000, 0.000, 0.000, 13:20:30.545
240, 0.00, 24266.19, 12671.49, 2625.23, -7332.15, 9372.73, 28543.45, 0.00, 0.000, 0.000, 0.000, 13:20:30.545
241, 0.00, 24259.71, 12668.70, 2712.23, -7484.03, 9367.48, 28575.05, 0.00, 0.000, 0.000, 0.000, 13:20:30.545
242, 0.00, 24264.38, 12672.43, 2739.27, -7205.75, 9380.45, 28596.91, 0.00, 0.000, 0.000, 0.000, 13:20:30.546
243, 0.00, 24272.29, 12683.25, 2665.96, -6929.29, 9395.40, 28579.05, 0.00, 0.000, 0.000, 0.000, 13:20:30.546
244, 0.00, 24265.14, 12685.31, 2603.22, -6991.94, 9389.43, 28542.19, 0.00, 0.000, 0.000, 0.000, 13:20:30.546
245, 0.00, 24264.72, 12677.91, 2629.93, -7328.02, 9375.30, 28540.70, 0.00, 0.000, 0.000, 0.000, 13:20:30.546
246, 0.00, 24260.20, 12673.91, 2721.37, -7476.37, 9376.40, 28575.65, 0.00, 0.000, 0.000, 0.000, 13:20:30.546
247, 0.00, 24257.14, 12667.85, 2735.52, -7206.47, 9378.14, 28590.88, 0.00, 0.024, -0.038, 0.990, 13:20:30.546
248, 0.00, 24263.33, 12672.46, 2657.24, -6936.06, 9386.93, 28570.24, 0.00, 0.000, 0.000, 0.000, 13:20:30.546
249, 0.00, 24266.48, 12670.20, 2591.17, -7001.39, 9384.69, 28537.88, 0.00, 0.000, 0.000, 0.000, 13:20:30.547
250, 0.00, 24274.84, 12691.95, 2633.84, -7322.34, 9385.94, 28551.60, 0.00, 0.000, 0.000, 0.000, 13:20:30.547
251, 0.00, 24263.22, 12679.61, 2715.54, -7473.66, 9376.02, 28577.78, 0.00, 0.000, 0.000, 0.000, 13:20:30.547
252, 0.00, 24261.90, 12678.83, 2739.14, -7194.67, 9384.56, 28594.56, 0.00, 0.000, 0.000, 0.000, 13:20:30.547
253, 0.00, 24269.84, 12685.04, 2662.99, -6923.54, 9389.81, 28574.18, 0.00, 0.000, 0.000, 0.000, 13:20:30.547
254, 0.00, 24272.12, 12686.42, 2600.33, -6992.05, 9386.10, 28542.19, 0.00, 0.000, 0.000, 0.000, 13:20:30.547
255, 0.00, 24265.03, 12678.42, 2624.30, -7333.36, 9378.70, 28540.81, 0.00, 0.000, 0.000, 0.000, 13:20:30.547
0, 0.00, 24258.82, 12667.25, 2709.08, -7480.17, 9372.51, 28572.14, 0.00, 0.000, 0.000, 0.000, 13:20:30.547
1, 0.00, 24258.04, 12665.46, 2729.91, -7202.92, 9378.37, 28590.96, 0.00, 0.026, -0.036, 0.990, 13:20:30.548
2, 0.00, 24266.44, 12672.52, 2654.07, -6935.59, 9382.66, 28570.54, 0.00, 0.000, 0.000, 0.000, 13:20:30.548
3, 0.00, 24276.34, 12682.78, 2600.33, -6998.42, 9385.90, 28544.47, 0.00, 0.000, 0.000, 0.000, 13:20:30.548
4, 0.00, 24270.33, 12677.89, 2625.86, -7336.98, 9373.34, 28544.54, 0.00, 0.000, 0.000, 0.000, 13:20:30.548
5, 0.00, 24262.39, 12668.90, 2708.79, -7483.10, 9367.82, 28574.22, 0.00, 0.000, 0.000, 0.000, 13:20:30.548
6, 0.00, 24261.52, 12670.67, 2735.05, -7199.30, 9377.67, 28592.55, 0.00, 0.000, 0.000, 0.000, 13:20:30.548
7, 0.00, 24270.84, 12683.12, 2663.72, -6924.17, 9391.33, 28574.69, 0.00, 0.000, 0.000, 0.000, 13:20:30.548
8, 0.00, 24269.26, 12680.77, 2596.85, -7001.17, 9386.26, 28539.98, 0.00, 0.000, 0.000, 0.000, 13:20:30.549
9, 0.00, 24264.36, 12682.51, 2625.95, -7336.38, 9378.55, 28541.79, 0.00, 0.000, 0.000, 0.000, 13:20:30.549
10, 0.00, 24257.54, 12682.69, 2716.47, -7474.07, 9375.10, 28573.78, 0.00, 0.000, 0.000, 0.000, 13:20:30.549
11, 0.00, 24256.54, 12675.52, 2736.37, -7191.07, 9378.93, 28590.18, 0.00, 0.030, -0.038, 0.996, 13:20:30.549
12, 0.00, 24264.36, 12677.82, 2653.26, -6922.16, 9392.05, 28568.43, 0.00, 0.000, 0.000, 0.000, 13:20:30.549
13, 0.00, 24268.23, 12683.92, 2588.20, -6998.33, 9392.11, 28538.84, 0.00, 0.000, 0.000, 0.000, 13:20:30.549
14, 0.00, 24265.08, 12679.63, 2619.24, -7333.34, 9381.54, 28541.97, 0.00, 0.000, 0.000, 0.000, 13:20:30.550
15, 0.00, 24258.71, 12671.09, 2705.46, -7474.78, 9376.00, 28572.84, 0.00, 0.000, 0.000, 0.000, 13:20:30.550
16, 0.00, 24260.25, 12671.83, 2728.07, -7192.37, 9384.69, 28594.88, 0.00, 0.000, 0.000, 0.000, 13:20:30.550
17, 0.00, 24265.30, 12678.54, 2650.02, -6927.50, 9392.85, 28573.37, 0.00, 0.000, 0.000, 0.000, 13:20:30.550
18, 0.00, 24270.62, 12680.21, 2587.80, -6997.93, 9390.44, 28542.35, 0.00, 0.000, 0.000, 0.000, 13:20:30.550
19, 0.00, 24265.37, 12671.29, 2615.29, -7335.19, 9378.84, 28542.01, 0.00, 0.000, 0.000, 0.000, 13:20:30.550
20, 0.00, 24254.48, 12667.63, 2701.99, -7477.89, 9371.82, 28570.54, 0.00, 0.000, 0.000, 0.000, 13:20:30.550
21, 0.00, 24262.04, 12673.73, 2730.13, -7188.79, 9384.02, 28594.90, 0.00, 0.030, -0.028, 0.992, 13:20:30.550
22, 0.00, 24269.19, 12681.66, 2651.27, -6917.62, 9392.45, 28574.11, 0.00, 0.000, 0.000, 0.000, 13:20:30.551
23, 0.00, 24275.45, 12686.31, 2591.86, -6990.44, 9391.60, 28545.50, 0.00, 0.000, 0.000, 0.000, 13:20:30.551
24, 0.00, 24268.12, 12680.61, 2619.71, -7334.41, 9378.25, 28543.62, 0.00, 0.000, 0.000, 0.000, 13:20:30.551
25, 0.00, 24261.30, 12673.97, 2701.74, -7480.06, 9368.73, 28576.23, 0.00, 0.000, 0.000, 0.000, 13:20:30.551
26, 0.00, 24258.44, 12669.26, 2720.68, -7194.69, 9373.18, 28591.75, 0.00, 0.000, 0.000, 0.000, 13:20:30.551
27, 0.00, 24267.82, 12674.31, 2645.11, -6924.53, 9383.55, 28571.03, 0.00, 0.000, 0.000, 0.000, 13:20:30.551
28, 0.00, 24273.66, 12679.94, 2583.24, -7004.75, 9384.45, 28543.45, 0.00, 0.000, 0.000, 0.000, 13:20:30.551
29, 0.00, 24266.06, 12676.59, 2611.69, -7348.63, 9374.75, 28544.70, 0.00, 0.000, 0.000, 0.000, 13:20:30.552
30, 0.00, 24259.13, 12669.79, 2700.38, -7482.60, 9370.92, 28575.61, 0.00, 0.000, 0.000, 0.000, 13:20:30.553
31, 0.00, 24260.38, 12661.88, 2719.07, -7190.82, 9376.74, 28591.10, 0.00, 0.030, -0.026, 0.996, 13:20:30.553
32, 0.00, 24277.77, 12690.52, 2650.85, -6916.32, 9398.24, 28581.71, 0.00, 0.000, 0.000, 0.000, 13:20:30.553
33, 0.00, 24275.58, 12692.62, 2587.55, -6998.17, 9393.75, 28547.20, 0.00, 0.000, 0.000, 0.000, 13:20:30.553
34, 0.00, 24268.16, 12679.25, 2611.29, -7345.99, 9381.18, 28545.01, 0.00, 0.000, 0.000, 0.000, 13:20:30.553
35, 0.00, 24259.13, 12667.31, 2696.96, -7477.42, 9374.43, 28572.88, 0.00, 0.000, 0.000, 0.000, 13:20:30.554
36, 0.00, 24255.40, 12666.96, 2720.74, -7188.79, 9379.69, 28588.73, 0.00, 0.000, 0.000, 0.000, 13:20:30.554
37, 0.00, 24271.78, 12684.66, 2648.32, -6919.81, 9398.86, 28576.57, 0.00, 0.000, 0.000, 0.000, 13:20:30.554
38, 0.00, 24276.97, 12692.35, 2593.05, -6996.34, 9394.95, 28547.31, 0.00, 0.000, 0.000, 0.000, 13:20:30.554
39, 0.00, 24265.70, 12677.77, 2618.64, -7333.76, 9382.17, 28544.47, 0.00, 0.000, 0.000, 0.000, 13:20:30.554
40, 0.00, 24258.57, 12665.97, 2698.57, -7467.92, 9372.96, 28574.27, 0.00, 0.000, 0.000, 0.000, 13:20:30.554
41, 0.00, 24260.00, 12671.49, 2718.62, -7183.56, 9383.35, 28594.68, 0.00, 0.028, -0.032, 0.996, 13:20:30.554
42, 0.00, 24263.29, 12681.15, 2640.37, -6923.77, 9393.41, 28572.66, 0.00, 0.000, 0.000, 0.000, 13:20:30.554
43, 0.00, 24273.46, 12686.13, 2578.25, -7003.87, 9388.60, 28543.20, 0.00, 0.000, 0.000, 0.000, 13:20:30.555
44, 0.00, 24265.88, 12678.76, 2603.06, -7345.32, 9373.94, 28543.31, 0.00, 0.000, 0.000, 0.000, 13:20:30.555
45, 0.00, 24260.36, 12672.17, 2688.40, -7475.74, 9367.33, 28577.20, 0.00, 0.000, 0.000, 0.000, 13:20:30.555
46, 0.00, 24260.36, 12673.04, 2707.94, -7188.41, 9377.03, 28593.54, 0.00, 0.000, 0.000, 0.000, 13:20:30.555
47, 0.00, 24269.28, 12681.11, 2630.58, -6925.51, 9388.13, 28573.40, 0.00, 0.000, 0.000, 0.000, 13:20:30.555
48, 0.00, 24271.42, 12681.33, 2571.81, -7005.95, 9383.55, 28541.68, 0.00, 0.000, 0.000, 0.000, 13:20:30.555
49, 0.00, 24266.91, 12676.05, 2599.49, -7349.75, 9372.64, 28542.97, 0.00, 0.000, 0.000, 0.000, 13:20:30.556
50, 0.00, 24256.34, 12668.34, 2687.60, -7476.93, 9366.88, 28571.54, 0.00, 0.000, 0.000, 0.000, 13:20:30.556
51, 0.00, 24256.98, 12667.47, 2706.19, -7190.60, 9373.52, 28589.36, 0.00, 0.034, -0.038, 0.996, 13:20:30.556
52, 0.00, 24264.83, 12667.94, 2618.62, -6938.23, 9377.12, 28565.91, 0.00, 0.000, 0.000, 0.000, 13:20:30.556
53, 0.00, 24280.48, 12696.86, 2576.51, -7005.57, 9393.28, 28548.09, 0.00, 0.000, 0.000, 0.000, 13:20:30.556
54, 0.00, 24267.60, 12680.73, 2599.35, -7345.45, 9372.47, 28542.08, 0.00, 0.000, 0.000, 0.000, 13:20:30.556
55, 0.00, 24258.46, 12667.07, 2677.34, -7480.08, 9364.62, 28568.61, 0.00, 0.000, 0.000, 0.000, 13:20:30.556
56, 0.00, 24264.74, 12672.90, 2698.77, -7187.54, 9378.46, 28593.63, 0.00, 0.000, 0.000, 0.000, 13:20:30.557
57, 0.00, 24267.71, 12677.86, 2622.84, -6926.56, 9387.98, 28570.74, 0.00, 0.000, 0.000, 0.000, 13:20:30.557
58, 0.00, 24272.72, 12685.75, 2571.59, -7010.33, 9388.02, 28543.80, 0.00, 0.000, 0.000, 0.000, 13:20:30.557
59, 0.00, 24265.46, 12679.83, 2606.12, -7351.47, 9376.47, 28543.49, 0.00, 0.000, 0.000, 0.000, 13:20:31.009
60, 0.00, 24249.32, 12662.46, 2690.79, -7476.70, 9366.27, 28567.61, 0.00, 0.000, 0.000, 0.000, 13:20:31.009
61, 0.00, 24256.63, 12672.21, 2712.74, -7183.49, 9382.32, 28591.34, 0.00, 0.036, -0.036, 0.992, 13:20:31.009
62, 0.00, 24265.57, 12681.33, 2637.91, -6918.67, 9389.97, 28569.69, 0.00, 0.000, 0.000, 0.000, 13:20:31.009
63, 0.00, 24269.19, 12683.47, 2577.67, -7007.47, 9387.13, 28539.47, 0.00, 0.000, 0.000, 0.000, 13:20:31.009
64, 0.00, 24267.47, 12680.84, 2608.29, -7352.02, 9377.81, 28544.29, 0.00, 0.000, 0.000, 0.000, 13:20:31.009
65, 0.00, 24256.92, 12668.86, 2691.40, -7475.90, 9371.95, 28572.84, 0.00, 0.000, 0.000, 0.000, 13:20:31.009
66, 0.00, 24260.81, 12672.08, 2710.93, -7178.44, 9382.68, 28594.79, 0.00, 0.000, 0.000, 0.000, 13:20:31.010
67, 0.00, 24261.50, 12677.24, 2627.09, -6925.53, 9384.40, 28567.18, 0.00, 0.000, 0.000, 0.000, 13:20:31.010
