%OpenBCI Raw EEG Data
%
%Sample Rate = 250.0 Hz
%First Column = SampleIndex
%Last Column = Timestamp 
%Other Columns = EEG data in microvolts followed by Accel Data (in G) interleaved with Aux Data
0, 0.00, 0.00, 0.00, 0.00, 0.00, 0.00, 0.00, 0.00, 0.000, 0.000, 0.000, 13:27:05.430
1, 0.00, 21511.61, 12133.11, 8953.19, -10739.50, 4524.08, 25245.54, 0.00, 0.016, -0.028, 1.000, 13:27:05.913
2, 0.00, 21517.11, 12136.24, 8880.71, -10478.79, 4547.48, 25233.11, 0.00, 0.000, 0.000, 0.000, 13:27:05.914
3, 0.00, 21526.32, 12141.42, 8769.06, -10430.37, 4547.93, 25230.49, 0.00, 0.000, 0.000, 0.000, 13:27:05.915
4, 0.00, 21524.30, 12141.67, 8757.39, -10666.83, 4551.06, 25229.84, 0.00, 0.000, 0.000, 0.000, 13:27:05.915
5, 0.00, 21516.04, 12137.40, 8858.87, -10895.65, 4538.43, 25237.04, 0.00, 0.000, 0.000, 0.000, 13:27:05.915
6, 0.00, 21513.93, 12132.93, 8952.30, -10741.49, 4538.14, 25247.26, 0.00, 0.000, 0.000, 0.000, 13:27:05.916
7, 0.00, 21518.98, 12136.64, 8881.26, -10480.98, 4543.30, 25240.39, 0.00, 0.000, 0.000, 0.000, 13:27:05.916
8, 0.00, 21522.85, 12140.91, 8768.34, -10436.63, 4541.58, 25227.77, 0.00, 0.028, -0.030, 1.004, 13:27:05.916
9, 0.00, 21518.13, 12137.13, 8753.84, -10675.68, 4531.12, 25224.01, 0.00, 0.000, 0.000, 0.000, 13:27:05.916
10, 0.00, 21513.20, 12133.73, 8857.42, -10904.16, 4536.15, 25238.38, 0.00, 0.000, 0.000, 0.000, 13:27:05.917
11, 0.00, 21511.29, 12132.15, 8953.19, -10755.28, 4541.07, 25244.48, 0.00, 0.000, 0.000, 0.000, 13:27:05.917
12, 0.00, 21516.15, 12131.99, 8882.78, -10488.69, 4541.76, 25236.48, 0.00, 0.000, 0.000, 0.000, 13:27:05.918
13, 0.00, 21517.60, 12133.06, 8764.83, -10435.78, 4525.47, 25220.57, 0.00, 0.000, 0.000, 0.000, 13:27:05.918
14, 0.00, 21518.34, 12139.77, 8756.25, -10662.72, 4546.59, 25223.99, 0.00, 0.000, 0.000, 0.000, 13:27:05.918
15, 0.00, 21509.37, 12130.45, 8850.15, -10902.04, 4531.32, 25231.72, 0.00, 0.000, 0.000, 0.000, 13:27:05.918
16, 0.00, 21505.71, 12126.16, 8948.05, -10758.59, 4537.36, 25239.66, 0.00, 0.000, 0.000, 0.000, 13:27:05.919
17, 0.00, 21513.24, 12133.67, 8888.35, -10487.48, 4548.04, 25235.77, 0.00, 0.000, 0.000, 0.000, 13:27:05.919
18, 0.00, 21521.80, 12142.79, 8778.45, -10425.61, 4552.07, 25227.90, 0.00, 0.026, -0.036, 0.998, 13:27:05.919
19, 0.00, 21521.11, 12137.49, 8756.61, -10660.11, 4537.49, 25227.79, 0.00, 0.000, 0.000, 0.000, 13:27:05.919
20, 0.00, 21514.38, 12133.44, 8850.44, -10902.69, 4529.87, 25235.14, 0.00, 0.000, 0.000, 0.000, 13:27:05.919
21, 0.00, 21505.46, 12126.74, 8948.25, -10765.25, 4533.47, 25235.86, 0.00, 0.000, 0.000, 0.000, 13:27:05.920
22, 0.00, 21517.04, 12132.84, 8887.30, -10494.90, 4532.78, 25237.67, 0.00, 0.000, 0.000, 0.000, 13:27:05.920
23, 0.00, 21524.86, 12137.38, 8776.37, -10424.83, 4547.51, 25228.95, 0.00, 0.000, 0.000, 0.000, 13:27:05.920
24, 0.00, 21521.18, 12137.44, 8754.93, -10646.81, 4551.58, 25226.42, 0.00, 0.000, 0.000, 0.000, 13:27:05.920
25, 0.00, 21520.64, 12136.62, 8851.31, -10887.67, 4541.11, 25241.89, 0.00, 0.000, 0.000, 0.000, 13:27:05.921
26, 0.00, 21516.55, 12130.54, 8949.37, -10759.95, 4538.48, 25248.82, 0.00, 0.000, 0.000, 0.000, 13:27:05.921
27, 0.00, 21520.64, 12134.49, 8890.05, -10486.23, 4543.10, 25240.91, 0.00, 0.000, 0.000, 0.000, 13:27:05.921
28, 0.00, 21523.41, 12140.17, 8776.55, -10419.60, 4542.54, 25228.93, 0.00, 0.030, -0.028, 0.994, 13:27:05.921
29, 0.00, 21522.05, 12140.60, 8754.60, -10647.61, 4539.86, 25227.52, 0.00, 0.000, 0.000, 0.000, 13:27:05.922
30, 0.00, 21514.74, 12131.50, 8847.36, -10893.28, 4523.17, 25238.90, 0.00, 0.000, 0.000, 0.000, 13:27:05.922
31, 0.00, 21503.12, 12114.73, 8941.35, -10771.77, 4512.88, 25235.97, 0.00, 0.000, 0.000, 0.000, 13:27:05.923
32, 0.00, 21515.43, 12132.04, 8887.81, -10502.35, 4544.13, 25236.44, 0.00, 0.000, 0.000, 0.000, 13:27:05.923
33, 0.00, 21525.58, 12139.75, 8777.06, -10425.10, 4554.97, 25230.11, 0.00, 0.000, 0.000, 0.000, 13:27:05.924
34, 0.00, 21527.66, 12143.52, 8753.64, -10647.34, 4551.42, 25232.48, 0.00, 0.000, 0.000, 0.000, 13:27:05.924
35, 0.00, 21518.22, 12132.73, 8845.84, -10895.65, 4538.66, 25239.10, 0.00, 0.000, 0.000, 0.000, 13:27:05.924
36, 0.00, 21511.74, 12123.47, 8946.53, -10772.33, 4533.85, 25243.93, 0.00, 0.000, 0.000, 0.000, 13:27:05.924
37, 0.00, 21517.15, 12128.91, 8890.32, -10493.88, 4544.91, 25239.32, 0.00, 0.000, 0.000, 0.000, 13:27:05.925
38, 0.00, 21523.84, 12137.78, 8777.89, -10419.11, 4549.45, 25229.91, 0.00, 0.028, -0.032, 0.990, 13:27:05.925
39, 0.00, 21521.00, 12134.58, 8751.94, -10638.13, 4537.05, 25223.12, 0.00, 0.000, 0.000, 0.000, 13:27:05.925
40, 0.00, 21516.24, 12128.53, 8844.12, -10887.67, 4527.48, 25236.33, 0.00, 0.000, 0.000, 0.000, 13:27:05.925
41, 0.00, 21509.73, 12126.11, 8949.33, -10775.04, 4532.17, 25242.47, 0.00, 0.000, 0.000, 0.000, 13:27:05.926
42, 0.00, 21516.26, 12127.34, 8892.75, -10508.90, 4532.62, 25237.82, 0.00, 0.000, 0.000, 0.000, 13:27:05.926
43, 0.00, 21526.61, 12138.70, 8781.69, -10425.77, 4541.05, 25231.83, 0.00, 0.000, 0.000, 0.000, 13:27:05.926
44, 0.00, 21523.68, 12136.39, 8751.45, -10641.02, 4541.07, 25227.50, 0.00, 0.000, 0.000, 0.000, 13:27:05.926
45, 0.00, 21518.98, 12132.06, 8841.63, -10893.14, 4515.72, 25239.99, 0.00, 0.000, 0.000, 0.000, 13:27:05.927
46, 0.00, 21516.97, 12131.83, 8951.96, -10781.54, 4545.96, 25247.84, 0.00, 0.000, 0.000, 0.000, 13:27:05.927
47, 0.00, 21520.97, 12135.05, 8905.63, -10505.63, 4551.28, 25240.80, 0.00, 0.000, 0.000, 0.000, 13:27:05.927
48, 0.00, 21526.38, 12138.63, 8794.90, -10411.58, 4547.82, 25229.66, 0.00, 0.028, -0.032, 0.992, 13:27:05.927
49, 0.00, 21523.97, 12136.08, 8761.50, -10623.85, 4538.03, 25228.48, 0.00, 0.000, 0.000, 0.000, 13:27:05.928
50, 0.00, 21517.58, 12130.47, 8848.12, -10877.68, 4535.55, 25234.52, 0.00, 0.000, 0.000, 0.000, 13:27:05.928
51, 0.00, 21515.77, 12127.74, 8951.27, -10777.79, 4535.62, 25245.02, 0.00, 0.000, 0.000, 0.000, 13:27:05.928
52, 0.00, 21518.61, 12130.07, 8899.19, -10507.91, 4537.69, 25241.24, 0.00, 0.000, 0.000, 0.000, 13:27:05.928
53, 0.00, 21523.81, 12133.78, 8785.24, -10419.00, 4535.30, 25228.44, 0.00, 0.000, 0.000, 0.000, 13:27:05.928
54, 0.00, 21526.05, 12138.20, 8757.30, -10622.24, 4544.60, 25226.20, 0.00, 0.000, 0.000, 0.000, 13:27:05.929
55, 0.00, 21515.81, 12129.73, 8844.07, -10876.29, 4534.43, 25233.13, 0.00, 0.000, 0.000, 0.000, 13:27:05.929
56, 0.00, 21517.35, 12136.04, 8956.70, -10772.02, 4542.34, 25245.49, 0.00, 0.000, 0.000, 0.000, 13:27:05.929
57, 0.00, 21521.96, 12136.35, 8907.64, -10499.69, 4548.49, 25240.46, 0.00, 0.000, 0.000, 0.000, 13:27:05.929
58, 0.00, 21525.73, 12137.44, 8791.28, -10412.27, 4546.86, 25229.66, 0.00, 0.032, -0.030, 1.000, 13:27:05.930
59, 0.00, 21524.37, 12134.72, 8756.21, -10621.39, 4540.00, 25226.69, 0.00, 0.000, 0.000, 0.000, 13:27:05.930
60, 0.00, 21518.54, 12129.13, 8841.28, -10881.95, 4537.31, 25234.96, 0.00, 0.000, 0.000, 0.000, 13:27:05.930
61, 0.00, 21513.53, 12123.94, 8952.25, -10788.94, 4532.89, 25242.90, 0.00, 0.000, 0.000, 0.000, 13:27:05.931
62, 0.00, 21519.10, 12125.51, 8906.34, -10512.83, 4531.12, 25241.40, 0.00, 0.000, 0.000, 0.000, 13:27:05.931
63, 0.00, 21528.71, 12140.48, 8799.17, -10407.80, 4560.11, 25233.15, 0.00, 0.000, 0.000, 0.000, 13:27:05.932
64, 0.00, 21523.59, 12133.24, 8757.66, -10618.40, 4540.76, 25227.59, 0.00, 0.000, 0.000, 0.000, 13:27:05.932
65, 0.00, 21522.83, 12129.11, 8845.39, -10877.34, 4530.36, 25240.30, 0.00, 0.000, 0.000, 0.000, 13:27:05.932
66, 0.00, 21518.49, 12123.50, 8953.88, -10793.57, 4523.08, 25249.13, 0.00, 0.000, 0.000, 0.000, 13:27:05.932
67, 0.00, 21524.86, 12127.61, 8910.81, -10519.78, 4537.36, 25245.87, 0.00, 0.000, 0.000, 0.000, 13:27:05.933
68, 0.00, 21527.59, 12132.88, 8794.50, -10420.88, 4550.57, 25232.01, 0.00, 0.028, -0.032, 0.992, 13:27:05.933
69, 0.00, 21529.65, 12140.10, 8760.86, -10619.18, 4545.20, 25232.48, 0.00, 0.000, 0.000, 0.000, 13:27:05.933
70, 0.00, 21520.55, 12133.84, 8848.94, -10880.76, 4538.25, 25239.54, 0.00, 0.000, 0.000, 0.000, 13:27:05.933
71, 0.00, 21513.91, 12124.95, 8961.10, -10795.09, 4537.43, 25244.08, 0.00, 0.000, 0.000, 0.000, 13:27:05.933
72, 0.00, 21518.13, 12126.85, 8923.13, -10510.33, 4538.61, 25239.46, 0.00, 0.000, 0.000, 0.000, 13:27:05.934
73, 0.00, 21525.27, 12133.91, 8804.42, -10407.24, 4549.83, 25230.38, 0.00, 0.000, 0.000, 0.000, 13:27:05.934
74, 0.00, 21524.53, 12135.05, 8764.36, -10603.51, 4546.86, 25226.31, 0.00, 0.000, 0.000, 0.000, 13:27:05.934
75, 0.00, 21516.75, 12129.38, 8847.13, -10867.17, 4539.44, 25234.74, 0.00, 0.000, 0.000, 0.000, 13:27:05.936
76, 0.00, 21512.84, 12123.36, 8954.53, -10798.26, 4528.55, 25243.34, 0.00, 0.000, 0.000, 0.000, 13:27:05.937
77, 0.00, 21518.54, 12128.26, 8918.10, -10522.28, 4541.16, 25240.44, 0.00, 0.000, 0.000, 0.000, 13:27:05.937
78, 0.00, 21524.77, 12140.66, 8804.80, -10414.33, 4545.99, 25230.89, 0.00, 0.024, -0.034, 0.990, 13:27:05.937
79, 0.00, 21527.12, 12144.22, 8768.57, -10604.36, 4557.10, 25227.18, 0.00, 0.000, 0.000, 0.000, 13:27:05.938
80, 0.00, 21518.43, 12133.17, 8845.32, -10870.70, 4537.65, 25234.78, 0.00, 0.000, 0.000, 0.000, 13:27:05.938
81, 0.00, 21513.64, 12129.82, 8958.87, -10800.09, 4532.35, 25244.48, 0.00, 0.000, 0.000, 0.000, 13:27:05.938
82, 0.00, 21516.68, 12132.39, 8926.15, -10519.09, 4553.85, 25238.45, 0.00, 0.000, 0.000, 0.000, 13:27:05.938
83, 0.00, 21519.92, 12135.03, 8807.44, -10404.58, 4551.28, 25225.98, 0.00, 0.000, 0.000, 0.000, 13:27:05.938
84, 0.00, 21522.45, 12138.29, 8762.73, -10594.17, 4544.31, 25224.55, 0.00, 0.000, 0.000, 0.000, 13:27:05.939
85, 0.00, 21517.00, 12131.36, 8840.88, -10864.89, 4536.44, 25232.86, 0.00, 0.000, 0.000, 0.000, 13:27:05.939
86, 0.00, 21515.36, 12126.51, 8953.10, -10802.98, 4538.10, 25245.09, 0.00, 0.000, 0.000, 0.000, 13:27:05.939
87, 0.00, 21520.24, 12133.22, 8920.94, -10524.34, 4545.85, 25241.60, 0.00, 0.000, 0.000, 0.000, 13:27:05.939
88, 0.00, 21526.36, 12137.62, 8806.16, -10413.05, 4548.31, 25230.92, 0.00, 0.022, -0.028, 0.994, 13:27:05.939
89, 0.00, 21526.25, 12137.47, 8763.11, -10599.60, 4544.18, 25226.69, 0.00, 0.000, 0.000, 0.000, 13:27:05.940
90, 0.00, 21520.44, 12128.50, 8837.03, -10875.93, 4531.35, 25234.83, 0.00, 0.000, 0.000, 0.000, 13:27:05.940
91, 0.00, 21513.98, 12125.13, 8959.52, -10812.30, 4532.80, 25241.62, 0.00, 0.000, 0.000, 0.000, 13:27:05.940
92, 0.00, 21522.40, 12127.65, 8926.50, -10536.77, 4531.23, 25243.23, 0.00, 0.000, 0.000, 0.000, 13:27:05.941
93, 0.00, 21527.57, 12133.33, 8808.49, -10417.28, 4545.99, 25230.74, 0.00, 0.000, 0.000, 0.000, 13:27:05.941
94, 0.00, 21526.88, 12133.67, 8761.79, -10600.02, 4546.99, 25223.12, 0.00, 0.000, 0.000, 0.000, 13:27:05.941
95, 0.00, 21519.59, 12123.43, 8840.32, -10867.46, 4525.80, 25234.43, 0.00, 0.000, 0.000, 0.000, 13:27:05.942
96, 0.00, 21522.47, 12129.89, 8959.23, -10813.50, 4538.57, 25247.70, 0.00, 0.000, 0.000, 0.000, 13:27:05.942
97, 0.00, 21525.31, 12134.54, 8932.56, -10533.21, 4550.39, 25242.18, 0.00, 0.000, 0.000, 0.000, 13:27:05.942
98, 0.00, 21527.48, 12134.49, 8813.92, -10409.56, 4547.60, 25229.33, 0.00, 0.030, -0.030, 0.996, 13:27:05.942
99, 0.00, 21522.63, 12132.10, 8761.53, -10591.87, 4533.07, 25220.81, 0.00, 0.000, 0.000, 0.000, 13:27:05.942
100, 0.00, 21514.43, 12125.08, 8841.25, -10858.34, 4534.16, 25226.94, 0.00, 0.000, 0.000, 0.000, 13:27:05.942
101, 0.00, 21512.28, 12122.63, 8959.74, -10806.71, 4539.53, 25240.24, 0.00, 0.000, 0.000, 0.000, 13:27:05.942
102, 0.00, 21516.37, 12123.83, 8925.63, -10537.82, 4543.57, 25236.95, 0.00, 0.000, 0.000, 0.000, 13:27:05.943
103, 0.00, 21522.18, 12133.89, 8807.62, -10415.87, 4547.80, 25227.23, 0.00, 0.000, 0.000, 0.000, 13:27:05.943
104, 0.00, 21523.59, 12133.60, 8757.86, -10596.36, 4541.85, 25223.45, 0.00, 0.000, 0.000, 0.000, 13:27:05.944
105, 0.00, 21517.67, 12129.04, 8841.10, -10862.61, 4529.92, 25231.56, 0.00, 0.000, 0.000, 0.000, 13:27:05.945
106, 0.00, 21509.35, 12120.97, 8954.96, -10821.10, 4531.01, 25237.26, 0.00, 0.000, 0.000, 0.000, 13:27:05.945
107, 0.00, 21513.60, 12124.93, 8927.33, -10545.28, 4538.14, 25236.15, 0.00, 0.000, 0.000, 0.000, 13:27:05.946
108, 0.00, 21519.77, 12131.86, 8814.61, -10412.58, 4540.73, 25224.75, 0.00, 0.028, -0.030, 0.994, 13:27:05.946
109, 0.00, 21521.80, 12134.38, 8764.68, -10580.94, 4542.01, 25220.95, 0.00, 0.000, 0.000, 0.000, 13:27:05.946
110, 0.00, 21515.99, 12127.01, 8837.19, -10857.18, 4529.85, 25227.01, 0.00, 0.000, 0.000, 0.000, 13:27:05.946
111, 0.00, 21508.59, 12119.63, 8955.74, -10819.65, 4529.49, 25233.13, 0.00, 0.000, 0.000, 0.000, 13:27:05.946
112, 0.00, 21514.67, 12125.33, 8931.33, -10549.06, 4537.38, 25234.25, 0.00, 0.000, 0.000, 0.000, 13:27:05.947
113, 0.00, 21520.82, 12131.70, 8814.72, -10420.18, 4540.44, 25223.00, 0.00, 0.000, 0.000, 0.000, 13:27:05.947
114, 0.00, 21514.54, 12123.61, 8760.01, -10588.58, 4528.87, 25213.30, 0.00, 0.000, 0.000, 0.000, 13:27:05.947
115, 0.00, 21518.34, 12133.02, 8844.58, -10853.83, 4533.81, 25228.79, 0.00, 0.000, 0.000, 0.000, 13:27:05.950
116, 0.00, 21512.62, 12125.78, 8960.34, -10830.22, 4530.45, 25237.91, 0.00, 0.000, 0.000, 0.000, 13:27:05.951
117, 0.00, 21517.06, 12127.92, 8939.51, -10554.14, 4523.86, 25235.95, 0.00, 0.000, 0.000, 0.000, 13:27:05.951
118, 0.00, 21522.16, 12133.60, 8820.91, -10418.01, 4535.93, 25225.24, 0.00, 0.026, -0.034, 0.994, 13:27:05.951
119, 0.00, 21522.58, 12133.51, 8766.82, -10575.37, 4542.39, 25219.45, 0.00, 0.000, 0.000, 0.000, 13:27:05.951
120, 0.00, 21517.93, 12127.41, 8837.30, -10850.34, 4536.55, 25228.81, 0.00, 0.000, 0.000, 0.000, 13:27:05.951
121, 0.00, 21512.14, 12117.89, 8951.67, -10830.63, 4530.77, 25238.20, 0.00, 0.000, 0.000, 0.000, 13:27:06.387
122, 0.00, 21515.45, 12121.22, 8933.46, -10552.06, 4542.61, 25235.25, 0.00, 0.000, 0.000, 0.000, 13:27:06.387
123, 0.00, 21525.76, 12135.86, 8822.26, -10409.77, 4549.79, 25228.28, 0.00, 0.000, 0.000, 0.000, 13:27:06.387
124, 0.00, 21521.35, 12127.97, 8761.26, -10571.28, 4542.34, 25220.39, 0.00, 0.000, 0.000, 0.000, 13:27:06.387
125, 0.00, 21518.11, 12127.79, 8833.88, -10844.69, 4536.80, 25229.42, 0.00, 0.000, 0.000, 0.000, 13:27:06.387
126, 0.00, 21511.52, 12122.49, 8950.06, -10834.09, 4533.16, 25238.56, 0.00, 0.000, 0.000, 0.000, 13:27:06.388
127, 0.00, 21515.12, 12125.87, 8937.90, -10557.00, 4542.79, 25236.21, 0.00, 0.030, -0.024, 1.000, 13:27:06.389
128, 0.00, 21518.65, 12130.29, 8821.14, -10408.74, 4545.05, 25224.70, 0.00, 0.000, 0.000, 0.000, 13:27:06.389
129, 0.00, 21521.58, 12127.25, 8758.93, -10567.10, 4541.61, 25218.56, 0.00, 0.000, 0.000, 0.000, 13:27:06.389
130, 0.00, 21516.37, 12126.13, 8829.97, -10841.98, 4539.77, 25225.93, 0.00, 0.000, 0.000, 0.000, 13:27:06.389
131, 0.00, 21513.53, 12126.40, 8951.14, -10834.81, 4536.82, 25239.10, 0.00, 0.000, 0.000, 0.000, 13:27:06.389
132, 0.00, 21511.88, 12121.10, 8931.33, -10571.68, 4521.09, 25233.33, 0.00, 0.000, 0.000, 0.000, 13:27:06.390
133, 0.00, 21515.05, 12125.33, 8814.86, -10425.88, 4523.55, 25224.86, 0.00, 0.000, 0.000, 0.000, 13:27:06.390
134, 0.00, 21525.53, 12139.68, 8764.41, -10566.43, 4559.93, 25222.62, 0.00, 0.000, 0.000, 0.000, 13:27:06.390
135, 0.00, 21514.94, 12125.96, 8829.25, -10841.74, 4535.35, 25227.03, 0.00, 0.000, 0.000, 0.000, 13:27:06.390
136, 0.00, 21508.48, 12117.26, 8942.69, -10841.98, 4530.59, 25235.68, 0.00, 0.000, 0.000, 0.000, 13:27:06.390
137, 0.00, 21514.87, 12117.01, 8930.71, -10565.60, 4534.92, 25234.11, 0.00, 0.030, -0.030, 0.998, 13:27:06.390
138, 0.00, 21523.32, 12130.78, 8818.14, -10417.81, 4542.70, 25226.56, 0.00, 0.000, 0.000, 0.000, 13:27:06.390
139, 0.00, 21524.30, 12129.93, 8759.22, -10561.96, 4542.05, 25220.95, 0.00, 0.000, 0.000, 0.000, 13:27:06.391
140, 0.00, 21517.35, 12120.64, 8824.20, -10838.34, 4529.71, 25227.74, 0.00, 0.000, 0.000, 0.000, 13:27:06.391
141, 0.00, 21512.53, 12114.89, 8946.69, -10841.02, 4525.47, 25237.89, 0.00, 0.000, 0.000, 0.000, 13:27:06.391
142, 0.00, 21515.14, 12117.98, 8939.89, -10569.47, 4530.03, 25237.89, 0.00, 0.000, 0.000, 0.000, 13:27:06.391
143, 0.00, 21522.45, 12122.54, 8820.49, -10419.22, 4537.65, 25229.22, 0.00, 0.000, 0.000, 0.000, 13:27:06.392
144, 0.00, 21524.33, 12129.69, 8756.30, -10566.83, 4540.96, 25223.23, 0.00, 0.000, 0.000, 0.000, 13:27:06.392
145, 0.00, 21512.39, 12116.70, 8816.91, -10850.63, 4524.98, 25225.91, 0.00, 0.000, 0.000, 0.000, 13:27:06.392
146, 0.00, 21509.73, 12113.88, 8944.90, -10844.82, 4536.51, 25239.14, 0.00, 0.000, 0.000, 0.000, 13:27:06.392
147, 0.00, 21514.54, 12121.04, 8943.92, -10562.70, 4540.35, 25241.04, 0.00, 0.026, -0.030, 0.994, 13:27:06.393
148, 0.00, 21521.35, 12132.42, 8829.36, -10405.23, 4547.64, 25230.38, 0.00, 0.000, 0.000, 0.000, 13:27:06.393
149, 0.00, 21524.26, 12131.43, 8760.97, -10551.14, 4548.67, 25224.37, 0.00, 0.000, 0.000, 0.000, 13:27:06.393
150, 0.00, 21514.13, 12119.72, 8825.16, -10830.78, 4529.67, 25228.14, 0.00, 0.000, 0.000, 0.000, 13:27:06.393
151, 0.00, 21505.22, 12113.42, 8945.50, -10841.53, 4527.26, 25235.41, 0.00, 0.000, 0.000, 0.000, 13:27:06.396
152, 0.00, 21509.66, 12120.81, 8944.36, -10565.00, 4540.06, 25234.76, 0.00, 0.000, 0.000, 0.000, 13:27:06.396
153, 0.00, 21518.09, 12130.05, 8829.50, -10406.19, 4549.07, 25226.94, 0.00, 0.000, 0.000, 0.000, 13:27:06.396
154, 0.00, 21517.42, 12128.66, 8757.84, -10554.92, 4545.47, 25217.39, 0.00, 0.000, 0.000, 0.000, 13:27:06.396
155, 0.00, 21510.04, 12124.05, 8822.12, -10839.97, 4534.03, 25222.96, 0.00, 0.000, 0.000, 0.000, 13:27:06.396
156, 0.00, 21505.28, 12118.69, 8947.13, -10855.21, 4531.39, 25235.45, 0.00, 0.000, 0.000, 0.000, 13:27:06.396
157, 0.00, 21505.53, 12116.46, 8943.18, -10585.50, 4534.25, 25233.49, 0.00, 0.032, -0.028, 0.994, 13:27:06.396
158, 0.00, 21515.61, 12128.82, 8834.24, -10414.44, 4545.74, 25225.37, 0.00, 0.000, 0.000, 0.000, 13:27:06.397
159, 0.00, 21517.26, 12131.41, 8767.36, -10542.02, 4544.80, 25220.23, 0.00, 0.000, 0.000, 0.000, 13:27:06.398
160, 0.00, 21510.33, 12121.53, 8827.31, -10818.71, 4535.15, 25225.42, 0.00, 0.000, 0.000, 0.000, 13:27:06.398
161, 0.00, 21502.20, 12116.54, 8943.40, -10853.47, 4515.57, 25232.91, 0.00, 0.000, 0.000, 0.000, 13:27:06.398
162, 0.00, 21503.99, 12116.90, 8943.09, -10587.82, 4540.22, 25232.88, 0.00, 0.000, 0.000, 0.000, 13:27:06.398
163, 0.00, 21514.71, 12127.77, 8830.75, -10420.38, 4541.47, 25226.54, 0.00, 0.000, 0.000, 0.000, 13:27:06.398
164, 0.00, 21516.17, 12129.02, 8757.57, -10557.29, 4530.05, 25220.39, 0.00, 0.000, 0.000, 0.000, 13:27:06.398
165, 0.00, 21508.97, 12123.83, 8825.34, -10827.68, 4543.24, 25222.24, 0.00, 0.000, 0.000, 0.000, 13:27:06.398
166, 0.00, 21503.45, 12114.67, 8946.02, -10853.98, 4534.36, 25232.41, 0.00, 0.000, 0.000, 0.000, 13:27:06.398
167, 0.00, 21508.23, 12120.50, 8949.64, -10584.47, 4540.04, 25234.69, 0.00, 0.028, -0.036, 0.990, 13:27:06.399
168, 0.00, 21513.60, 12126.60, 8835.67, -10417.90, 4542.52, 25224.03, 0.00, 0.000, 0.000, 0.000, 13:27:06.399
169, 0.00, 21521.22, 12134.61, 8772.90, -10535.43, 4542.95, 25222.18, 0.00, 0.000, 0.000, 0.000, 13:27:06.399
170, 0.00, 21510.36, 12122.49, 8828.40, -10814.89, 4529.33, 25222.24, 0.00, 0.000, 0.000, 0.000, 13:27:06.399
171, 0.00, 21508.21, 12117.68, 8947.43, -10853.54, 4528.71, 25236.75, 0.00, 0.000, 0.000, 0.000, 13:27:06.399
172, 0.00, 21512.44, 12126.69, 8958.22, -10587.93, 4534.19, 25239.66, 0.00, 0.000, 0.000, 0.000, 13:27:06.399
173, 0.00, 21518.98, 12131.88, 8843.04, -10423.53, 4529.31, 25226.92, 0.00, 0.000, 0.000, 0.000, 13:27:06.399
174, 0.00, 21519.61, 12133.60, 8773.95, -10538.71, 4546.30, 25218.64, 0.00, 0.000, 0.000, 0.000, 13:27:06.399
175, 0.00, 21510.42, 12121.60, 8825.34, -10820.46, 4532.42, 25223.36, 0.00, 0.000, 0.000, 0.000, 13:27:06.399
176, 0.00, 21508.81, 12118.13, 8949.46, -10856.00, 4530.81, 25236.88, 0.00, 0.000, 0.000, 0.000, 13:27:06.399
177, 0.00, 21509.60, 12118.33, 8958.00, -10587.91, 4527.26, 25234.31, 0.00, 0.030, -0.036, 0.988, 13:27:06.399
178, 0.00, 21521.06, 12128.77, 8841.05, -10423.38, 4539.35, 25227.99, 0.00, 0.000, 0.000, 0.000, 13:27:06.399
179, 0.00, 21521.91, 12131.32, 8763.02, -10549.53, 4546.05, 25218.56, 0.00, 0.000, 0.000, 0.000, 13:27:06.399
180, 0.00, 21510.98, 12122.92, 8822.88, -10823.34, 4529.16, 25219.38, 0.00, 0.000, 0.000, 0.000, 13:27:06.399
181, 0.00, 21511.61, 12120.43, 8947.18, -10864.83, 4521.47, 25238.31, 0.00, 0.000, 0.000, 0.000, 13:27:06.400
182, 0.00, 21511.16, 12120.14, 8955.85, -10600.74, 4535.93, 25238.34, 0.00, 0.000, 0.000, 0.000, 13:27:06.400
183, 0.00, 21516.24, 12128.30, 8840.07, -10428.79, 4536.02, 25223.29, 0.00, 0.000, 0.000, 0.000, 13:27:06.400
184, 0.00, 21518.52, 12131.50, 8766.55, -10539.50, 4537.29, 25216.81, 0.00, 0.000, 0.000, 0.000, 13:27:06.400
185, 0.00, 21514.27, 12129.60, 8825.81, -10810.87, 4536.38, 25224.26, 0.00, 0.000, 0.000, 0.000, 13:27:06.400
186, 0.00, 21508.75, 12125.37, 8946.02, -10867.26, 4532.69, 25235.16, 0.00, 0.000, 0.000, 0.000, 13:27:06.400
187, 0.00, 21509.28, 12125.75, 8957.82, -10611.07, 4535.79, 25235.63, 0.00, 0.026, -0.040, 0.990, 13:27:06.400
188, 0.00, 21512.41, 12130.76, 8844.43, -10433.19, 4537.72, 25221.91, 0.00, 0.000, 0.000, 0.000, 13:27:06.400
189, 0.00, 21513.02, 12133.22, 8766.31, -10541.95, 4538.21, 25213.17, 0.00, 0.000, 0.000, 0.000, 13:27:06.401
190, 0.00, 21510.36, 12128.15, 8821.03, -10815.99, 4532.78, 25221.57, 0.00, 0.000, 0.000, 0.000, 13:27:06.401
191, 0.00, 21505.08, 12117.64, 8941.82, -10872.94, 4523.59, 25235.14, 0.00, 0.000, 0.000, 0.000, 13:27:06.401
192, 0.00, 21507.81, 12120.03, 8959.12, -10608.61, 4529.85, 25236.04, 0.00, 0.000, 0.000, 0.000, 13:27:06.401
193, 0.00, 21514.54, 12130.29, 8849.03, -10424.32, 4543.13, 25227.32, 0.00, 0.000, 0.000, 0.000, 13:27:06.401
194, 0.00, 21518.74, 12132.95, 8769.08, -10535.25, 4525.76, 25221.80, 0.00, 0.000, 0.000, 0.000, 13:27:06.401
195, 0.00, 21512.46, 12127.74, 8819.13, -10813.15, 4535.55, 25225.44, 0.00, 0.000, 0.000, 0.000, 13:27:06.401
196, 0.00, 21503.12, 12122.42, 8945.64, -10873.27, 4532.67, 25233.62, 0.00, 0.000, 0.000, 0.000, 13:27:06.401
197, 0.00, 21506.71, 12124.64, 8971.86, -10602.68, 4534.63, 25234.65, 0.00, 0.032, -0.034, 0.998, 13:27:06.402
198, 0.00, 21511.56, 12126.11, 8854.89, -10417.16, 4539.10, 25222.47, 0.00, 0.000, 0.000, 0.000, 13:27:06.402
199, 0.00, 21518.72, 12134.40, 8772.30, -10520.99, 4541.61, 25218.53, 0.00, 0.000, 0.000, 0.000, 13:27:06.402
200, 0.00, 21512.86, 12127.56, 8816.38, -10804.97, 4533.29, 25223.90, 0.00, 0.000, 0.000, 0.000, 13:27:06.402
201, 0.00, 21504.34, 12117.53, 8936.23, -10877.21, 4523.19, 25233.51, 0.00, 0.000, 0.000, 0.000, 13:27:06.402
202, 0.00, 21505.46, 12117.84, 8958.56, -10612.85, 4518.05, 25235.07, 0.00, 0.000, 0.000, 0.000, 13:27:06.402
203, 0.00, 21515.99, 12123.36, 8848.41, -10420.83, 4543.68, 25224.41, 0.00, 0.000, 0.000, 0.000, 13:27:06.403
204, 0.00, 21517.13, 12128.86, 8769.39, -10517.48, 4540.67, 25215.96, 0.00, 0.000, 0.000, 0.000, 13:27:06.403
205, 0.00, 21518.11, 12128.86, 8821.03, -10797.84, 4536.60, 25227.36, 0.00, 0.000, 0.000, 0.000, 13:27:06.403
206, 0.00, 21509.48, 12123.38, 8945.12, -10870.44, 4528.44, 25238.14, 0.00, 0.000, 0.000, 0.000, 13:27:06.403
207, 0.00, 21509.71, 12123.07, 8966.20, -10614.53, 4531.99, 25238.87, 0.00, 0.024, -0.034, 0.996, 13:27:06.403
208, 0.00, 21517.80, 12132.84, 8857.33, -10424.83, 4545.81, 25228.97, 0.00, 0.000, 0.000, 0.000, 13:27:06.403
209, 0.00, 21521.35, 12138.25, 8773.53, -10522.62, 4544.58, 25219.70, 0.00, 0.000, 0.000, 0.000, 13:27:06.403
210, 0.00, 21512.70, 12128.35, 8818.39, -10803.51, 4529.69, 25223.96, 0.00, 0.000, 0.000, 0.000, 13:27:06.403
211, 0.00, 21501.68, 12114.40, 8937.79, -10886.44, 4512.88, 25232.23, 0.00, 0.000, 0.000, 0.000, 13:27:06.403
212, 0.00, 21513.24, 12127.34, 8973.26, -10620.65, 4541.05, 25239.12, 0.00, 0.000, 0.000, 0.000, 13:27:06.405
213, 0.00, 21516.77, 12130.56, 8864.75, -10427.69, 4528.19, 25227.65, 0.00, 0.000, 0.000, 0.000, 13:27:06.405
214, 0.00, 21519.23, 12133.51, 8783.48, -10510.44, 4546.81, 25217.95, 0.00, 0.000, 0.000, 0.000, 13:27:06.405
215, 0.00, 21510.60, 12125.35, 8824.27, -10789.08, 4538.39, 25219.94, 0.00, 0.000, 0.000, 0.000, 13:27:06.405
216, 0.00, 21504.19, 12110.51, 8940.65, -10877.30, 4527.10, 25231.63, 0.00, 0.000, 0.000, 0.000, 13:27:06.405
217, 0.00, 21512.73, 12127.27, 8976.04, -10618.24, 4541.56, 25241.91, 0.00, 0.022, -0.034, 0.994, 13:27:06.405
218, 0.00, 21518.05, 12130.94, 8864.41, -10424.81, 4548.04, 25230.94, 0.00, 0.000, 0.000, 0.000, 13:27:06.405
219, 0.00, 21516.82, 12131.81, 8780.93, -10503.73, 4541.29, 25218.78, 0.00, 0.000, 0.000, 0.000, 13:27:06.406
220, 0.00, 21513.13, 12127.65, 8824.33, -10780.69, 4533.34, 25223.18, 0.00, 0.000, 0.000, 0.000, 13:27:06.406
221, 0.00, 21507.81, 12123.61, 8946.33, -10875.20, 4524.51, 25235.65, 0.00, 0.000, 0.000, 0.000, 13:27:06.406
222, 0.00, 21507.81, 12124.01, 8980.93, -10619.65, 4532.87, 25235.07, 0.00, 0.000, 0.000, 0.000, 13:27:06.406
223, 0.00, 21516.39, 12128.21, 8866.40, -10425.75, 4539.26, 25227.54, 0.00, 0.000, 0.000, 0.000, 13:27:06.406
224, 0.00, 21519.77, 12131.27, 8775.96, -10510.64, 4541.11, 25221.10, 0.00, 0.000, 0.000, 0.000, 13:27:06.406
225, 0.00, 21512.66, 12120.30, 8812.71, -10788.92, 4531.03, 25221.91, 0.00, 0.000, 0.000, 0.000, 13:27:06.406
226, 0.00, 21511.14, 12120.86, 8939.49, -10878.93, 4531.06, 25237.98, 0.00, 0.000, 0.000, 0.000, 13:27:06.407
227, 0.00, 21510.78, 12122.42, 8977.69, -10622.62, 4534.05, 25239.12, 0.00, 0.028, -0.030, 0.996, 13:27:06.407
228, 0.00, 21520.84, 12129.04, 8866.09, -10425.50, 4527.30, 25232.91, 0.00, 0.000, 0.000, 0.000, 13:27:06.407
229, 0.00, 21522.38, 12132.37, 8773.89, -10504.72, 4548.67, 25222.82, 0.00, 0.000, 0.000, 0.000, 13:27:06.407
230, 0.00, 21515.61, 12125.89, 8811.71, -10782.06, 4540.40, 25223.05, 0.00, 0.000, 0.000, 0.000, 13:27:06.407
231, 0.00, 21506.85, 12116.19, 8931.33, -10888.16, 4527.30, 25231.16, 0.00, 0.000, 0.000, 0.000, 13:27:06.407
232, 0.00, 21509.60, 12120.34, 8967.30, -10641.60, 4531.95, 25235.68, 0.00, 0.000, 0.000, 0.000, 13:27:06.407
233, 0.00, 21517.40, 12131.77, 8866.85, -10434.33, 4538.39, 25230.67, 0.00, 0.000, 0.000, 0.000, 13:27:06.408
234, 0.00, 21518.74, 12130.60, 8775.36, -10506.48, 4543.22, 25219.12, 0.00, 0.000, 0.000, 0.000, 13:27:06.408
235, 0.00, 21515.47, 12127.54, 8814.95, -10779.08, 4535.86, 25223.36, 0.00, 0.000, 0.000, 0.000, 13:27:06.408
236, 0.00, 21508.50, 12118.78, 8936.16, -10887.33, 4521.27, 25233.80, 0.00, 0.000, 0.000, 0.000, 13:27:06.408
237, 0.00, 21509.17, 12121.22, 8975.41, -10644.10, 4530.01, 25235.54, 0.00, 0.030, -0.032, 0.992, 13:27:06.409
238, 0.00, 21516.48, 12127.56, 8871.70, -10434.20, 4544.89, 25228.64, 0.00, 0.000, 0.000, 0.000, 13:27:06.409
239, 0.00, 21519.88, 12130.65, 8780.06, -10497.34, 4543.66, 25220.48, 0.00, 0.000, 0.000, 0.000, 13:27:06.409
240, 0.00, 21517.80, 12127.14, 8810.07, -10776.74, 4538.39, 25227.03, 0.00, 0.000, 0.000, 0.000, 13:27:06.409
241, 0.00, 21511.56, 12120.64, 8929.83, -10892.54, 4533.56, 25235.37, 0.00, 0.000, 0.000, 0.000, 13:27:06.867
242, 0.00, 21508.52, 12119.25, 8975.90, -10643.36, 4534.45, 25235.32, 0.00, 0.000, 0.000, 0.000, 13:27:06.867
243, 0.00, 21516.08, 12120.77, 8864.43, -10437.10, 4528.71, 25227.74, 0.00, 0.000, 0.000, 0.000, 13:27:06.867
244, 0.00, 21518.31, 12124.10, 8767.16, -10507.15, 4539.93, 25216.86, 0.00, 0.000, 0.000, 0.000, 13:27:06.867
245, 0.00, 21513.02, 12118.56, 8801.76, -10779.64, 4537.27, 25217.21, 0.00, 0.000, 0.000, 0.000, 13:27:06.867
246, 0.00, 21508.17, 12119.81, 8930.84, -10893.10, 4524.04, 25231.95, 0.00, 0.000, 0.000, 0.000, 13:27:06.867
247, 0.00, 21508.90, 12117.24, 8977.82, -10646.16, 4531.17, 25238.29, 0.00, 0.028, -0.034, 0.992, 13:27:06.868
248, 0.00, 21520.42, 12132.28, 8878.25, -10426.91, 4544.06, 25233.69, 0.00, 0.000, 0.000, 0.000, 13:27:06.868
249, 0.00, 21522.85, 12128.97, 8777.28, -10486.12, 4541.45, 25223.43, 0.00, 0.000, 0.000, 0.000, 13:27:06.868
250, 0.00, 21518.87, 12124.28, 8805.31, -10761.92, 4532.06, 25225.80, 0.00, 0.000, 0.000, 0.000, 13:27:06.868
251, 0.00, 21512.79, 12123.99, 8929.70, -10892.09, 4527.19, 25234.54, 0.00, 0.000, 0.000, 0.000, 13:27:06.868
252, 0.00, 21511.34, 12123.65, 8979.68, -10657.27, 4534.81, 25237.89, 0.00, 0.000, 0.000, 0.000, 13:27:06.868
253, 0.00, 21515.92, 12126.00, 8876.24, -10442.24, 4537.92, 25227.12, 0.00, 0.000, 0.000, 0.000, 13:27:06.868
254, 0.00, 21520.35, 12131.34, 8779.30, -10500.47, 4537.47, 25216.77, 0.00, 0.000, 0.000, 0.000, 13:27:06.868
255, 0.00, 21513.53, 12125.24, 8812.53, -10767.89, 4536.04, 25219.79, 0.00, 0.000, 0.000, 0.000, 13:27:06.869
0, 0.00, 21508.46, 12119.94, 8931.15, -10894.24, 4529.80, 25232.95, 0.00, 0.000, 0.000, 0.000, 13:27:06.869
1, 0.00, 21508.17, 12113.59, 8976.42, -10658.29, 4520.24, 25235.05, 0.00, 0.028, -0.036, 0.998, 13:27:06.869
2, 0.00, 21518.78, 12120.03, 8875.86, -10441.57, 4538.75, 25229.89, 0.00, 0.000, 0.000, 0.000, 13:27:06.869
3, 0.00, 21525.45, 12134.56, 8785.26, -10491.71, 4541.27, 25224.88, 0.00, 0.000, 0.000, 0.000, 13:27:06.869
4, 0.00, 21519.46, 12126.13, 8817.20, -10757.33, 4525.47, 25225.75, 0.00, 0.000, 0.000, 0.000, 13:27:06.869
5, 0.00, 21511.68, 12119.58, 8936.70, -10884.67, 4533.31, 25236.19, 0.00, 0.000, 0.000, 0.000, 13:27:06.869
6, 0.00, 21513.49, 12116.77, 8988.51, -10648.42, 4537.20, 25238.56, 0.00, 0.000, 0.000, 0.000, 13:27:06.869
7, 0.00, 21519.32, 12121.60, 8885.78, -10431.80, 4538.88, 25228.61, 0.00, 0.000, 0.000, 0.000, 13:27:06.870
8, 0.00, 21523.81, 12123.94, 8785.71, -10485.20, 4527.32, 25221.71, 0.00, 0.000, 0.000, 0.000, 13:27:06.870
9, 0.00, 21519.39, 12120.55, 8808.89, -10762.32, 4533.89, 25221.57, 0.00, 0.000, 0.000, 0.000, 13:27:06.870
10, 0.00, 21513.55, 12108.48, 8926.17, -10902.11, 4525.92, 25234.34, 0.00, 0.000, 0.000, 0.000, 13:27:06.870
11, 0.00, 21520.10, 12121.02, 8989.65, -10662.92, 4535.84, 25242.96, 0.00, 0.028, -0.038, 0.996, 13:27:06.870
12, 0.00, 21524.15, 12124.01, 8887.59, -10442.29, 4539.26, 25231.56, 0.00, 0.000, 0.000, 0.000, 13:27:06.870
13, 0.00, 21526.07, 12128.39, 8787.23, -10486.03, 4538.66, 25222.13, 0.00, 0.000, 0.000, 0.000, 13:27:06.870
14, 0.00, 21521.51, 12123.32, 8812.71, -10749.87, 4533.63, 25223.09, 0.00, 0.000, 0.000, 0.000, 13:27:06.870
15, 0.00, 21513.49, 12114.11, 8932.18, -10890.93, 4525.18, 25233.13, 0.00, 0.000, 0.000, 0.000, 13:27:06.871
16, 0.00, 21511.38, 12112.77, 8987.50, -10670.03, 4519.12, 25239.50, 0.00, 0.000, 0.000, 0.000, 13:27:06.871
17, 0.00, 21518.72, 12121.66, 8894.00, -10445.73, 4544.94, 25228.61, 0.00, 0.000, 0.000, 0.000, 13:27:06.871
18, 0.00, 21520.24, 12122.49, 8794.88, -10482.36, 4539.50, 25220.95, 0.00, 0.000, 0.000, 0.000, 13:27:06.871
19, 0.00, 21514.25, 12120.81, 8818.48, -10752.24, 4526.32, 25219.99, 0.00, 0.000, 0.000, 0.000, 13:27:06.871
20, 0.00, 21516.57, 12118.40, 8941.03, -10901.04, 4531.35, 25236.62, 0.00, 0.000, 0.000, 0.000, 13:27:06.871
21, 0.00, 21509.20, 12106.55, 8995.44, -10679.37, 4515.03, 25236.15, 0.00, 0.032, -0.030, 0.996, 13:27:06.871
22, 0.00, 21520.95, 12124.39, 8904.62, -10445.28, 4543.28, 25231.16, 0.00, 0.000, 0.000, 0.000, 13:27:06.871
23, 0.00, 21523.07, 12129.98, 8807.37, -10480.13, 4543.30, 25217.75, 0.00, 0.000, 0.000, 0.000, 13:27:06.872
24, 0.00, 21517.04, 12124.66, 8829.34, -10751.50, 4534.34, 25219.94, 0.00, 0.000, 0.000, 0.000, 13:27:06.872
25, 0.00, 21512.73, 12116.75, 8947.60, -10902.26, 4529.09, 25232.93, 0.00, 0.000, 0.000, 0.000, 13:27:06.872
26, 0.00, 21512.66, 12113.71, 9004.31, -10683.51, 4526.59, 25238.43, 0.00, 0.000, 0.000, 0.000, 13:27:06.872
27, 0.00, 21517.08, 12117.04, 8907.04, -10448.68, 4533.85, 25228.44, 0.00, 0.000, 0.000, 0.000, 13:27:06.872
28, 0.00, 21519.99, 12118.20, 8799.84, -10479.32, 4534.57, 25216.54, 0.00, 0.000, 0.000, 0.000, 13:27:06.872
29, 0.00, 21522.85, 12119.14, 8816.42, -10745.98, 4529.71, 25222.58, 0.00, 0.000, 0.000, 0.000, 13:27:06.872
30, 0.00, 21514.36, 12111.38, 8930.93, -10908.23, 4516.91, 25232.75, 0.00, 0.000, 0.000, 0.000, 13:27:06.873
31, 0.00, 21511.97, 12114.09, 9001.41, -10682.86, 4527.19, 25237.64, 0.00, 0.034, -0.030, 0.990, 13:27:06.873
32, 0.00, 21516.26, 12116.88, 8903.15, -10447.63, 4532.29, 25227.74, 0.00, 0.000, 0.000, 0.000, 13:27:06.873
33, 0.00, 21522.49, 12118.74, 8791.48, -10476.75, 4529.02, 25221.69, 0.00, 0.000, 0.000, 0.000, 13:27:06.873
34, 0.00, 21519.21, 12119.09, 8805.36, -10745.31, 4528.15, 25222.29, 0.00, 0.000, 0.000, 0.000, 13:27:06.873
35, 0.00, 21509.15, 12106.46, 8921.54, -10905.39, 4526.29, 25230.74, 0.00, 0.000, 0.000, 0.000, 13:27:06.873
36, 0.00, 21506.42, 12105.48, 8984.91, -10689.41, 4526.00, 25235.79, 0.00, 0.000, 0.000, 0.000, 13:27:06.873
37, 0.00, 21522.00, 12122.20, 8894.52, -10453.71, 4533.36, 25233.29, 0.00, 0.000, 0.000, 0.000, 13:27:06.873
38, 0.00, 21523.01, 12123.90, 8790.58, -10473.98, 4537.25, 25218.42, 0.00, 0.000, 0.000, 0.000, 13:27:06.874
39, 0.00, 21515.95, 12116.54, 8802.83, -10743.52, 4528.44, 25218.33, 0.00, 0.000, 0.000, 0.000, 13:27:06.874
40, 0.00, 21504.79, 12105.68, 8917.90, -10909.86, 4513.87, 25226.65, 0.00, 0.000, 0.000, 0.000, 13:27:06.874
41, 0.00, 21508.75, 12114.78, 8992.35, -10693.23, 4527.86, 25235.54, 0.00, 0.032, -0.030, 0.986, 13:27:06.874
42, 0.00, 21516.30, 12121.80, 8902.92, -10455.18, 4537.69, 25229.55, 0.00, 0.000, 0.000, 0.000, 13:27:06.874
43, 0.00, 21518.18, 12125.93, 8795.72, -10471.90, 4539.42, 25215.20, 0.00, 0.000, 0.000, 0.000, 13:27:06.875
44, 0.00, 21513.51, 12120.70, 8804.08, -10738.36, 4536.04, 25212.34, 0.00, 0.000, 0.000, 0.000, 13:27:06.875
45, 0.00, 21506.65, 12117.33, 8923.11, -10905.42, 4529.83, 25230.89, 0.00, 0.000, 0.000, 0.000, 13:27:06.875
46, 0.00, 21508.37, 12113.88, 8994.54, -10696.38, 4530.77, 25236.97, 0.00, 0.000, 0.000, 0.000, 13:27:06.875
47, 0.00, 21516.24, 12119.50, 8900.33, -10461.67, 4535.03, 25226.31, 0.00, 0.000, 0.000, 0.000, 13:27:06.875
48, 0.00, 21521.35, 12121.46, 8791.25, -10477.02, 4533.45, 25217.01, 0.00, 0.000, 0.000, 0.000, 13:27:06.875
49, 0.00, 21516.41, 12117.91, 8803.03, -10735.94, 4528.71, 25218.49, 0.00, 0.000, 0.000, 0.000, 13:27:06.875
50, 0.00, 21507.23, 12107.98, 8918.68, -10906.62, 4529.27, 25228.44, 0.00, 0.000, 0.000, 0.000, 13:27:06.876
51, 0.00, 21504.08, 12101.88, 8986.59, -10707.92, 4520.33, 25232.79, 0.00, 0.032, -0.028, 0.986, 13:27:06.876
52, 0.00, 21510.56, 12110.82, 8899.48, -10466.56, 4532.26, 25222.33, 0.00, 0.000, 0.000, 0.000, 13:27:06.876
53, 0.00, 21517.04, 12124.73, 8799.64, -10468.08, 4542.81, 25216.32, 0.00, 0.000, 0.000, 0.000, 13:27:06.876
54, 0.00, 21515.81, 12118.29, 8806.72, -10729.60, 4532.55, 25219.16, 0.00, 0.000, 0.000, 0.000, 13:27:06.876
55, 0.00, 21508.10, 12111.90, 8920.85, -10907.49, 4525.40, 25229.06, 0.00, 0.000, 0.000, 0.000, 13:27:06.876
56, 0.00, 21502.47, 12108.19, 8995.82, -10703.92, 4520.06, 25233.02, 0.00, 0.000, 0.000, 0.000, 13:27:06.877
57, 0.00, 21508.44, 12110.60, 8905.02, -10461.04, 4535.73, 25223.07, 0.00, 0.000, 0.000, 0.000, 13:27:06.877
58, 0.00, 21519.68, 12121.22, 8800.35, -10461.26, 4542.34, 25219.27, 0.00, 0.000, 0.000, 0.000, 13:27:06.877
59, 0.00, 21514.09, 12117.48, 8808.22, -10716.86, 4535.26, 25219.52, 0.00, 0.000, 0.000, 0.000, 13:27:06.877
60, 0.00, 21508.64, 12111.43, 8922.50, -10897.82, 4525.20, 25232.73, 0.00, 0.000, 0.000, 0.000, 13:27:06.877
61, 0.00, 21506.00, 12105.50, 8994.32, -10705.68, 4519.52, 25235.19, 0.00, 0.036, -0.028, 0.990, 13:27:06.878
62, 0.00, 21509.78, 12112.10, 8904.20, -10467.12, 4534.12, 25226.20, 0.00, 0.000, 0.000, 0.000, 13:27:06.878
63, 0.00, 21515.65, 12118.98, 8796.01, -10468.60, 4539.84, 25215.49, 0.00, 0.000, 0.000, 0.000, 13:27:06.878
64, 0.00, 21515.59, 12113.17, 8802.65, -10718.24, 4529.49, 25217.55, 0.00, 0.000, 0.000, 0.000, 13:27:06.878
65, 0.00, 21510.71, 12114.60, 8922.24, -10900.88, 4524.80, 25233.87, 0.00, 0.000, 0.000, 0.000, 13:27:06.878
66, 0.00, 21506.56, 12107.54, 8997.65, -10713.21, 4516.71, 25236.21, 0.00, 0.000, 0.000, 0.000, 13:27:06.878
67, 0.00, 21513.42, 12113.28, 8906.14, -10473.60, 4532.58, 25227.72, 0.00, 0.000, 0.000, 0.000, 13:27:06.878
68, 0.00, 21516.53, 12115.25, 8792.97, -10469.49, 4539.33, 25216.19, 0.00, 0.000, 0.000, 0.000, 13:27:06.878
69, 0.00, 21514.98, 12119.83, 8803.84, -10718.55, 4527.90, 25220.48, 0.00, 0.000, 0.000, 0.000, 13:27:06.878
70, 0.00, 21505.82, 12109.59, 8918.30, -10908.46, 4522.14, 25228.21, 0.00, 0.000, 0.000, 0.000, 13:27:06.878
71, 0.00, 21506.87, 12107.40, 9002.14, -10712.43, 4529.56, 25236.93, 0.00, 0.032, -0.034, 0.992, 13:27:06.878
72, 0.00, 21511.47, 12110.29, 8908.09, -10472.04, 4536.42, 25227.54, 0.00, 0.000, 0.000, 0.000, 13:27:06.879
73, 0.00, 21513.20, 12116.79, 8794.85, -10465.02, 4536.76, 25213.62, 0.00, 0.000, 0.000, 0.000, 13:27:06.879
74, 0.00, 21512.48, 12114.09, 8798.99, -10710.06, 4525.42, 25215.58, 0.00, 0.000, 0.000, 0.000, 13:27:06.879
75, 0.00, 21510.04, 12109.28, 8918.08, -10897.19, 4518.61, 25231.07, 0.00, 0.000, 0.000, 0.000, 13:27:06.879
76, 0.00, 21505.08, 12102.31, 9002.95, -10703.49, 4525.47, 25234.74, 0.00, 0.000, 0.000, 0.000, 13:27:06.881
77, 0.00, 21512.93, 12108.07, 8913.72, -10456.73, 4531.41, 25228.99, 0.00, 0.000, 0.000, 0.000, 13:27:06.881
78, 0.00, 21517.51, 12115.79, 8797.27, -10440.99, 4534.01, 25217.13, 0.00, 0.000, 0.000, 0.000, 13:27:06.881
79, 0.00, 21517.87, 12111.92, 8799.28, -10685.38, 4528.31, 25220.93, 0.00, 0.000, 0.000, 0.000, 13:27:06.881
80, 0.00, 21509.11, 12103.04, 8924.72, -10875.89, 4515.63, 25233.29, 0.00, 0.000, 0.000, 0.000, 13:27:06.881
81, 0.00, 21504.26, 12102.11, 9014.82, -10688.92, 4519.39, 25239.01, 0.00, 0.032, -0.048, 0.996, 13:27:06.881
82, 0.00, 21515.74, 12108.41, 8901.60, -10460.53, 4534.92, 25230.13, 0.00, 0.000, 0.000, 0.000, 13:27:06.882
83, 0.00, 21515.30, 12109.57, 8767.00, -10458.85, 4531.84, 25209.53, 0.00, 0.000, 0.000, 0.000, 13:27:06.882
84, 0.00, 21514.98, 12111.14, 8790.40, -10690.44, 4526.65, 25214.40, 0.00, 0.000, 0.000, 0.000, 13:27:06.882
85, 0.00, 21513.69, 12110.53, 8925.19, -10882.75, 4524.80, 25235.81, 0.00, 0.000, 0.000, 0.000, 13:27:06.882
86, 0.00, 21508.21, 12103.94, 9004.24, -10718.02, 4517.06, 25240.55, 0.00, 0.000, 0.000, 0.000, 13:27:06.882
87, 0.00, 21514.45, 12111.14, 8899.50, -10489.09, 4529.87, 25229.49, 0.00, 0.000, 0.000, 0.000, 13:27:06.882
88, 0.00, 21519.21, 12117.57, 8777.35, -10476.31, 4538.54, 25215.22, 0.00, 0.000, 0.000, 0.000, 13:27:06.882
89, 0.00, 21512.08, 12105.95, 8789.67, -10708.45, 4523.12, 25213.75, 0.00, 0.000, 0.000, 0.000, 13:27:06.882
90, 0.00, 21503.58, 12099.94, 8917.36, -10901.17, 4518.63, 25226.38, 0.00, 0.000, 0.000, 0.000, 13:27:06.883
91, 0.00, 21497.82, 12104.56, 9000.00, -10738.20, 4524.73, 25232.01, 0.00, 0.032, -0.036, 0.998, 13:27:06.883
92, 0.00, 21506.27, 12106.58, 8895.90, -10507.08, 4529.33, 25223.29, 0.00, 0.000, 0.000, 0.000, 13:27:06.883
93, 0.00, 21515.23, 12117.01, 8779.30, -10487.39, 4530.85, 25211.98, 0.00, 0.000, 0.000, 0.000, 13:27:06.883
94, 0.00, 21511.77, 12116.61, 8800.73, -10714.96, 4531.66, 25213.35, 0.00, 0.000, 0.000, 0.000, 13:27:06.883
95, 0.00, 21500.30, 12102.13, 8932.36, -10904.30, 4517.53, 25224.32, 0.00, 0.000, 0.000, 0.000, 13:27:06.883
96, 0.00, 21502.29, 12099.02, 9009.54, -10742.47, 4516.35, 25236.33, 0.00, 0.000, 0.000, 0.000, 13:27:06.883
97, 0.00, 21513.64, 12109.84, 8905.78, -10503.55, 4529.47, 25231.61, 0.00, 0.000, 0.000, 0.000, 13:27:06.883
98, 0.00, 21517.00, 12115.07, 8786.34, -10480.15, 4531.46, 25213.53, 0.00, 0.000, 0.000, 0.000, 13:27:06.884
99, 0.00, 21513.02, 12108.83, 8802.23, -10711.76, 4519.57, 25213.79, 0.00, 0.000, 0.000, 0.000, 13:27:06.884
100, 0.00, 21506.71, 12105.57, 8935.29, -10901.42, 4523.68, 25228.21, 0.00, 0.000, 0.000, 0.000, 13:27:06.884
101, 0.00, 21506.31, 12102.20, 9014.97, -10742.07, 4521.85, 25238.56, 0.00, 0.030, -0.030, 0.992, 13:27:06.884
102, 0.00, 21513.93, 12104.79, 8906.41, -10508.56, 4529.31, 25229.26, 0.00, 0.000, 0.000, 0.000, 13:27:06.884
103, 0.00, 21518.98, 12114.33, 8780.44, -10481.43, 4529.04, 25214.64, 0.00, 0.000, 0.000, 0.000, 13:27:06.884
104, 0.00, 21513.44, 12111.69, 8792.24, -10707.33, 4533.36, 25212.21, 0.00, 0.000, 0.000, 0.000, 13:27:06.884
105, 0.00, 21506.89, 12107.83, 8924.13, -10903.90, 4520.33, 25229.49, 0.00, 0.000, 0.000, 0.000, 13:27:07.349
106, 0.00, 21502.47, 12100.50, 9004.80, -10750.72, 4522.52, 25236.06, 0.00, 0.000, 0.000, 0.000, 13:27:07.349
107, 0.00, 21507.27, 12105.21, 8897.85, -10514.42, 4527.48, 25223.74, 0.00, 0.000, 0.000, 0.000, 13:27:07.349
108, 0.00, 21517.55, 12113.95, 8773.75, -10481.34, 4541.40, 25212.70, 0.00, 0.000, 0.000, 0.000, 13:27:07.349
109, 0.00, 21513.29, 12110.35, 8784.12, -10708.25, 4529.71, 25210.15, 0.00, 0.000, 0.000, 0.000, 13:27:07.349
110, 0.00, 21505.28, 12103.00, 8919.26, -10906.04, 4522.20, 25226.58, 0.00, 0.000, 0.000, 0.000, 13:27:07.349
111, 0.00, 21501.44, 12100.41, 9010.05, -10748.10, 4524.73, 25234.34, 0.00, 0.028, -0.038, 0.994, 13:27:07.349
112, 0.00, 21506.94, 12102.53, 8903.88, -10515.36, 4529.38, 25224.14, 0.00, 0.000, 0.000, 0.000, 13:27:07.350
113, 0.00, 21517.44, 12115.07, 8782.85, -10476.73, 4538.30, 25212.45, 0.00, 0.000, 0.000, 0.000, 13:27:07.350
114, 0.00, 21513.20, 12110.93, 8790.78, -10696.02, 4529.45, 25210.24, 0.00, 0.000, 0.000, 0.000, 13:27:07.350
115, 0.00, 21504.26, 12099.49, 8916.63, -10901.91, 4520.28, 25225.64, 0.00, 0.000, 0.000, 0.000, 13:27:07.350
116, 0.00, 21503.03, 12101.66, 9008.11, -10754.68, 4524.84, 25235.19, 0.00, 0.000, 0.000, 0.000, 13:27:07.350
117, 0.00, 21509.02, 12107.13, 8910.05, -10511.94, 4527.97, 25225.62, 0.00, 0.000, 0.000, 0.000, 13:27:07.350
118, 0.00, 21516.28, 12110.91, 8780.21, -10475.95, 4537.43, 25210.73, 0.00, 0.000, 0.000, 0.000, 13:27:07.350
119, 0.00, 21511.12, 12104.36, 8784.75, -10694.91, 4529.56, 25208.95, 0.00, 0.000, 0.000, 0.000, 13:27:07.351
120, 0.00, 21503.34, 12099.94, 8915.06, -10897.86, 4520.06, 25223.00, 0.00, 0.000, 0.000, 0.000, 13:27:07.351
121, 0.00, 21501.91, 12101.37, 9014.61, -10750.61, 4523.01, 25233.62, 0.00, 0.040, -0.034, 0.996, 13:27:07.351
122, 0.00, 21513.53, 12109.30, 8920.00, -10507.69, 4535.97, 25226.54, 0.00, 0.000, 0.000, 0.000, 13:27:07.351
123, 0.00, 21518.22, 12114.44, 8790.07, -10465.73, 4536.42, 25213.13, 0.00, 0.000, 0.000, 0.000, 13:27:07.351
124, 0.00, 21511.90, 12110.62, 8790.07, -10687.64, 4526.88, 25210.33, 0.00, 0.000, 0.000, 0.000, 13:27:07.351
125, 0.00, 21496.37, 12094.04, 8912.04, -10900.97, 4496.14, 25216.68, 0.00, 0.000, 0.000, 0.000, 13:27:07.351
126, 0.00, 21503.70, 12097.66, 9010.59, -10756.29, 4516.77, 25233.17, 0.00, 0.000, 0.000, 0.000, 13:27:07.351
127, 0.00, 21513.98, 12108.45, 8919.37, -10509.30, 4543.80, 25225.64, 0.00, 0.000, 0.000, 0.000, 13:27:07.351
128, 0.00, 21515.52, 12104.56, 8784.37, -10468.01, 4535.68, 25210.35, 0.00, 0.000, 0.000, 0.000, 13:27:07.352
129, 0.00, 21514.51, 12109.55, 8788.46, -10680.80, 4531.66, 25211.76, 0.00, 0.000, 0.000, 0.000, 13:27:07.352
130, 0.00, 21508.57, 12106.42, 8920.04, -10889.77, 4522.23, 25227.68, 0.00, 0.000, 0.000, 0.000, 13:27:07.352
131, 0.00, 21505.26, 12101.66, 9018.21, -10752.11, 4524.19, 25237.20, 0.00, 0.032, -0.036, 0.990, 13:27:07.352
132, 0.00, 21510.56, 12103.54, 8919.49, -10511.62, 4528.96, 25226.80, 0.00, 0.000, 0.000, 0.000, 13:27:07.352
133, 0.00, 21514.74, 12109.79, 8787.90, -10468.53, 4519.66, 25212.88, 0.00, 0.000, 0.000, 0.000, 13:27:07.352
134, 0.00, 21512.79, 12109.75, 8791.57, -10674.79, 4524.84, 25211.49, 0.00, 0.000, 0.000, 0.000, 13:27:07.352
135, 0.00, 21504.08, 12103.94, 8918.64, -10887.29, 4529.40, 25225.48, 0.00, 0.000, 0.000, 0.000, 13:27:07.352
136, 0.00, 21499.67, 12095.49, 9009.97, -10767.44, 4513.29, 25231.90, 0.00, 0.000, 0.000, 0.000, 13:27:07.353
137, 0.00, 21507.67, 12102.98, 8921.14, -10519.22, 4523.41, 25224.90, 0.00, 0.000, 0.000, 0.000, 13:27:07.353
138, 0.00, 21512.37, 12110.60, 8791.48, -10464.88, 4543.10, 25208.81, 0.00, 0.000, 0.000, 0.000, 13:27:07.353
139, 0.00, 21508.95, 12106.87, 8789.89, -10675.26, 4532.78, 25206.93, 0.00, 0.000, 0.000, 0.000, 13:27:07.353
140, 0.00, 21500.70, 12099.87, 8919.11, -10885.52, 4519.05, 25220.21, 0.00, 0.000, 0.000, 0.000, 13:27:07.353
141, 0.00, 21498.53, 12099.18, 9021.37, -10757.83, 4518.83, 25230.49, 0.00, 0.034, -0.034, 0.990, 13:27:07.353
142, 0.00, 21507.99, 12106.64, 8930.06, -10515.87, 4530.61, 25223.63, 0.00, 0.000, 0.000, 0.000, 13:27:07.353
143, 0.00, 21516.17, 12110.15, 8792.89, -10472.73, 4534.77, 25211.13, 0.00, 0.000, 0.000, 0.000, 13:27:07.353
144, 0.00, 21511.50, 12108.12, 8789.89, -10675.21, 4523.57, 25209.03, 0.00, 0.000, 0.000, 0.000, 13:27:07.354
145, 0.00, 21504.39, 12102.20, 8916.18, -10888.47, 4522.67, 25223.79, 0.00, 0.000, 0.000, 0.000, 13:27:07.354
146, 0.00, 21499.20, 12096.27, 9015.64, -10773.56, 4520.71, 25232.64, 0.00, 0.000, 0.000, 0.000, 13:27:07.354
147, 0.00, 21508.55, 12106.13, 8933.97, -10520.54, 4533.05, 25224.93, 0.00, 0.000, 0.000, 0.000, 13:27:07.354
148, 0.00, 21514.85, 12112.66, 8796.26, -10466.11, 4541.78, 25210.93, 0.00, 0.000, 0.000, 0.000, 13:27:07.354
149, 0.00, 21507.36, 12104.32, 8786.40, -10674.63, 4530.23, 25204.41, 0.00, 0.000, 0.000, 0.000, 13:27:07.354
150, 0.00, 21500.19, 12099.65, 8913.88, -10888.90, 4520.55, 25217.75, 0.00, 0.000, 0.000, 0.000, 13:27:07.354
151, 0.00, 21495.13, 12093.14, 9011.84, -10777.43, 4518.79, 25227.77, 0.00, 0.032, -0.030, 0.996, 13:27:07.354
152, 0.00, 21505.53, 12105.10, 8926.01, -10533.82, 4528.53, 25223.12, 0.00, 0.000, 0.000, 0.000, 13:27:07.355
153, 0.00, 21510.04, 12107.25, 8792.89, -10470.47, 4526.47, 25205.66, 0.00, 0.000, 0.000, 0.000, 13:27:07.355
154, 0.00, 21507.76, 12102.06, 8784.53, -10669.85, 4525.24, 25203.80, 0.00, 0.000, 0.000, 0.000, 13:27:07.355
155, 0.00, 21504.95, 12101.46, 8912.11, -10886.08, 4523.17, 25220.39, 0.00, 0.000, 0.000, 0.000, 13:27:07.355
156, 0.00, 21501.73, 12099.31, 9016.09, -10775.91, 4524.51, 25232.41, 0.00, 0.000, 0.000, 0.000, 13:27:07.355
157, 0.00, 21508.28, 12103.25, 8929.16, -10531.49, 4532.44, 25227.94, 0.00, 0.000, 0.000, 0.000, 13:27:07.355
158, 0.00, 21516.17, 12109.71, 8796.06, -10462.94, 4539.48, 25213.13, 0.00, 0.000, 0.000, 0.000, 13:27:07.355
159, 0.00, 21512.50, 12108.57, 8789.98, -10654.67, 4534.21, 25208.30, 0.00, 0.000, 0.000, 0.000, 13:27:07.355
160, 0.00, 21504.97, 12099.78, 8913.50, -10880.72, 4521.67, 25219.58, 0.00, 0.000, 0.000, 0.000, 13:27:07.356
161, 0.00, 21499.25, 12094.37, 9017.03, -10778.99, 4519.14, 25229.04, 0.00, 0.028, -0.030, 0.994, 13:27:07.356
162, 0.00, 21506.42, 12097.19, 8933.75, -10530.06, 4518.20, 25222.96, 0.00, 0.000, 0.000, 0.000, 13:27:07.356
163, 0.00, 21517.40, 12106.53, 8800.91, -10457.67, 4524.78, 25210.71, 0.00, 0.000, 0.000, 0.000, 13:27:07.356
164, 0.00, 21512.19, 12101.19, 8786.00, -10653.09, 4520.42, 25206.38, 0.00, 0.000, 0.000, 0.000, 13:27:07.356
165, 0.00, 21502.91, 12096.23, 8906.63, -10878.50, 4526.09, 25216.97, 0.00, 0.000, 0.000, 0.000, 13:27:07.356
166, 0.00, 21499.92, 12091.42, 9015.55, -10778.14, 4522.70, 25229.42, 0.00, 0.000, 0.000, 0.000, 13:27:07.356
167, 0.00, 21511.03, 12104.92, 8943.29, -10524.30, 4528.44, 25227.32, 0.00, 0.000, 0.000, 0.000, 13:27:07.357
168, 0.00, 21517.04, 12110.00, 8807.44, -10453.89, 4535.24, 25211.07, 0.00, 0.000, 0.000, 0.000, 13:27:07.357
169, 0.00, 21514.40, 12108.41, 8790.65, -10648.10, 4535.37, 25206.87, 0.00, 0.000, 0.000, 0.000, 13:27:07.357
170, 0.00, 21503.45, 12096.29, 8903.46, -10884.83, 4517.56, 25216.19, 0.00, 0.000, 0.000, 0.000, 13:27:07.357
171, 0.00, 21503.96, 12094.82, 9013.77, -10792.54, 4518.74, 25230.45, 0.00, 0.034, -0.034, 1.000, 13:27:07.357
172, 0.00, 21510.04, 12099.54, 8937.21, -10545.64, 4527.90, 25225.15, 0.00, 0.000, 0.000, 0.000, 13:27:07.357
173, 0.00, 21515.36, 12104.09, 8802.54, -10467.66, 4532.55, 25210.96, 0.00, 0.000, 0.000, 0.000, 13:27:07.358
174, 0.00, 21513.91, 12102.17, 8784.08, -10661.09, 4520.91, 25207.47, 0.00, 0.000, 0.000, 0.000, 13:27:07.358
175, 0.00, 21504.59, 12090.33, 8902.21, -10891.16, 4515.70, 25218.56, 0.00, 0.000, 0.000, 0.000, 13:27:07.358
176, 0.00, 21504.01, 12094.68, 9020.94, -10791.62, 4525.09, 25233.51, 0.00, 0.000, 0.000, 0.000, 13:27:07.358
177, 0.00, 21511.27, 12102.22, 8947.92, -10536.66, 4530.50, 25228.59, 0.00, 0.000, 0.000, 0.000, 13:27:07.358
178, 0.00, 21513.42, 12104.14, 8803.48, -10463.59, 4532.49, 25209.17, 0.00, 0.000, 0.000, 0.000, 13:27:07.358
179, 0.00, 21508.26, 12096.00, 8777.19, -10658.63, 4524.28, 25202.13, 0.00, 0.000, 0.000, 0.000, 13:27:07.358
180, 0.00, 21508.08, 12098.17, 8902.19, -10882.80, 4519.70, 25221.86, 0.00, 0.000, 0.000, 0.000, 13:27:07.359
181, 0.00, 21503.09, 12096.79, 9020.99, -10794.13, 4521.27, 25229.55, 0.00, 0.036, -0.030, 0.992, 13:27:07.359
182, 0.00, 21507.72, 12097.55, 8947.81, -10540.34, 4524.93, 25224.19, 0.00, 0.000, 0.000, 0.000, 13:27:07.359
183, 0.00, 21509.75, 12098.53, 8803.37, -10457.15, 4529.27, 25205.64, 0.00, 0.000, 0.000, 0.000, 13:27:07.359
184, 0.00, 21515.05, 12109.77, 8784.10, -10645.82, 4531.73, 25207.69, 0.00, 0.000, 0.000, 0.000, 13:27:07.359
185, 0.00, 21505.44, 12100.54, 8902.54, -10884.96, 4514.60, 25217.64, 0.00, 0.000, 0.000, 0.000, 13:27:07.359
186, 0.00, 21504.46, 12100.47, 9021.32, -10801.61, 4518.49, 25233.58, 0.00, 0.000, 0.000, 0.000, 13:27:07.359
187, 0.00, 21507.65, 12100.63, 8951.40, -10543.00, 4531.99, 25224.93, 0.00, 0.000, 0.000, 0.000, 13:27:07.359
188, 0.00, 21515.63, 12108.59, 8815.33, -10452.50, 4536.02, 25209.88, 0.00, 0.000, 0.000, 0.000, 13:27:07.360
189, 0.00, 21513.42, 12102.42, 8788.86, -10637.60, 4526.68, 25203.58, 0.00, 0.000, 0.000, 0.000, 13:27:07.360
190, 0.00, 21507.94, 12099.25, 8908.53, -10867.44, 4519.37, 25219.49, 0.00, 0.000, 0.000, 0.000, 13:27:07.360
191, 0.00, 21500.32, 12089.70, 9020.69, -10793.75, 4509.00, 25230.96, 0.00, 0.040, -0.032, 0.992, 13:27:07.360
192, 0.00, 21509.28, 12097.64, 8947.43, -10549.51, 4522.05, 25225.53, 0.00, 0.000, 0.000, 0.000, 13:27:07.360
193, 0.00, 21513.55, 12104.61, 8806.90, -10461.11, 4535.35, 25208.12, 0.00, 0.000, 0.000, 0.000, 13:27:07.360
194, 0.00, 21513.06, 12108.19, 8780.97, -10640.64, 4532.02, 25205.82, 0.00, 0.000, 0.000, 0.000, 13:27:07.361
195, 0.00, 21506.47, 12097.05, 8895.84, -10875.20, 4519.30, 25218.02, 0.00, 0.000, 0.000, 0.000, 13:27:07.361
196, 0.00, 21505.35, 12099.76, 9021.25, -10800.85, 4521.53, 25232.91, 0.00, 0.000, 0.000, 0.000, 13:27:07.362
197, 0.00, 21510.40, 12102.66, 8955.67, -10551.52, 4527.46, 25226.71, 0.00, 0.000, 0.000, 0.000, 13:27:07.362
198, 0.00, 21511.86, 12104.81, 8812.93, -10460.77, 4529.71, 25207.42, 0.00, 0.000, 0.000, 0.000, 13:27:07.362
199, 0.00, 21519.39, 12110.04, 8785.82, -10643.21, 4528.75, 25209.55, 0.00, 0.000, 0.000, 0.000, 13:27:07.363
200, 0.00, 21511.61, 12102.37, 8904.55, -10876.22, 4517.29, 25223.12, 0.00, 0.000, 0.000, 0.000, 13:27:07.363
201, 0.00, 21504.97, 12091.98, 9020.36, -10813.91, 4500.64, 25232.77, 0.00, 0.036, -0.032, 0.994, 13:27:07.363
202, 0.00, 21508.48, 12092.90, 8957.10, -10556.28, 4523.75, 25225.60, 0.00, 0.000, 0.000, 0.000, 13:27:07.363
203, 0.00, 21518.43, 12108.81, 8819.75, -10455.43, 4535.79, 25212.79, 0.00, 0.000, 0.000, 0.000, 13:27:07.363
204, 0.00, 21516.57, 12107.74, 8784.73, -10637.11, 4530.05, 25206.46, 0.00, 0.000, 0.000, 0.000, 13:27:07.363
205, 0.00, 21506.65, 12099.29, 8901.27, -10871.08, 4523.95, 25217.64, 0.00, 0.000, 0.000, 0.000, 13:27:07.363
206, 0.00, 21502.53, 12096.07, 9024.81, -10805.91, 4519.19, 25230.38, 0.00, 0.000, 0.000, 0.000, 13:27:07.364
207, 0.00, 21506.69, 12097.37, 8962.56, -10551.95, 4522.76, 25222.13, 0.00, 0.000, 0.000, 0.000, 13:27:07.364
208, 0.00, 21511.90, 12102.96, 8818.39, -10457.31, 4528.15, 25204.90, 0.00, 0.000, 0.000, 0.000, 13:27:07.364
209, 0.00, 21513.29, 12107.00, 8786.87, -10630.42, 4523.32, 25204.34, 0.00, 0.000, 0.000, 0.000, 13:27:07.364
210, 0.00, 21502.36, 12094.93, 8897.54, -10870.08, 4513.69, 25214.62, 0.00, 0.000, 0.000, 0.000, 13:27:07.364
211, 0.00, 21500.68, 12088.58, 9018.91, -10811.36, 4513.42, 25228.55, 0.00, 0.034, -0.032, 0.992, 13:27:07.364
212, 0.00, 21512.77, 12100.45, 8963.09, -10555.97, 4524.73, 25229.82, 0.00, 0.000, 0.000, 0.000, 13:27:07.364
213, 0.00, 21514.69, 12103.69, 8816.42, -10462.96, 4529.83, 25207.38, 0.00, 0.000, 0.000, 0.000, 13:27:07.365
214, 0.00, 21513.17, 12105.08, 8782.20, -10634.58, 4522.79, 25203.76, 0.00, 0.000, 0.000, 0.000, 13:27:07.365
215, 0.00, 21508.05, 12102.89, 8904.96, -10862.41, 4521.24, 25219.16, 0.00, 0.000, 0.000, 0.000, 13:27:07.365
216, 0.00, 21496.99, 12088.74, 9021.41, -10816.23, 4512.08, 25223.23, 0.00, 0.000, 0.000, 0.000, 13:27:07.365
217, 0.00, 21503.85, 12096.72, 8964.12, -10562.81, 4521.74, 25221.73, 0.00, 0.000, 0.000, 0.000, 13:27:07.365
218, 0.00, 21516.19, 12106.38, 8821.61, -10457.93, 4535.57, 25208.07, 0.00, 0.000, 0.000, 0.000, 13:27:07.365
219, 0.00, 21514.31, 12104.72, 8785.02, -10626.53, 4527.59, 25202.73, 0.00, 0.000, 0.000, 0.000, 13:27:07.365
220, 0.00, 21507.50, 12095.89, 8899.50, -10861.76, 4515.16, 25214.94, 0.00, 0.000, 0.000, 0.000, 13:27:07.366
221, 0.00, 21501.82, 12087.17, 9020.99, -10817.75, 4505.22, 25227.70, 0.00, 0.036, -0.034, 0.988, 13:27:07.366
222, 0.00, 21510.69, 12100.07, 8971.16, -10561.58, 4526.14, 25228.01, 0.00, 0.000, 0.000, 0.000, 13:27:07.366
223, 0.00, 21517.20, 12105.59, 8829.99, -10452.32, 4530.41, 25213.30, 0.00, 0.000, 0.000, 0.000, 13:27:07.366
224, 0.00, 21518.05, 12107.49, 8786.02, -10619.56, 4536.02, 25210.67, 0.00, 0.000, 0.000, 0.000, 13:27:07.366
225, 0.00, 21507.29, 12093.54, 8894.94, -10862.92, 4521.80, 25217.66, 0.00, 0.000, 0.000, 0.000, 13:27:07.367
226, 0.00, 21497.55, 12083.67, 9020.07, -10820.90, 4512.41, 25224.93, 0.00, 0.000, 0.000, 0.000, 13:27:07.829
227, 0.00, 21516.17, 12101.70, 8974.74, -10565.20, 4524.42, 25230.85, 0.00, 0.000, 0.000, 0.000, 13:27:07.829
228, 0.00, 21520.01, 12107.22, 8829.56, -10460.79, 4528.87, 25212.88, 0.00, 0.000, 0.000, 0.000, 13:27:07.829
229, 0.00, 21512.23, 12103.13, 8787.01, -10620.14, 4530.99, 25201.08, 0.00, 0.000, 0.000, 0.000, 13:27:07.829
230, 0.00, 21508.52, 12094.82, 8897.00, -10857.61, 4515.88, 25215.85, 0.00, 0.000, 0.000, 0.000, 13:27:07.830
231, 0.00, 21501.66, 12089.70, 9021.99, -10821.75, 4513.78, 25226.09, 0.00, 0.036, -0.034, 0.988, 13:27:07.830
232, 0.00, 21509.51, 12098.06, 8976.48, -10564.53, 4524.31, 25228.57, 0.00, 0.000, 0.000, 0.000, 13:27:07.830
233, 0.00, 21517.11, 12107.18, 8831.26, -10452.66, 4531.79, 25215.61, 0.00, 0.000, 0.000, 0.000, 13:27:07.830
234, 0.00, 21516.24, 12105.93, 8783.86, -10613.57, 4521.69, 25208.83, 0.00, 0.000, 0.000, 0.000, 13:27:07.830
235, 0.00, 21507.61, 12098.19, 8891.95, -10861.81, 4523.01, 25216.57, 0.00, 0.000, 0.000, 0.000, 13:27:07.831
236, 0.00, 21502.87, 12091.31, 9021.39, -10829.22, 4518.56, 25231.56, 0.00, 0.000, 0.000, 0.000, 13:27:07.831
237, 0.00, 21505.57, 12093.88, 8970.25, -10575.86, 4525.65, 25225.64, 0.00, 0.000, 0.000, 0.000, 13:27:07.831
238, 0.00, 21511.63, 12094.33, 8824.65, -10462.16, 4529.11, 25210.26, 0.00, 0.000, 0.000, 0.000, 13:27:07.831
239, 0.00, 21514.67, 12103.22, 8781.78, -10616.83, 4520.48, 25205.35, 0.00, 0.000, 0.000, 0.000, 13:27:07.831
240, 0.00, 21506.58, 12101.84, 8893.67, -10863.46, 4516.77, 25213.57, 0.00, 0.000, 0.000, 0.000, 13:27:07.832
241, 0.00, 21499.72, 12095.27, 9028.50, -10830.78, 4524.22, 25227.32, 0.00, 0.032, -0.034, 0.992, 13:27:07.832
242, 0.00, 21505.53, 12096.36, 8981.56, -10578.12, 4525.36, 25223.90, 0.00, 0.000, 0.000, 0.000, 13:27:07.832
243, 0.00, 21511.81, 12102.69, 8836.20, -10460.95, 4530.21, 25209.41, 0.00, 0.000, 0.000, 0.000, 13:27:07.832
244, 0.00, 21510.94, 12102.11, 8785.38, -10610.40, 4513.78, 25202.71, 0.00, 0.000, 0.000, 0.000, 13:27:07.832
245, 0.00, 21506.65, 12095.67, 8888.46, -10856.55, 4519.63, 25217.04, 0.00, 0.000, 0.000, 0.000, 13:27:07.833
246, 0.00, 21499.40, 12091.24, 9021.92, -10833.49, 4524.75, 25228.61, 0.00, 0.000, 0.000, 0.000, 13:27:07.833
247, 0.00, 21505.91, 12094.17, 8984.98, -10572.87, 4530.01, 25227.54, 0.00, 0.000, 0.000, 0.000, 13:27:07.833
248, 0.00, 21511.77, 12100.32, 8832.92, -10455.68, 4530.32, 25209.66, 0.00, 0.000, 0.000, 0.000, 13:27:07.833
249, 0.00, 21514.92, 12103.92, 8782.09, -10609.81, 4525.54, 25205.12, 0.00, 0.000, 0.000, 0.000, 13:27:07.833
250, 0.00, 21504.39, 12092.23, 8885.47, -10847.52, 4518.20, 25212.97, 0.00, 0.000, 0.000, 0.000, 13:27:07.834
251, 0.00, 21501.01, 12094.28, 9019.33, -10828.62, 4520.62, 25228.32, 0.00, 0.036, -0.040, 0.998, 13:27:07.834
252, 0.00, 21507.36, 12099.36, 8983.46, -10580.22, 4524.86, 25227.43, 0.00, 0.000, 0.000, 0.000, 13:27:07.834
253, 0.00, 21515.19, 12106.73, 8839.62, -10460.55, 4533.85, 25212.57, 0.00, 0.000, 0.000, 0.000, 13:27:07.835
254, 0.00, 21513.78, 12103.89, 8786.31, -10604.38, 4528.08, 25204.36, 0.00, 0.000, 0.000, 0.000, 13:27:07.835
255, 0.00, 21504.70, 12094.44, 8890.36, -10845.54, 4515.79, 25213.86, 0.00, 0.000, 0.000, 0.000, 13:27:07.835
0, 0.00, 21499.72, 12091.58, 9024.70, -10829.67, 4516.28, 25229.20, 0.00, 0.000, 0.000, 0.000, 13:27:07.836
1, 0.00, 21504.63, 12090.91, 8986.25, -10576.91, 4520.44, 25223.65, 0.00, 0.000, 0.000, 0.000, 13:27:07.836
2, 0.00, 21512.10, 12102.15, 8838.39, -10455.34, 4524.57, 25210.15, 0.00, 0.000, 0.000, 0.000, 13:27:07.836
3, 0.00, 21512.19, 12103.47, 8783.32, -10599.24, 4527.57, 25202.57, 0.00, 0.000, 0.000, 0.000, 13:27:07.836
4, 0.00, 21507.45, 12095.60, 8885.44, -10840.35, 4518.94, 25214.62, 0.00, 0.000, 0.000, 0.000, 13:27:07.836
5, 0.00, 21500.21, 12085.43, 9018.57, -10828.97, 4514.07, 25226.98, 0.00, 0.032, -0.032, 0.992, 13:27:07.837
6, 0.00, 21504.75, 12093.21, 8984.28, -10578.83, 4519.48, 25225.24, 0.00, 0.000, 0.000, 0.000, 13:27:07.837
7, 0.00, 21509.57, 12100.21, 8840.54, -10449.35, 4526.32, 25208.16, 0.00, 0.000, 0.000, 0.000, 13:27:07.837
8, 0.00, 21514.69, 12102.75, 8783.52, -10591.62, 4527.97, 25204.16, 0.00, 0.000, 0.000, 0.000, 13:27:07.837
9, 0.00, 21507.99, 12093.05, 8881.98, -10845.20, 4515.19, 25216.05, 0.00, 0.000, 0.000, 0.000, 13:27:07.837
10, 0.00, 21505.35, 12093.70, 9020.11, -10843.77, 4516.24, 25232.95, 0.00, 0.000, 0.000, 0.000, 13:27:07.839
11, 0.00, 21507.88, 12098.35, 8989.51, -10592.07, 4522.85, 25229.93, 0.00, 0.000, 0.000, 0.000, 13:27:07.839
12, 0.00, 21517.53, 12106.78, 8846.22, -10461.78, 4528.37, 25216.81, 0.00, 0.000, 0.000, 0.000, 13:27:07.839
13, 0.00, 21517.33, 12103.67, 8787.36, -10599.51, 4518.61, 25207.22, 0.00, 0.000, 0.000, 0.000, 13:27:07.839
14, 0.00, 21506.36, 12091.33, 8883.41, -10844.31, 4514.36, 25213.28, 0.00, 0.000, 0.000, 0.000, 13:27:07.839
15, 0.00, 21503.27, 12085.32, 9015.82, -10847.88, 4506.63, 25227.94, 0.00, 0.030, -0.034, 0.986, 13:27:07.839
16, 0.00, 21507.81, 12094.42, 8991.64, -10593.01, 4513.67, 25230.27, 0.00, 0.000, 0.000, 0.000, 13:27:07.840
17, 0.00, 21511.38, 12098.57, 8843.65, -10463.54, 4532.51, 25212.34, 0.00, 0.000, 0.000, 0.000, 13:27:07.840
18, 0.00, 21513.96, 12097.41, 8784.48, -10595.13, 4527.66, 25203.89, 0.00, 0.000, 0.000, 0.000, 13:27:07.840
19, 0.00, 21508.95, 12092.56, 8883.05, -10839.50, 4516.55, 25216.77, 0.00, 0.000, 0.000, 0.000, 13:27:07.841
20, 0.00, 21505.75, 12094.15, 9024.20, -10840.95, 4516.50, 25234.04, 0.00, 0.000, 0.000, 0.000, 13:27:07.841
21, 0.00, 21506.60, 12093.81, 8996.60, -10592.27, 4522.14, 25229.93, 0.00, 0.000, 0.000, 0.000, 13:27:07.841
22, 0.00, 21513.26, 12099.63, 8849.28, -10460.37, 4525.54, 25215.40, 0.00, 0.000, 0.000, 0.000, 13:27:07.841
23, 0.00, 21511.86, 12099.40, 8781.46, -10593.21, 4520.73, 25203.63, 0.00, 0.000, 0.000, 0.000, 13:27:07.841
24, 0.00, 21503.27, 12086.62, 8873.89, -10839.52, 4510.78, 25211.18, 0.00, 0.034, -0.032, 0.986, 13:27:07.841
25, 0.00, 21500.61, 12083.78, 9017.10, -10847.37, 4505.64, 25227.85, 0.00, 0.000, 0.000, 0.000, 13:27:07.841
26, 0.00, 21506.60, 12094.33, 9000.06, -10593.50, 4517.80, 25229.02, 0.00, 0.000, 0.000, 0.000, 13:27:07.841
27, 0.00, 21515.10, 12102.66, 8855.74, -10451.54, 4530.09, 25213.39, 0.00, 0.000, 0.000, 0.000, 13:27:07.843
28, 0.00, 21518.61, 12104.39, 8791.99, -10572.53, 4532.89, 25206.80, 0.00, 0.000, 0.000, 0.000, 13:27:07.843
29, 0.00, 21508.05, 12093.10, 8882.76, -10824.41, 4517.15, 25213.97, 0.00, 0.000, 0.000, 0.000, 13:27:07.843
30, 0.00, 21499.79, 12082.08, 9016.31, -10843.14, 4511.21, 25227.81, 0.00, 0.000, 0.000, 0.000, 13:27:07.845
31, 0.00, 21509.44, 12094.86, 9001.02, -10596.34, 4525.67, 25231.36, 0.00, 0.000, 0.000, 0.000, 13:27:07.845
32, 0.00, 21515.63, 12104.12, 8856.68, -10456.95, 4531.06, 25216.41, 0.00, 0.000, 0.000, 0.000, 13:27:07.845
33, 0.00, 21516.10, 12103.00, 8787.95, -10581.52, 4528.04, 25208.14, 0.00, 0.000, 0.000, 0.000, 13:27:07.845
34, 0.00, 21507.94, 12095.98, 8878.69, -10834.67, 4517.89, 25215.14, 0.00, 0.032, -0.036, 0.990, 13:27:07.845
35, 0.00, 21503.49, 12090.21, 9019.11, -10858.54, 4513.85, 25231.59, 0.00, 0.000, 0.000, 0.000, 13:27:07.845
36, 0.00, 21504.86, 12091.31, 9003.19, -10606.51, 4522.81, 25227.83, 0.00, 0.000, 0.000, 0.000, 13:27:07.845
37, 0.00, 21514.09, 12097.95, 8856.48, -10462.14, 4528.80, 25215.70, 0.00, 0.000, 0.000, 0.000, 13:27:07.845
38, 0.00, 21515.68, 12100.54, 8785.60, -10582.46, 4522.52, 25207.49, 0.00, 0.000, 0.000, 0.000, 13:27:07.845
39, 0.00, 21510.67, 12092.67, 8877.40, -10827.21, 4515.61, 25215.87, 0.00, 0.000, 0.000, 0.000, 13:27:07.846
40, 0.00, 21504.14, 12085.68, 9015.00, -10855.44, 4512.91, 25229.38, 0.00, 0.000, 0.000, 0.000, 13:27:07.846
41, 0.00, 21508.03, 12088.96, 9001.11, -10602.37, 4519.05, 25229.38, 0.00, 0.000, 0.000, 0.000, 13:27:07.846
42, 0.00, 21514.74, 12095.65, 8852.39, -10454.38, 4525.16, 25214.85, 0.00, 0.000, 0.000, 0.000, 13:27:07.847
43, 0.00, 21515.81, 12099.69, 8780.91, -10576.08, 4522.50, 25208.12, 0.00, 0.000, 0.000, 0.000, 13:27:07.847
44, 0.00, 21508.37, 12095.27, 8875.56, -10824.70, 4513.15, 25213.13, 0.00, 0.036, -0.036, 0.990, 13:27:07.847
45, 0.00, 21503.34, 12089.32, 9016.98, -10856.89, 4509.93, 25227.79, 0.00, 0.000, 0.000, 0.000, 13:27:07.847
46, 0.00, 21507.27, 12089.70, 9008.27, -10602.42, 4520.86, 25230.29, 0.00, 0.000, 0.000, 0.000, 13:27:07.847
47, 0.00, 21515.72, 12098.10, 8860.66, -10453.73, 4527.64, 25216.63, 0.00, 0.000, 0.000, 0.000, 13:27:07.847
48, 0.00, 21517.67, 12104.30, 8788.68, -10570.81, 4523.72, 25207.83, 0.00, 0.000, 0.000, 0.000, 13:27:07.847
49, 0.00, 21510.65, 12096.50, 8877.51, -10819.70, 4522.83, 25214.62, 0.00, 0.000, 0.000, 0.000, 13:27:07.847
50, 0.00, 21502.73, 12087.49, 9016.45, -10862.32, 4514.85, 25229.44, 0.00, 0.000, 0.000, 0.000, 13:27:07.848
51, 0.00, 21507.85, 12092.29, 9011.62, -10610.57, 4519.61, 25230.78, 0.00, 0.000, 0.000, 0.000, 13:27:07.848
52, 0.00, 21514.36, 12099.98, 8864.61, -10459.90, 4528.82, 25215.47, 0.00, 0.000, 0.000, 0.000, 13:27:07.848
53, 0.00, 21518.47, 12103.92, 8788.68, -10574.19, 4530.16, 25206.55, 0.00, 0.000, 0.000, 0.000, 13:27:07.849
54, 0.00, 21509.13, 12094.13, 8870.49, -10828.97, 4514.96, 25213.57, 0.00, 0.032, -0.034, 0.988, 13:27:07.849
55, 0.00, 21504.30, 12090.13, 9018.06, -10866.43, 4509.98, 25229.96, 0.00, 0.000, 0.000, 0.000, 13:27:07.849
56, 0.00, 21508.48, 12094.39, 9019.64, -10604.36, 4521.36, 25232.84, 0.00, 0.000, 0.000, 0.000, 13:27:07.849
57, 0.00, 21514.11, 12099.07, 8869.02, -10452.73, 4527.84, 25218.40, 0.00, 0.000, 0.000, 0.000, 13:27:07.849
58, 0.00, 21515.21, 12099.31, 8788.95, -10566.50, 4523.57, 25205.90, 0.00, 0.000, 0.000, 0.000, 13:27:07.849
59, 0.00, 21507.65, 12094.77, 8876.62, -10813.26, 4520.51, 25216.14, 0.00, 0.000, 0.000, 0.000, 13:27:07.849
60, 0.00, 21504.61, 12089.90, 9018.50, -10857.49, 4520.04, 25233.84, 0.00, 0.000, 0.000, 0.000, 13:27:07.850
61, 0.00, 21507.74, 12092.49, 9013.27, -10617.61, 4524.51, 25233.33, 0.00, 0.000, 0.000, 0.000, 13:27:07.852
62, 0.00, 21514.18, 12099.29, 8868.41, -10466.11, 4524.17, 25218.38, 0.00, 0.000, 0.000, 0.000, 13:27:07.852
63, 0.00, 21514.29, 12099.92, 8787.90, -10572.53, 4519.61, 25207.18, 0.00, 0.000, 0.000, 0.000, 13:27:07.852
64, 0.00, 21506.22, 12091.82, 8873.37, -10819.74, 4520.39, 25211.45, 0.00, 0.030, -0.036, 0.996, 13:27:07.853
65, 0.00, 21500.16, 12079.87, 9014.55, -10865.76, 4511.77, 25228.64, 0.00, 0.000, 0.000, 0.000, 13:27:07.853
66, 0.00, 21509.55, 12094.95, 9016.07, -10620.90, 4521.82, 25235.83, 0.00, 0.000, 0.000, 0.000, 13:27:07.854
67, 0.00, 21516.66, 12100.97, 8872.57, -10461.04, 4531.28, 25220.75, 0.00, 0.000, 0.000, 0.000, 13:27:07.854
68, 0.00, 21515.16, 12103.04, 8796.84, -10563.10, 4525.85, 25207.98, 0.00, 0.000, 0.000, 0.000, 13:27:07.854
69, 0.00, 21505.15, 12092.72, 8876.50, -10813.80, 4513.85, 25210.73, 0.00, 0.000, 0.000, 0.000, 13:27:07.854
70, 0.00, 21500.28, 12085.72, 9016.72, -10870.64, 4512.35, 25228.21, 0.00, 0.000, 0.000, 0.000, 13:27:07.854
71, 0.00, 21510.71, 12093.23, 9022.66, -10620.34, 4523.30, 25235.32, 0.00, 0.000, 0.000, 0.000, 13:27:07.855
72, 0.00, 21518.07, 12102.53, 8873.13, -10462.72, 4529.40, 25220.17, 0.00, 0.000, 0.000, 0.000, 13:27:07.855
73, 0.00, 21516.53, 12100.27, 8790.00, -10555.25, 4524.19, 25207.29, 0.00, 0.000, 0.000, 0.000, 13:27:07.855
74, 0.00, 21509.51, 12092.23, 8869.75, -10799.98, 4511.88, 25213.08, 0.00, 0.028, -0.028, 0.992, 13:27:07.856
75, 0.00, 21504.59, 12087.15, 9011.62, -10867.44, 4513.85, 25231.88, 0.00, 0.000, 0.000, 0.000, 13:27:07.856
76, 0.00, 21508.57, 12094.64, 9023.44, -10626.00, 4515.34, 25233.73, 0.00, 0.000, 0.000, 0.000, 13:27:07.856
77, 0.00, 21516.53, 12099.71, 8881.44, -10461.60, 4528.53, 25218.73, 0.00, 0.000, 0.000, 0.000, 13:27:07.856
78, 0.00, 21519.52, 12104.12, 8796.10, -10555.54, 4528.87, 25208.92, 0.00, 0.000, 0.000, 0.000, 13:27:07.857
79, 0.00, 21509.80, 12094.44, 8874.74, -10800.38, 4514.83, 25215.29, 0.00, 0.000, 0.000, 0.000, 13:27:07.857
80, 0.00, 21503.41, 12088.00, 9015.55, -10867.80, 4514.20, 25231.12, 0.00, 0.000, 0.000, 0.000, 13:27:07.857
81, 0.00, 21505.26, 12089.61, 9022.80, -10630.36, 4518.61, 25231.07, 0.00, 0.000, 0.000, 0.000, 13:27:07.857
82, 0.00, 21514.49, 12098.69, 8879.34, -10463.23, 4525.87, 25216.83, 0.00, 0.000, 0.000, 0.000, 13:27:07.858
83, 0.00, 21514.47, 12099.67, 8790.76, -10554.76, 4524.19, 25203.47, 0.00, 0.000, 0.000, 0.000, 13:27:07.858
84, 0.00, 21507.23, 12094.73, 8869.75, -10801.01, 4511.25, 25211.45, 0.00, 0.032, -0.026, 0.996, 13:27:07.858
85, 0.00, 21497.84, 12084.25, 9010.79, -10877.90, 4502.02, 25221.82, 0.00, 0.000, 0.000, 0.000, 13:27:07.858
86, 0.00, 21506.42, 12091.24, 9026.77, -10637.89, 4522.12, 25228.44, 0.00, 0.000, 0.000, 0.000, 13:27:07.859
87, 0.00, 21512.23, 12096.76, 8887.39, -10463.52, 4528.13, 25213.64, 0.00, 0.000, 0.000, 0.000, 13:27:07.859
88, 0.00, 21512.97, 12105.75, 8801.07, -10547.85, 4529.36, 25203.45, 0.00, 0.000, 0.000, 0.000, 13:27:07.859
89, 0.00, 21504.48, 12094.28, 8873.69, -10796.18, 4516.19, 25209.73, 0.00, 0.000, 0.000, 0.000, 13:27:07.860
90, 0.00, 21501.04, 12084.54, 9011.98, -10874.88, 4507.05, 25227.03, 0.00, 0.000, 0.000, 0.000, 13:27:08.309
91, 0.00, 21508.01, 12089.57, 9026.73, -10636.99, 4515.97, 25232.50, 0.00, 0.000, 0.000, 0.000, 13:27:08.309
92, 0.00, 21514.11, 12098.10, 8883.54, -10465.22, 4524.71, 25218.31, 0.00, 0.000, 0.000, 0.000, 13:27:08.309
93, 0.00, 21513.66, 12097.46, 8792.08, -10546.25, 4521.51, 25203.63, 0.00, 0.000, 0.000, 0.000, 13:27:08.309
94, 0.00, 21510.94, 12097.46, 8871.12, -10792.09, 4515.48, 25215.49, 0.00, 0.028, -0.028, 0.994, 13:27:08.309
95, 0.00, 21502.96, 12089.52, 9013.05, -10878.57, 4510.65, 25230.11, 0.00, 0.000, 0.000, 0.000, 13:27:08.309
96, 0.00, 21503.72, 12086.66, 9025.59, -10651.32, 4514.69, 25227.03, 0.00, 0.000, 0.000, 0.000, 13:27:08.310
97, 0.00, 21512.68, 12095.56, 8888.48, -10475.12, 4526.25, 25216.34, 0.00, 0.000, 0.000, 0.000, 13:27:08.310
98, 0.00, 21517.96, 12102.66, 8804.20, -10548.08, 4530.43, 25210.22, 0.00, 0.000, 0.000, 0.000, 13:27:08.310
99, 0.00, 21507.72, 12097.17, 8877.24, -10792.36, 4516.68, 25211.94, 0.00, 0.000, 0.000, 0.000, 13:27:08.310
100, 0.00, 21505.30, 12090.24, 9020.85, -10877.68, 4512.24, 25230.36, 0.00, 0.000, 0.000, 0.000, 13:27:08.310
101, 0.00, 21507.36, 12089.79, 9039.40, -10643.10, 4521.91, 25231.90, 0.00, 0.000, 0.000, 0.000, 13:27:08.310
102, 0.00, 21515.86, 12098.13, 8895.73, -10469.53, 4531.75, 25220.59, 0.00, 0.000, 0.000, 0.000, 13:27:08.311
103, 0.00, 21512.26, 12097.26, 8799.37, -10545.08, 4527.70, 25204.34, 0.00, 0.000, 0.000, 0.000, 13:27:08.311
104, 0.00, 21506.91, 12092.38, 8870.42, -10788.83, 4516.46, 25209.62, 0.00, 0.028, -0.032, 0.992, 13:27:08.311
105, 0.00, 21502.73, 12088.47, 9013.77, -10885.08, 4514.69, 25227.56, 0.00, 0.000, 0.000, 0.000, 13:27:08.311
106, 0.00, 21505.04, 12088.16, 9037.55, -10652.66, 4519.95, 25231.52, 0.00, 0.000, 0.000, 0.000, 13:27:08.312
107, 0.00, 21514.36, 12096.61, 8898.12, -10469.22, 4528.02, 25218.36, 0.00, 0.000, 0.000, 0.000, 13:27:08.312
108, 0.00, 21514.02, 12101.32, 8804.82, -10536.32, 4525.07, 25203.92, 0.00, 0.000, 0.000, 0.000, 13:27:08.312
109, 0.00, 21506.36, 12093.46, 8869.57, -10782.97, 4512.95, 25208.79, 0.00, 0.000, 0.000, 0.000, 13:27:08.312
110, 0.00, 21499.05, 12085.88, 9011.64, -10879.73, 4509.15, 25224.48, 0.00, 0.000, 0.000, 0.000, 13:27:08.312
111, 0.00, 21502.24, 12081.36, 9033.03, -10657.09, 4513.85, 25227.16, 0.00, 0.000, 0.000, 0.000, 13:27:08.312
112, 0.00, 21513.80, 12098.57, 8895.95, -10475.64, 4529.20, 25217.46, 0.00, 0.000, 0.000, 0.000, 13:27:08.312
113, 0.00, 21516.88, 12100.94, 8802.54, -10537.77, 4528.96, 25205.93, 0.00, 0.000, 0.000, 0.000, 13:27:08.312
114, 0.00, 21509.84, 12095.22, 8868.55, -10784.74, 4517.56, 25210.26, 0.00, 0.034, -0.032, 0.994, 13:27:08.312
115, 0.00, 21499.40, 12086.04, 9013.09, -10883.82, 4509.82, 25221.04, 0.00, 0.000, 0.000, 0.000, 13:27:08.312
116, 0.00, 21500.59, 12087.40, 9042.42, -10654.92, 4513.17, 25225.57, 0.00, 0.000, 0.000, 0.000, 13:27:08.313
117, 0.00, 21510.89, 12095.31, 8900.49, -10472.80, 4523.17, 25214.96, 0.00, 0.000, 0.000, 0.000, 13:27:08.313
118, 0.00, 21511.01, 12094.39, 8798.34, -10537.37, 4513.85, 25200.38, 0.00, 0.000, 0.000, 0.000, 13:27:08.313
119, 0.00, 21506.49, 12093.84, 8864.77, -10778.17, 4510.90, 25206.64, 0.00, 0.000, 0.000, 0.000, 13:27:08.313
120, 0.00, 21496.79, 12084.00, 9007.22, -10882.04, 4514.07, 25221.86, 0.00, 0.000, 0.000, 0.000, 13:27:08.314
121, 0.00, 21501.21, 12083.67, 9034.87, -10660.42, 4514.81, 25225.53, 0.00, 0.000, 0.000, 0.000, 13:27:08.314
122, 0.00, 21507.50, 12091.51, 8895.79, -10477.54, 4521.24, 25214.40, 0.00, 0.000, 0.000, 0.000, 13:27:08.314
123, 0.00, 21512.64, 12091.87, 8798.43, -10534.87, 4520.77, 25200.88, 0.00, 0.000, 0.000, 0.000, 13:27:08.315
124, 0.00, 21505.22, 12090.08, 8860.32, -10779.73, 4514.02, 25205.93, 0.00, 0.034, -0.030, 0.992, 13:27:08.315
125, 0.00, 21501.26, 12084.45, 9001.94, -10894.26, 4506.76, 25223.63, 0.00, 0.000, 0.000, 0.000, 13:27:08.315
126, 0.00, 21505.48, 12083.38, 9033.52, -10677.25, 4511.83, 25229.51, 0.00, 0.000, 0.000, 0.000, 13:27:08.315
127, 0.00, 21511.83, 12087.11, 8897.54, -10486.57, 4521.85, 25216.75, 0.00, 0.000, 0.000, 0.000, 13:27:08.315
128, 0.00, 21516.82, 12098.42, 8800.19, -10533.68, 4526.54, 25207.58, 0.00, 0.000, 0.000, 0.000, 13:27:08.316
129, 0.00, 21509.35, 12092.96, 8863.56, -10774.19, 4513.53, 25211.34, 0.00, 0.000, 0.000, 0.000, 13:27:08.316
130, 0.00, 21499.67, 12082.30, 9004.62, -10889.30, 4505.91, 25224.86, 0.00, 0.000, 0.000, 0.000, 13:27:08.317
131, 0.00, 21499.58, 12075.10, 9033.73, -10673.87, 4510.69, 25224.70, 0.00, 0.000, 0.000, 0.000, 13:27:08.317
132, 0.00, 21508.01, 12081.61, 8897.13, -10484.00, 4518.61, 25212.07, 0.00, 0.000, 0.000, 0.000, 13:27:08.317
133, 0.00, 21510.78, 12097.84, 8803.30, -10530.51, 4524.08, 25202.20, 0.00, 0.000, 0.000, 0.000, 13:27:08.317
134, 0.00, 21508.32, 12092.81, 8861.21, -10769.61, 4514.60, 25208.92, 0.00, 0.038, -0.042, 0.992, 13:27:08.317
135, 0.00, 21502.76, 12088.52, 9004.62, -10889.52, 4513.02, 25225.40, 0.00, 0.000, 0.000, 0.000, 13:27:08.317
136, 0.00, 21501.01, 12083.78, 9040.97, -10676.24, 4511.90, 25230.27, 0.00, 0.000, 0.000, 0.000, 13:27:08.318
137, 0.00, 21509.11, 12092.87, 8909.29, -10479.75, 4518.14, 25216.23, 0.00, 0.000, 0.000, 0.000, 13:27:08.318
138, 0.00, 21509.98, 12096.45, 8807.12, -10520.21, 4523.30, 25199.27, 0.00, 0.000, 0.000, 0.000, 13:27:08.318
139, 0.00, 21503.79, 12088.56, 8855.96, -10766.08, 4514.60, 25205.64, 0.00, 0.000, 0.000, 0.000, 13:27:08.318
140, 0.00, 21499.27, 12083.82, 9002.57, -10885.63, 4505.53, 25222.02, 0.00, 0.000, 0.000, 0.000, 13:27:08.318
141, 0.00, 21500.88, 12083.64, 9046.33, -10669.65, 4508.75, 25227.25, 0.00, 0.000, 0.000, 0.000, 13:27:08.318
142, 0.00, 21510.47, 12094.91, 8915.51, -10477.58, 4519.63, 25216.68, 0.00, 0.000, 0.000, 0.000, 13:27:08.318
143, 0.00, 21511.38, 12096.76, 8809.45, -10523.58, 4524.17, 25203.04, 0.00, 0.000, 0.000, 0.000, 13:27:08.318
144, 0.00, 21504.70, 12089.07, 8860.37, -10767.51, 4511.16, 25206.31, 0.00, 0.034, -0.034, 0.986, 13:27:08.318
145, 0.00, 21496.90, 12082.17, 9000.91, -10899.45, 4504.86, 25219.92, 0.00, 0.000, 0.000, 0.000, 13:27:08.318
146, 0.00, 21500.95, 12086.53, 9051.05, -10686.28, 4513.13, 25227.25, 0.00, 0.000, 0.000, 0.000, 13:27:08.318
147, 0.00, 21508.68, 12091.47, 8918.84, -10484.58, 4517.24, 25215.29, 0.00, 0.000, 0.000, 0.000, 13:27:08.319
148, 0.00, 21511.12, 12093.92, 8809.40, -10524.41, 4520.10, 25202.53, 0.00, 0.000, 0.000, 0.000, 13:27:08.319
149, 0.00, 21506.09, 12091.65, 8861.62, -10760.60, 4512.44, 25205.79, 0.00, 0.000, 0.000, 0.000, 13:27:08.319
150, 0.00, 21495.85, 12077.18, 8997.43, -10897.79, 4490.78, 25218.94, 0.00, 0.000, 0.000, 0.000, 13:27:08.320
151, 0.00, 21501.06, 12082.66, 9047.90, -10685.92, 4502.60, 25229.02, 0.00, 0.000, 0.000, 0.000, 13:27:08.320
152, 0.00, 21508.99, 12093.99, 8920.78, -10480.29, 4527.48, 25214.85, 0.00, 0.000, 0.000, 0.000, 13:27:08.320
153, 0.00, 21511.03, 12094.37, 8807.39, -10519.63, 4525.96, 25201.35, 0.00, 0.000, 0.000, 0.000, 13:27:08.320
154, 0.00, 21505.10, 12082.10, 8850.26, -10764.20, 4512.75, 25203.24, 0.00, 0.034, -0.032, 0.996, 13:27:08.320
155, 0.00, 21500.84, 12090.59, 8997.56, -10901.93, 4508.68, 25223.47, 0.00, 0.000, 0.000, 0.000, 13:27:08.320
156, 0.00, 21499.96, 12084.27, 9050.49, -10692.18, 4513.24, 25226.27, 0.00, 0.000, 0.000, 0.000, 13:27:08.320
157, 0.00, 21507.09, 12090.39, 8923.60, -10486.90, 4522.72, 25214.58, 0.00, 0.000, 0.000, 0.000, 13:27:08.321
158, 0.00, 21509.35, 12093.37, 8817.25, -10512.85, 4522.25, 25200.27, 0.00, 0.000, 0.000, 0.000, 13:27:08.321
159, 0.00, 21504.30, 12086.15, 8859.05, -10753.51, 4513.09, 25203.89, 0.00, 0.000, 0.000, 0.000, 13:27:08.321
160, 0.00, 21504.23, 12086.12, 9002.63, -10893.57, 4507.77, 25226.18, 0.00, 0.000, 0.000, 0.000, 13:27:08.321
161, 0.00, 21502.69, 12083.00, 9053.91, -10691.13, 4507.07, 25231.79, 0.00, 0.000, 0.000, 0.000, 13:27:08.321
162, 0.00, 21509.73, 12090.19, 8921.81, -10490.34, 4519.28, 25219.74, 0.00, 0.000, 0.000, 0.000, 13:27:08.321
163, 0.00, 21509.42, 12090.28, 8809.40, -10519.51, 4519.66, 25202.31, 0.00, 0.000, 0.000, 0.000, 13:27:08.321
164, 0.00, 21505.75, 12083.33, 8855.96, -10750.50, 4510.47, 25205.37, 0.00, 0.032, -0.032, 0.992, 13:27:08.322
165, 0.00, 21499.16, 12081.41, 8997.52, -10894.82, 4506.20, 25223.85, 0.00, 0.000, 0.000, 0.000, 13:27:08.322
166, 0.00, 21500.39, 12082.30, 9053.86, -10701.77, 4509.87, 25229.11, 0.00, 0.000, 0.000, 0.000, 13:27:08.322
167, 0.00, 21509.06, 12086.84, 8929.39, -10495.13, 4517.67, 25215.94, 0.00, 0.000, 0.000, 0.000, 13:27:08.322
168, 0.00, 21509.60, 12085.97, 8820.65, -10509.10, 4516.30, 25202.13, 0.00, 0.000, 0.000, 0.000, 13:27:08.322
169, 0.00, 21508.59, 12086.17, 8861.64, -10741.85, 4511.25, 25205.64, 0.00, 0.000, 0.000, 0.000, 13:27:08.322
170, 0.00, 21503.58, 12081.56, 8996.55, -10904.07, 4501.42, 25223.03, 0.00, 0.000, 0.000, 0.000, 13:27:08.322
171, 0.00, 21503.23, 12081.74, 9059.59, -10708.99, 4505.49, 25230.22, 0.00, 0.000, 0.000, 0.000, 13:27:08.322
172, 0.00, 21510.67, 12088.56, 8937.43, -10494.75, 4520.48, 25215.29, 0.00, 0.000, 0.000, 0.000, 13:27:08.322
173, 0.00, 21512.30, 12094.22, 8824.02, -10512.41, 4519.50, 25202.44, 0.00, 0.000, 0.000, 0.000, 13:27:08.322
174, 0.00, 21508.88, 12089.68, 8865.57, -10747.75, 4510.16, 25207.54, 0.00, 0.030, -0.032, 0.994, 13:27:08.322
175, 0.00, 21500.03, 12082.64, 9006.52, -10900.01, 4504.35, 25220.99, 0.00, 0.000, 0.000, 0.000, 13:27:08.323
176, 0.00, 21495.29, 12075.62, 9063.61, -10707.80, 4503.50, 25223.03, 0.00, 0.000, 0.000, 0.000, 13:27:08.323
177, 0.00, 21503.18, 12083.26, 8937.32, -10496.74, 4512.84, 25211.58, 0.00, 0.000, 0.000, 0.000, 13:27:08.323
178, 0.00, 21516.35, 12097.86, 8832.05, -10497.09, 4521.69, 25206.33, 0.00, 0.000, 0.000, 0.000, 13:27:08.323
179, 0.00, 21506.85, 12086.17, 8857.64, -10739.61, 4503.79, 25206.24, 0.00, 0.000, 0.000, 0.000, 13:27:08.323
180, 0.00, 21498.64, 12081.77, 8999.13, -10898.93, 4501.28, 25218.42, 0.00, 0.000, 0.000, 0.000, 13:27:08.323
181, 0.00, 21497.59, 12080.22, 9065.73, -10710.89, 4491.25, 25225.66, 0.00, 0.000, 0.000, 0.000, 13:27:08.325
182, 0.00, 21506.60, 12089.46, 8948.86, -10493.16, 4524.28, 25217.48, 0.00, 0.000, 0.000, 0.000, 13:27:08.325
183, 0.00, 21511.61, 12093.61, 8830.91, -10503.91, 4527.48, 25200.74, 0.00, 0.000, 0.000, 0.000, 13:27:08.326
184, 0.00, 21510.60, 12092.43, 8864.84, -10738.00, 4516.66, 25206.49, 0.00, 0.034, -0.034, 0.998, 13:27:08.326
185, 0.00, 21501.39, 12079.82, 9001.90, -10902.46, 4507.14, 25220.70, 0.00, 0.000, 0.000, 0.000, 13:27:08.326
186, 0.00, 21501.44, 12080.92, 9071.12, -10710.82, 4509.60, 25228.17, 0.00, 0.000, 0.000, 0.000, 13:27:08.326
187, 0.00, 21503.41, 12080.07, 8944.41, -10497.99, 4511.63, 25211.31, 0.00, 0.000, 0.000, 0.000, 13:27:08.326
188, 0.00, 21508.48, 12083.91, 8826.55, -10499.91, 4513.33, 25198.44, 0.00, 0.000, 0.000, 0.000, 13:27:08.326
189, 0.00, 21512.23, 12091.85, 8865.24, -10732.12, 4511.12, 25206.71, 0.00, 0.000, 0.000, 0.000, 13:27:08.326
190, 0.00, 21500.01, 12076.83, 9000.20, -10906.35, 4499.43, 25218.49, 0.00, 0.000, 0.000, 0.000, 13:27:08.327
191, 0.00, 21502.38, 12077.72, 9074.34, -10721.44, 4503.34, 25229.51, 0.00, 0.000, 0.000, 0.000, 13:27:08.327
192, 0.00, 21508.03, 12086.93, 8956.08, -10502.91, 4508.97, 25215.58, 0.00, 0.000, 0.000, 0.000, 13:27:08.327
193, 0.00, 21514.36, 12095.38, 8837.50, -10504.36, 4520.33, 25202.80, 0.00, 0.000, 0.000, 0.000, 13:27:08.327
194, 0.00, 21508.72, 12088.83, 8869.02, -10732.55, 4514.27, 25203.85, 0.00, 0.030, -0.034, 0.994, 13:27:08.327
195, 0.00, 21501.30, 12079.80, 9005.72, -10901.88, 4500.88, 25217.64, 0.00, 0.000, 0.000, 0.000, 13:27:08.327
196, 0.00, 21497.82, 12076.00, 9071.34, -10730.87, 4488.36, 25224.70, 0.00, 0.000, 0.000, 0.000, 13:27:08.327
197, 0.00, 21508.66, 12080.83, 8957.26, -10502.39, 4519.43, 25214.67, 0.00, 0.000, 0.000, 0.000, 13:27:08.327
198, 0.00, 21517.42, 12094.37, 8842.77, -10491.84, 4522.29, 25205.10, 0.00, 0.000, 0.000, 0.000, 13:27:08.328
199, 0.00, 21511.74, 12091.67, 8872.48, -10718.91, 4514.14, 25207.83, 0.00, 0.000, 0.000, 0.000, 13:27:08.328
200, 0.00, 21499.54, 12080.25, 9006.50, -10896.45, 4502.13, 25220.17, 0.00, 0.000, 0.000, 0.000, 13:27:08.328
201, 0.00, 21500.21, 12082.06, 9079.28, -10727.32, 4510.51, 25228.61, 0.00, 0.000, 0.000, 0.000, 13:27:08.328
202, 0.00, 21505.53, 12087.58, 8966.25, -10503.51, 4520.71, 25214.62, 0.00, 0.000, 0.000, 0.000, 13:27:08.328
203, 0.00, 21509.93, 12090.30, 8844.34, -10494.39, 4519.01, 25200.32, 0.00, 0.000, 0.000, 0.000, 13:27:08.328
204, 0.00, 21506.65, 12086.06, 8866.13, -10727.14, 4509.17, 25201.77, 0.00, 0.034, -0.032, 0.992, 13:27:08.328
205, 0.00, 21499.11, 12078.61, 9003.60, -10905.13, 4502.87, 25215.94, 0.00, 0.000, 0.000, 0.000, 13:27:08.329
206, 0.00, 21493.59, 12068.00, 9074.76, -10733.91, 4499.32, 25220.93, 0.00, 0.000, 0.000, 0.000, 13:27:08.329
207, 0.00, 21504.97, 12075.44, 8959.79, -10506.91, 4507.41, 25213.24, 0.00, 0.000, 0.000, 0.000, 13:27:08.329
208, 0.00, 21515.97, 12096.05, 8841.75, -10492.78, 4517.82, 25205.17, 0.00, 0.000, 0.000, 0.000, 13:27:08.329
209, 0.00, 21508.01, 12084.49, 8860.41, -10725.19, 4506.09, 25202.57, 0.00, 0.000, 0.000, 0.000, 13:27:08.329
210, 0.00, 21504.19, 12081.59, 8999.35, -10906.56, 4503.63, 25220.28, 0.00, 0.000, 0.000, 0.000, 13:27:08.790
211, 0.00, 21500.52, 12077.56, 9078.85, -10737.93, 4504.30, 25228.81, 0.00, 0.000, 0.000, 0.000, 13:27:08.790
212, 0.00, 21512.90, 12088.85, 8969.96, -10505.30, 4521.82, 25219.79, 0.00, 0.000, 0.000, 0.000, 13:27:08.790
213, 0.00, 21515.21, 12088.92, 8842.89, -10491.91, 4519.39, 25204.50, 0.00, 0.000, 0.000, 0.000, 13:27:08.790
214, 0.00, 21507.07, 12081.03, 8859.47, -10720.83, 4509.06, 25201.23, 0.00, 0.036, -0.032, 0.986, 13:27:08.790
215, 0.00, 21500.28, 12075.55, 8996.71, -10908.46, 4503.05, 25216.25, 0.00, 0.000, 0.000, 0.000, 13:27:08.790
216, 0.00, 21500.68, 12077.47, 9085.51, -10737.80, 4499.61, 25228.55, 0.00, 0.000, 0.000, 0.000, 13:27:08.790
217, 0.00, 21507.70, 12082.73, 8974.96, -10510.21, 4513.13, 25215.31, 0.00, 0.000, 0.000, 0.000, 13:27:08.790
218, 0.00, 21513.35, 12089.61, 8850.87, -10492.22, 4521.51, 25202.42, 0.00, 0.000, 0.000, 0.000, 13:27:08.791
219, 0.00, 21508.08, 12084.09, 8870.07, -10712.68, 4510.22, 25203.29, 0.00, 0.000, 0.000, 0.000, 13:27:08.791
220, 0.00, 21499.63, 12074.81, 9005.94, -10894.42, 4504.41, 25216.99, 0.00, 0.000, 0.000, 0.000, 13:27:08.791
221, 0.00, 21498.87, 12073.76, 9084.93, -10736.26, 4504.86, 25226.51, 0.00, 0.000, 0.000, 0.000, 13:27:08.791
222, 0.00, 21505.75, 12084.00, 8974.63, -10510.95, 4516.71, 25215.52, 0.00, 0.000, 0.000, 0.000, 13:27:08.791
223, 0.00, 21510.83, 12086.88, 8849.19, -10487.71, 4516.86, 25201.99, 0.00, 0.000, 0.000, 0.000, 13:27:08.791
224, 0.00, 21506.47, 12083.98, 8861.82, -10715.78, 4510.34, 25201.17, 0.00, 0.040, -0.032, 0.990, 13:27:08.791
225, 0.00, 21497.06, 12072.42, 8998.79, -10901.71, 4498.98, 25213.82, 0.00, 0.000, 0.000, 0.000, 13:27:08.791
226, 0.00, 21493.97, 12069.56, 9079.32, -10746.99, 4502.74, 25220.48, 0.00, 0.000, 0.000, 0.000, 13:27:08.791
227, 0.00, 21501.95, 12074.77, 8969.46, -10518.33, 4511.97, 25211.72, 0.00, 0.000, 0.000, 0.000, 13:27:08.791
228, 0.00, 21507.90, 12081.30, 8843.33, -10493.07, 4513.24, 25196.58, 0.00, 0.000, 0.000, 0.000, 13:27:08.791
229, 0.00, 21506.33, 12080.63, 8862.09, -10706.87, 4507.70, 25199.98, 0.00, 0.000, 0.000, 0.000, 13:27:08.791
230, 0.00, 21496.92, 12074.43, 8995.55, -10898.26, 4497.31, 25215.05, 0.00, 0.000, 0.000, 0.000, 13:27:08.792
231, 0.00, 21498.78, 12076.85, 9085.72, -10744.26, 4500.95, 25224.35, 0.00, 0.000, 0.000, 0.000, 13:27:08.792
232, 0.00, 21506.13, 12083.20, 8980.35, -10513.37, 4500.61, 25215.74, 0.00, 0.000, 0.000, 0.000, 13:27:08.792
233, 0.00, 21511.23, 12086.06, 8851.94, -10482.27, 4516.37, 25201.63, 0.00, 0.000, 0.000, 0.000, 13:27:08.792
234, 0.00, 21505.53, 12082.03, 8860.99, -10702.84, 4511.57, 25200.36, 0.00, 0.034, -0.036, 0.990, 13:27:08.792
235, 0.00, 21501.77, 12077.83, 8997.31, -10898.58, 4504.19, 25216.88, 0.00, 0.000, 0.000, 0.000, 13:27:08.792
236, 0.00, 21498.82, 12071.17, 9080.15, -10758.48, 4500.55, 25224.10, 0.00, 0.000, 0.000, 0.000, 13:27:08.792
237, 0.00, 21506.91, 12082.91, 8981.85, -10523.25, 4516.44, 25217.37, 0.00, 0.000, 0.000, 0.000, 13:27:08.792
238, 0.00, 21511.65, 12087.13, 8858.00, -10480.53, 4523.50, 25200.61, 0.00, 0.000, 0.000, 0.000, 13:27:08.792
239, 0.00, 21507.90, 12084.98, 8868.75, -10689.97, 4510.85, 25200.45, 0.00, 0.000, 0.000, 0.000, 13:27:08.792
240, 0.00, 21499.56, 12076.83, 8996.71, -10894.78, 4502.04, 25215.63, 0.00, 0.000, 0.000, 0.000, 13:27:08.793
241, 0.00, 21499.23, 12077.50, 9087.50, -10754.88, 4504.50, 25226.29, 0.00, 0.000, 0.000, 0.000, 13:27:08.793
242, 0.00, 21505.82, 12084.76, 8989.09, -10516.23, 4513.69, 25217.04, 0.00, 0.000, 0.000, 0.000, 13:27:08.793
243, 0.00, 21511.54, 12088.02, 8856.30, -10479.95, 4521.22, 25202.40, 0.00, 0.000, 0.000, 0.000, 13:27:08.793
244, 0.00, 21505.24, 12083.87, 8859.40, -10699.60, 4510.25, 25200.72, 0.00, 0.028, -0.036, 0.994, 13:27:08.793
245, 0.00, 21497.53, 12072.60, 8990.79, -10901.93, 4496.63, 25212.90, 0.00, 0.000, 0.000, 0.000, 13:27:08.793
246, 0.00, 21500.46, 12075.71, 9083.99, -10760.75, 4501.26, 25226.92, 0.00, 0.000, 0.000, 0.000, 13:27:08.793
247, 0.00, 21508.93, 12082.41, 8984.22, -10524.61, 4511.23, 25220.84, 0.00, 0.000, 0.000, 0.000, 13:27:08.794
248, 0.00, 21513.17, 12087.02, 8856.72, -10478.86, 4519.72, 25204.03, 0.00, 0.000, 0.000, 0.000, 13:27:08.794
249, 0.00, 21508.39, 12083.04, 8860.50, -10687.49, 4504.21, 25201.32, 0.00, 0.000, 0.000, 0.000, 13:27:08.794
250, 0.00, 21501.13, 12073.83, 8989.11, -10891.36, 4500.32, 25217.04, 0.00, 0.000, 0.000, 0.000, 13:27:08.794
251, 0.00, 21498.82, 12071.42, 9081.69, -10758.36, 4500.93, 25228.77, 0.00, 0.000, 0.000, 0.000, 13:27:08.794
252, 0.00, 21505.89, 12077.07, 8983.14, -10519.76, 4510.94, 25220.95, 0.00, 0.000, 0.000, 0.000, 13:27:08.794
253, 0.00, 21514.11, 12083.55, 8854.96, -10472.91, 4515.19, 25207.34, 0.00, 0.000, 0.000, 0.000, 13:27:08.794
254, 0.00, 21509.15, 12083.78, 8861.84, -10676.80, 4507.94, 25203.54, 0.00, 0.028, -0.032, 0.992, 13:27:08.795
255, 0.00, 21500.68, 12075.71, 8989.42, -10888.38, 4500.68, 25217.64, 0.00, 0.000, 0.000, 0.000, 13:27:08.795
0, 0.00, 21497.75, 12072.67, 9085.40, -10761.65, 4501.73, 25224.01, 0.00, 0.000, 0.000, 0.000, 13:27:08.795
1, 0.00, 21506.00, 12079.17, 8989.29, -10523.87, 4509.98, 25217.57, 0.00, 0.000, 0.000, 0.000, 13:27:08.795
2, 0.00, 21511.74, 12087.96, 8861.59, -10469.80, 4517.20, 25202.06, 0.00, 0.000, 0.000, 0.000, 13:27:08.795
3, 0.00, 21510.67, 12089.23, 8864.01, -10676.02, 4512.82, 25205.23, 0.00, 0.000, 0.000, 0.000, 13:27:08.796
4, 0.00, 21501.46, 12076.33, 8984.24, -10899.25, 4494.20, 25218.62, 0.00, 0.000, 0.000, 0.000, 13:27:08.796
5, 0.00, 21498.00, 12072.71, 9082.56, -10778.01, 4503.56, 25225.80, 0.00, 0.000, 0.000, 0.000, 13:27:08.796
6, 0.00, 21505.08, 12083.55, 8997.76, -10527.31, 4514.92, 25217.13, 0.00, 0.000, 0.000, 0.000, 13:27:08.796
7, 0.00, 21509.78, 12085.30, 8862.91, -10475.79, 4515.45, 25200.23, 0.00, 0.000, 0.000, 0.000, 13:27:08.796
8, 0.00, 21503.67, 12083.06, 8860.97, -10681.14, 4509.60, 25198.33, 0.00, 0.030, -0.036, 0.990, 13:27:08.796
9, 0.00, 21495.36, 12073.61, 8987.61, -10894.44, 4497.19, 25209.30, 0.00, 0.000, 0.000, 0.000, 13:27:08.796
10, 0.00, 21495.38, 12070.75, 9090.54, -10768.71, 4500.86, 25221.82, 0.00, 0.000, 0.000, 0.000, 13:27:08.796
11, 0.00, 21504.93, 12080.89, 8998.21, -10527.69, 4507.92, 25218.15, 0.00, 0.000, 0.000, 0.000, 13:27:08.796
12, 0.00, 21511.79, 12086.10, 8867.36, -10467.79, 4513.40, 25203.16, 0.00, 0.000, 0.000, 0.000, 13:27:08.796
13, 0.00, 21505.30, 12077.72, 8856.83, -10673.00, 4496.86, 25196.52, 0.00, 0.000, 0.000, 0.000, 13:27:08.796
14, 0.00, 21498.51, 12069.99, 8977.98, -10893.70, 4491.90, 25210.96, 0.00, 0.000, 0.000, 0.000, 13:27:08.797
15, 0.00, 21498.98, 12075.19, 9085.02, -10776.94, 4511.10, 25228.44, 0.00, 0.000, 0.000, 0.000, 13:27:08.797
16, 0.00, 21505.87, 12082.48, 8997.63, -10536.63, 4516.15, 25217.84, 0.00, 0.000, 0.000, 0.000, 13:27:08.797
17, 0.00, 21511.34, 12090.59, 8871.29, -10473.94, 4518.58, 25204.01, 0.00, 0.000, 0.000, 0.000, 13:27:08.798
18, 0.00, 21505.71, 12081.97, 8862.82, -10677.23, 4506.87, 25198.78, 0.00, 0.030, -0.034, 0.990, 13:27:08.798
19, 0.00, 21497.97, 12071.01, 8981.80, -10901.15, 4493.62, 25209.28, 0.00, 0.000, 0.000, 0.000, 13:27:08.798
20, 0.00, 21495.36, 12063.55, 9080.75, -10792.25, 4494.96, 25224.26, 0.00, 0.000, 0.000, 0.000, 13:27:08.798
21, 0.00, 21507.92, 12081.41, 8999.50, -10540.05, 4508.77, 25223.00, 0.00, 0.000, 0.000, 0.000, 13:27:08.798
22, 0.00, 21514.85, 12088.40, 8869.60, -10473.36, 4516.19, 25206.29, 0.00, 0.000, 0.000, 0.000, 13:27:08.798
23, 0.00, 21510.85, 12083.75, 8860.05, -10672.73, 4508.73, 25203.47, 0.00, 0.000, 0.000, 0.000, 13:27:08.799
24, 0.00, 21505.04, 12078.68, 8984.91, -10891.87, 4501.62, 25215.99, 0.00, 0.000, 0.000, 0.000, 13:27:08.799
25, 0.00, 21502.15, 12076.36, 9090.43, -10787.55, 4505.58, 25227.54, 0.00, 0.000, 0.000, 0.000, 13:27:08.799
26, 0.00, 21506.36, 12080.40, 9006.14, -10541.19, 4514.60, 25218.51, 0.00, 0.000, 0.000, 0.000, 13:27:08.799
27, 0.00, 21511.68, 12089.59, 8872.26, -10475.30, 4517.42, 25202.91, 0.00, 0.000, 0.000, 0.000, 13:27:08.799
28, 0.00, 21508.84, 12087.49, 8860.08, -10674.41, 4510.07, 25201.19, 0.00, 0.030, -0.034, 0.996, 13:27:08.799
29, 0.00, 21500.90, 12076.27, 8983.19, -10894.64, 4500.84, 25212.97, 0.00, 0.000, 0.000, 0.000, 13:27:08.799
30, 0.00, 21497.64, 12072.96, 9087.73, -10793.72, 4498.29, 25225.60, 0.00, 0.000, 0.000, 0.000, 13:27:08.799
31, 0.00, 21504.19, 12082.28, 9010.68, -10542.92, 4507.54, 25220.10, 0.00, 0.000, 0.000, 0.000, 13:27:08.799
32, 0.00, 21508.57, 12082.75, 8874.38, -10467.75, 4512.91, 25201.88, 0.00, 0.000, 0.000, 0.000, 13:27:08.800
33, 0.00, 21510.94, 12085.79, 8859.63, -10663.06, 4510.47, 25203.40, 0.00, 0.000, 0.000, 0.000, 13:27:08.800
34, 0.00, 21502.47, 12076.25, 8979.46, -10889.01, 4499.05, 25216.92, 0.00, 0.000, 0.000, 0.000, 13:27:08.800
35, 0.00, 21498.67, 12070.81, 9086.05, -10796.05, 4483.96, 25227.50, 0.00, 0.000, 0.000, 0.000, 13:27:08.800
36, 0.00, 21503.70, 12075.40, 9008.67, -10544.57, 4503.45, 25217.46, 0.00, 0.000, 0.000, 0.000, 13:27:08.800
37, 0.00, 21509.71, 12086.08, 8874.67, -10467.77, 4520.17, 25204.07, 0.00, 0.000, 0.000, 0.000, 13:27:08.800
38, 0.00, 21506.29, 12082.75, 8859.45, -10659.81, 4508.84, 25199.87, 0.00, 0.032, -0.032, 0.994, 13:27:08.801
39, 0.00, 21497.46, 12077.34, 8981.18, -10885.99, 4495.43, 25210.80, 0.00, 0.000, 0.000, 0.000, 13:27:08.801
40, 0.00, 21495.92, 12074.79, 9088.82, -10800.36, 4500.61, 25224.90, 0.00, 0.000, 0.000, 0.000, 13:27:08.801
41, 0.00, 21501.93, 12078.75, 9013.23, -10551.19, 4510.94, 25217.77, 0.00, 0.000, 0.000, 0.000, 13:27:08.801
42, 0.00, 21510.69, 12081.25, 8877.44, -10469.96, 4517.56, 25205.62, 0.00, 0.000, 0.000, 0.000, 13:27:08.801
43, 0.00, 21506.04, 12081.23, 8858.29, -10656.06, 4506.92, 25201.35, 0.00, 0.000, 0.000, 0.000, 13:27:08.801
44, 0.00, 21499.63, 12078.97, 8980.91, -10885.32, 4500.12, 25215.22, 0.00, 0.000, 0.000, 0.000, 13:27:08.801
45, 0.00, 21496.21, 12075.57, 9096.06, -10799.67, 4502.92, 25227.45, 0.00, 0.000, 0.000, 0.000, 13:27:08.803
46, 0.00, 21505.93, 12079.35, 9021.70, -10549.62, 4508.79, 25224.48, 0.00, 0.000, 0.000, 0.000, 13:27:08.803
47, 0.00, 21512.73, 12089.07, 8887.21, -10465.02, 4520.98, 25209.73, 0.00, 0.000, 0.000, 0.000, 13:27:08.803
48, 0.00, 21506.60, 12081.99, 8863.58, -10650.76, 4506.20, 25200.12, 0.00, 0.032, -0.036, 0.990, 13:27:08.803
49, 0.00, 21498.85, 12071.26, 8976.28, -10884.79, 4497.26, 25209.64, 0.00, 0.000, 0.000, 0.000, 13:27:08.804
50, 0.00, 21496.59, 12068.67, 9088.46, -10805.08, 4494.58, 25223.23, 0.00, 0.000, 0.000, 0.000, 13:27:08.804
51, 0.00, 21505.57, 12077.32, 9016.92, -10555.48, 4513.38, 25221.64, 0.00, 0.000, 0.000, 0.000, 13:27:08.804
52, 0.00, 21507.36, 12080.71, 8878.74, -10467.86, 4515.81, 25202.17, 0.00, 0.000, 0.000, 0.000, 13:27:08.804
53, 0.00, 21505.62, 12082.70, 8855.54, -10651.63, 4507.97, 25198.89, 0.00, 0.000, 0.000, 0.000, 13:27:08.804
54, 0.00, 21499.05, 12079.40, 8976.13, -10884.70, 4497.60, 25212.05, 0.00, 0.000, 0.000, 0.000, 13:27:08.804
55, 0.00, 21496.97, 12073.38, 9089.18, -10809.35, 4497.35, 25225.53, 0.00, 0.000, 0.000, 0.000, 13:27:08.804
56, 0.00, 21504.81, 12081.36, 9023.04, -10556.55, 4509.00, 25222.69, 0.00, 0.000, 0.000, 0.000, 13:27:08.805
57, 0.00, 21506.89, 12081.77, 8885.40, -10463.10, 4509.26, 25203.16, 0.00, 0.000, 0.000, 0.000, 13:27:08.805
58, 0.00, 21504.90, 12078.93, 8854.44, -10645.51, 4502.58, 25199.42, 0.00, 0.032, -0.038, 0.992, 13:27:08.805
59, 0.00, 21496.74, 12069.83, 8967.70, -10884.99, 4495.29, 25211.18, 0.00, 0.000, 0.000, 0.000, 13:27:08.806
60, 0.00, 21494.02, 12067.95, 9082.54, -10819.50, 4497.10, 25222.91, 0.00, 0.000, 0.000, 0.000, 13:27:08.806
61, 0.00, 21501.95, 12076.18, 9017.57, -10565.67, 4505.04, 25220.01, 0.00, 0.000, 0.000, 0.000, 13:27:08.807
62, 0.00, 21507.67, 12080.49, 8880.64, -10472.48, 4499.76, 25203.45, 0.00, 0.000, 0.000, 0.000, 13:27:08.807
63, 0.00, 21505.37, 12075.62, 8854.24, -10649.24, 4506.40, 25198.06, 0.00, 0.000, 0.000, 0.000, 13:27:08.807
64, 0.00, 21501.88, 12076.16, 8972.84, -10885.88, 4501.95, 25216.01, 0.00, 0.000, 0.000, 0.000, 13:27:08.808
65, 0.00, 21496.43, 12070.12, 9089.96, -10821.84, 4499.58, 25228.03, 0.00, 0.000, 0.000, 0.000, 13:27:08.808
66, 0.00, 21499.31, 12069.03, 9023.13, -10570.05, 4500.50, 25215.34, 0.00, 0.000, 0.000, 0.000, 13:27:08.808
67, 0.00, 21505.60, 12077.41, 8885.91, -10469.98, 4506.20, 25202.11, 0.00, 0.000, 0.000, 0.000, 13:27:08.808
68, 0.00, 21506.42, 12077.36, 8855.69, -10644.71, 4508.88, 25199.09, 0.00, 0.040, -0.040, 0.994, 13:27:08.808
69, 0.00, 21502.67, 12076.60, 8972.77, -10879.80, 4501.44, 25214.02, 0.00, 0.000, 0.000, 0.000, 13:27:08.808
70, 0.00, 21495.40, 12068.69, 9091.37, -10822.29, 4498.76, 25223.79, 0.00, 0.000, 0.000, 0.000, 13:27:08.808
71, 0.00, 21502.67, 12073.14, 9030.08, -10565.74, 4500.84, 25220.46, 0.00, 0.000, 0.000, 0.000, 13:27:08.809
72, 0.00, 21509.93, 12083.06, 8892.46, -10466.11, 4510.96, 25203.80, 0.00, 0.000, 0.000, 0.000, 13:27:08.809
73, 0.00, 21506.87, 12078.55, 8857.57, -10641.71, 4506.18, 25198.22, 0.00, 0.000, 0.000, 0.000, 13:27:08.809
74, 0.00, 21496.23, 12066.66, 8968.62, -10881.63, 4492.03, 25205.53, 0.00, 0.000, 0.000, 0.000, 13:27:09.273
75, 0.00, 21491.92, 12063.26, 9088.55, -10825.67, 4490.38, 25219.25, 0.00, 0.000, 0.000, 0.000, 13:27:09.273
76, 0.00, 21504.54, 12073.16, 9031.22, -10568.04, 4502.54, 25221.64, 0.00, 0.000, 0.000, 0.000, 13:27:09.273
77, 0.00, 21512.06, 12083.96, 8893.16, -10465.11, 4510.69, 25206.60, 0.00, 0.000, 0.000, 0.000, 13:27:09.273
78, 0.00, 21506.98, 12080.45, 8863.09, -10633.71, 4507.43, 25198.60, 0.00, 0.036, -0.034, 0.994, 13:27:09.273
79, 0.00, 21500.68, 12073.76, 8974.43, -10876.13, 4498.20, 25212.34, 0.00, 0.000, 0.000, 0.000, 13:27:09.274
80, 0.00, 21494.42, 12065.90, 9092.51, -10827.88, 4495.29, 25222.74, 0.00, 0.000, 0.000, 0.000, 13:27:09.274
81, 0.00, 21500.16, 12061.31, 9031.24, -10577.29, 4501.04, 25215.07, 0.00, 0.000, 0.000, 0.000, 13:27:09.274
82, 0.00, 21509.42, 12087.06, 8903.88, -10462.16, 4515.70, 25207.40, 0.00, 0.000, 0.000, 0.000, 13:27:09.274
83, 0.00, 21508.84, 12081.56, 8864.03, -10632.79, 4504.46, 25201.03, 0.00, 0.000, 0.000, 0.000, 13:27:09.274
84, 0.00, 21504.30, 12074.64, 8975.43, -10872.49, 4496.97, 25217.10, 0.00, 0.000, 0.000, 0.000, 13:27:09.274
85, 0.00, 21498.31, 12068.11, 9094.19, -10826.67, 4500.32, 25226.65, 0.00, 0.000, 0.000, 0.000, 13:27:09.274
86, 0.00, 21504.37, 12074.39, 9039.89, -10571.28, 4509.89, 25220.77, 0.00, 0.000, 0.000, 0.000, 13:27:09.274
87, 0.00, 21510.58, 12082.50, 8899.59, -10462.05, 4510.69, 25205.23, 0.00, 0.000, 0.000, 0.000, 13:27:09.275
88, 0.00, 21507.52, 12079.20, 8858.22, -10632.43, 4507.77, 25198.26, 0.00, 0.034, -0.036, 0.998, 13:27:09.275
89, 0.00, 21500.43, 12070.97, 8964.57, -10881.14, 4494.89, 25211.40, 0.00, 0.000, 0.000, 0.000, 13:27:09.275
90, 0.00, 21498.94, 12069.72, 9091.04, -10837.58, 4500.32, 25226.85, 0.00, 0.000, 0.000, 0.000, 13:27:09.275
91, 0.00, 21501.26, 12067.39, 9035.54, -10582.46, 4506.56, 25221.44, 0.00, 0.000, 0.000, 0.000, 13:27:09.275
92, 0.00, 21511.18, 12079.17, 8895.82, -10465.18, 4511.83, 25206.42, 0.00, 0.000, 0.000, 0.000, 13:27:09.275
93, 0.00, 21509.55, 12080.02, 8853.62, -10630.38, 4501.26, 25201.79, 0.00, 0.000, 0.000, 0.000, 13:27:09.275
94, 0.00, 21501.53, 12074.81, 8965.78, -10872.42, 4502.07, 25211.13, 0.00, 0.000, 0.000, 0.000, 13:27:09.276
95, 0.00, 21497.73, 12067.59, 9094.14, -10831.45, 4497.53, 25225.13, 0.00, 0.000, 0.000, 0.000, 13:27:09.276
96, 0.00, 21505.37, 12071.64, 9044.03, -10573.09, 4505.31, 25221.24, 0.00, 0.000, 0.000, 0.000, 13:27:09.276
97, 0.00, 21514.02, 12079.98, 8901.56, -10459.97, 4509.55, 25206.31, 0.00, 0.000, 0.000, 0.000, 13:27:09.276
98, 0.00, 21511.77, 12078.12, 8855.40, -10622.98, 4505.66, 25200.50, 0.00, 0.032, -0.032, 0.994, 13:27:09.276
99, 0.00, 21501.64, 12072.51, 8960.12, -10872.65, 4497.48, 25210.31, 0.00, 0.000, 0.000, 0.000, 13:27:09.276
100, 0.00, 21495.81, 12066.63, 9087.12, -10839.97, 4496.68, 25222.82, 0.00, 0.000, 0.000, 0.000, 13:27:09.276
101, 0.00, 21501.57, 12070.19, 9041.97, -10584.31, 4505.11, 25218.78, 0.00, 0.000, 0.000, 0.000, 13:27:09.276
102, 0.00, 21513.40, 12083.53, 8905.07, -10461.55, 4515.57, 25210.17, 0.00, 0.000, 0.000, 0.000, 13:27:09.277
103, 0.00, 21510.47, 12081.09, 8857.59, -10618.38, 4511.48, 25199.00, 0.00, 0.000, 0.000, 0.000, 13:27:09.277
104, 0.00, 21500.12, 12072.91, 8960.43, -10865.00, 4487.49, 25211.34, 0.00, 0.000, 0.000, 0.000, 13:27:09.277
105, 0.00, 21494.91, 12066.34, 9085.69, -10836.33, 4500.08, 25223.34, 0.00, 0.000, 0.000, 0.000, 13:27:09.277
106, 0.00, 21503.79, 12071.46, 9043.05, -10577.78, 4510.18, 25221.73, 0.00, 0.000, 0.000, 0.000, 13:27:09.278
107, 0.00, 21511.74, 12077.32, 8899.97, -10462.65, 4511.48, 25208.03, 0.00, 0.000, 0.000, 0.000, 13:27:09.278
108, 0.00, 21511.41, 12081.72, 8855.31, -10614.26, 4507.88, 25203.13, 0.00, 0.028, -0.032, 0.994, 13:27:09.278
109, 0.00, 21504.12, 12073.43, 8961.35, -10857.31, 4500.77, 25212.57, 0.00, 0.000, 0.000, 0.000, 13:27:09.278
110, 0.00, 21499.03, 12068.47, 9086.81, -10837.38, 4496.37, 25226.27, 0.00, 0.000, 0.000, 0.000, 13:27:09.278
111, 0.00, 21506.33, 12070.75, 9044.45, -10582.57, 4506.29, 25222.67, 0.00, 0.000, 0.000, 0.000, 13:27:09.278
112, 0.00, 21512.41, 12077.41, 8898.59, -10467.30, 4514.11, 25207.56, 0.00, 0.000, 0.000, 0.000, 13:27:09.278
113, 0.00, 21511.25, 12080.69, 8854.73, -10608.70, 4511.19, 25200.83, 0.00, 0.000, 0.000, 0.000, 13:27:09.278
114, 0.00, 21503.27, 12072.24, 8957.55, -10852.80, 4499.38, 25211.27, 0.00, 0.000, 0.000, 0.000, 13:27:09.279
115, 0.00, 21496.81, 12058.97, 9075.68, -10844.78, 4492.30, 25222.24, 0.00, 0.000, 0.000, 0.000, 13:27:09.279
116, 0.00, 21504.39, 12070.30, 9039.11, -10588.51, 4505.20, 25221.69, 0.00, 0.000, 0.000, 0.000, 13:27:09.279
117, 0.00, 21509.73, 12075.73, 8895.19, -10466.88, 4507.50, 25204.88, 0.00, 0.000, 0.000, 0.000, 13:27:09.279
118, 0.00, 21510.85, 12080.13, 8850.17, -10609.30, 4504.90, 25199.65, 0.00, 0.026, -0.032, 0.992, 13:27:09.279
119, 0.00, 21497.39, 12068.47, 8953.08, -10852.31, 4493.55, 25208.27, 0.00, 0.000, 0.000, 0.000, 13:27:09.279
120, 0.00, 21497.24, 12063.71, 9077.80, -10843.12, 4487.16, 25224.50, 0.00, 0.000, 0.000, 0.000, 13:27:09.279
121, 0.00, 21504.99, 12067.28, 9041.06, -10589.99, 4503.83, 25223.36, 0.00, 0.000, 0.000, 0.000, 13:27:09.280
122, 0.00, 21509.48, 12074.95, 8896.37, -10467.95, 4510.67, 25206.75, 0.00, 0.000, 0.000, 0.000, 13:27:09.280
123, 0.00, 21510.31, 12085.05, 8850.28, -10608.03, 4510.98, 25200.79, 0.00, 0.000, 0.000, 0.000, 13:27:09.280
124, 0.00, 21498.55, 12067.88, 8944.99, -10861.09, 4496.37, 25206.06, 0.00, 0.000, 0.000, 0.000, 13:27:09.280
125, 0.00, 21495.69, 12063.48, 9076.95, -10850.30, 4494.51, 25221.24, 0.00, 0.000, 0.000, 0.000, 13:27:09.280
126, 0.00, 21498.87, 12070.46, 9042.04, -10601.66, 4489.59, 25218.94, 0.00, 0.000, 0.000, 0.000, 13:27:09.280
127, 0.00, 21505.08, 12077.14, 8901.98, -10473.58, 4514.54, 25201.66, 0.00, 0.000, 0.000, 0.000, 13:27:09.280
128, 0.00, 21512.41, 12084.40, 8852.94, -10608.76, 4511.83, 25200.76, 0.00, 0.034, -0.032, 0.992, 13:27:09.281
129, 0.00, 21503.70, 12074.12, 8950.82, -10858.97, 4498.51, 25208.95, 0.00, 0.000, 0.000, 0.000, 13:27:09.281
130, 0.00, 21495.76, 12063.77, 9077.22, -10857.16, 4492.95, 25218.96, 0.00, 0.000, 0.000, 0.000, 13:27:09.281
131, 0.00, 21501.46, 12069.70, 9043.14, -10608.12, 4501.51, 25220.95, 0.00, 0.000, 0.000, 0.000, 13:27:09.281
132, 0.00, 21507.52, 12073.52, 8905.58, -10468.98, 4505.58, 25204.97, 0.00, 0.000, 0.000, 0.000, 13:27:09.281
133, 0.00, 21506.94, 12075.66, 8847.47, -10606.51, 4504.84, 25198.78, 0.00, 0.000, 0.000, 0.000, 13:27:09.281
134, 0.00, 21500.32, 12069.47, 8943.78, -10861.07, 4486.20, 25206.84, 0.00, 0.000, 0.000, 0.000, 13:27:09.281
135, 0.00, 21493.84, 12068.13, 9083.35, -10856.31, 4499.58, 25219.65, 0.00, 0.000, 0.000, 0.000, 13:27:09.282
136, 0.00, 21496.41, 12066.95, 9051.96, -10601.79, 4507.94, 25215.20, 0.00, 0.000, 0.000, 0.000, 13:27:09.282
137, 0.00, 21509.55, 12080.29, 8907.08, -10468.57, 4516.26, 25205.08, 0.00, 0.036, -0.032, 0.990, 13:27:09.282
138, 0.00, 21506.76, 12078.52, 8846.17, -10603.22, 4507.81, 25196.45, 0.00, 0.000, 0.000, 0.000, 13:27:09.282
139, 0.00, 21497.33, 12068.24, 8940.56, -10852.20, 4495.58, 25203.92, 0.00, 0.000, 0.000, 0.000, 13:27:09.283
140, 0.00, 21491.11, 12056.49, 9069.56, -10861.18, 4491.00, 25216.66, 0.00, 0.000, 0.000, 0.000, 13:27:09.283
141, 0.00, 21500.61, 12073.16, 9048.46, -10598.73, 4504.28, 25221.28, 0.00, 0.000, 0.000, 0.000, 13:27:09.283
142, 0.00, 21507.43, 12080.13, 8904.04, -10464.88, 4508.44, 25206.24, 0.00, 0.000, 0.000, 0.000, 13:27:09.283
143, 0.00, 21507.90, 12082.59, 8847.07, -10594.88, 4513.78, 25196.25, 0.00, 0.000, 0.000, 0.000, 13:27:09.283
144, 0.00, 21499.09, 12070.70, 8935.87, -10852.17, 4499.94, 25204.47, 0.00, 0.000, 0.000, 0.000, 13:27:09.283
145, 0.00, 21493.57, 12064.00, 9066.85, -10866.10, 4494.87, 25221.51, 0.00, 0.000, 0.000, 0.000, 13:27:09.283
146, 0.00, 21498.00, 12067.44, 9042.80, -10615.40, 4485.41, 25219.12, 0.00, 0.000, 0.000, 0.000, 13:27:09.284
147, 0.00, 21503.29, 12071.48, 8904.49, -10464.44, 4513.89, 25201.70, 0.00, 0.032, -0.040, 0.994, 13:27:09.284
148, 0.00, 21504.84, 12074.81, 8843.89, -10587.15, 4515.25, 25194.80, 0.00, 0.000, 0.000, 0.000, 13:27:09.284
149, 0.00, 21498.49, 12066.66, 8934.33, -10841.96, 4498.31, 25205.48, 0.00, 0.000, 0.000, 0.000, 13:27:09.284
150, 0.00, 21494.17, 12064.85, 9068.08, -10861.25, 4494.73, 25219.79, 0.00, 0.000, 0.000, 0.000, 13:27:09.284
151, 0.00, 21497.86, 12064.13, 9047.94, -10608.61, 4498.65, 25217.35, 0.00, 0.000, 0.000, 0.000, 13:27:09.284
152, 0.00, 21505.60, 12074.99, 8906.34, -10463.10, 4505.73, 25203.51, 0.00, 0.000, 0.000, 0.000, 13:27:09.285
153, 0.00, 21508.10, 12076.89, 8840.18, -10591.24, 4499.74, 25194.88, 0.00, 0.000, 0.000, 0.000, 13:27:09.285
154, 0.00, 21499.40, 12071.57, 8932.90, -10841.18, 4497.31, 25205.23, 0.00, 0.000, 0.000, 0.000, 13:27:09.285
155, 0.00, 21494.24, 12062.99, 9064.62, -10865.36, 4492.32, 25218.18, 0.00, 0.000, 0.000, 0.000, 13:27:09.285
156, 0.00, 21499.34, 12067.42, 9045.95, -10615.27, 4500.08, 25219.49, 0.00, 0.000, 0.000, 0.000, 13:27:09.285
157, 0.00, 21507.96, 12076.56, 8904.20, -10469.94, 4508.19, 25205.86, 0.00, 0.030, -0.040, 0.996, 13:27:09.285
158, 0.00, 21506.91, 12077.18, 8837.90, -10590.86, 4506.69, 25196.54, 0.00, 0.000, 0.000, 0.000, 13:27:09.285
159, 0.00, 21494.17, 12065.76, 8927.38, -10839.90, 4494.47, 25201.19, 0.00, 0.000, 0.000, 0.000, 13:27:09.286
160, 0.00, 21489.26, 12060.91, 9062.69, -10870.03, 4487.34, 25216.25, 0.00, 0.000, 0.000, 0.000, 13:27:09.286
161, 0.00, 21494.31, 12063.24, 9045.21, -10625.48, 4497.66, 25215.74, 0.00, 0.000, 0.000, 0.000, 13:27:09.286
162, 0.00, 21502.00, 12075.93, 8904.76, -10477.40, 4498.96, 25200.38, 0.00, 0.000, 0.000, 0.000, 13:27:09.286
163, 0.00, 21501.95, 12070.43, 8835.15, -10593.74, 4501.28, 25192.23, 0.00, 0.000, 0.000, 0.000, 13:27:09.286
164, 0.00, 21495.49, 12067.35, 8923.11, -10844.53, 4494.51, 25201.72, 0.00, 0.000, 0.000, 0.000, 13:27:09.287
165, 0.00, 21489.88, 12062.32, 9058.13, -10878.59, 4488.32, 25216.41, 0.00, 0.000, 0.000, 0.000, 13:27:09.290
166, 0.00, 21496.57, 12070.25, 9050.13, -10622.00, 4506.54, 25218.53, 0.00, 0.000, 0.000, 0.000, 13:27:09.290
167, 0.00, 21501.60, 12072.91, 8906.81, -10470.03, 4509.00, 25202.57, 0.00, 0.028, -0.036, 0.994, 13:27:09.290
168, 0.00, 21503.58, 12074.03, 8836.54, -10583.33, 4507.21, 25193.28, 0.00, 0.000, 0.000, 0.000, 13:27:09.290
169, 0.00, 21495.92, 12068.13, 8922.48, -10839.41, 4494.35, 25200.67, 0.00, 0.000, 0.000, 0.000, 13:27:09.290
170, 0.00, 21489.95, 12060.49, 9058.71, -10875.84, 4491.27, 25214.73, 0.00, 0.000, 0.000, 0.000, 13:27:09.291
171, 0.00, 21494.22, 12059.68, 9046.11, -10628.41, 4495.90, 25214.89, 0.00, 0.000, 0.000, 0.000, 13:27:09.291
172, 0.00, 21505.35, 12071.08, 8904.69, -10473.60, 4504.59, 25203.47, 0.00, 0.000, 0.000, 0.000, 13:27:09.291
173, 0.00, 21505.53, 12075.10, 8834.39, -10581.67, 4505.96, 25194.42, 0.00, 0.000, 0.000, 0.000, 13:27:09.291
174, 0.00, 21498.73, 12068.69, 8922.97, -10827.99, 4494.96, 25202.26, 0.00, 0.000, 0.000, 0.000, 13:27:09.291
175, 0.00, 21493.57, 12061.98, 9056.48, -10875.89, 4489.53, 25216.34, 0.00, 0.000, 0.000, 0.000, 13:27:09.291
176, 0.00, 21497.64, 12065.94, 9050.62, -10628.37, 4497.26, 25218.89, 0.00, 0.000, 0.000, 0.000, 13:27:09.291
177, 0.00, 21505.15, 12074.93, 8911.30, -10468.26, 4509.51, 25204.56, 0.00, 0.032, -0.040, 0.994, 13:27:09.292
178, 0.00, 21504.77, 12071.19, 8838.42, -10572.82, 4504.37, 25192.45, 0.00, 0.000, 0.000, 0.000, 13:27:09.292
179, 0.00, 21498.51, 12069.16, 8923.17, -10825.78, 4496.32, 25202.33, 0.00, 0.000, 0.000, 0.000, 13:27:09.292
180, 0.00, 21493.46, 12067.26, 9061.17, -10872.09, 4495.11, 25218.20, 0.00, 0.000, 0.000, 0.000, 13:27:09.292
181, 0.00, 21497.42, 12067.50, 9055.09, -10626.09, 4504.23, 25221.39, 0.00, 0.000, 0.000, 0.000, 13:27:09.292
182, 0.00, 21503.67, 12071.44, 8913.09, -10467.79, 4501.22, 25203.16, 0.00, 0.000, 0.000, 0.000, 13:27:09.292
183, 0.00, 21502.69, 12070.01, 8837.37, -10569.36, 4498.40, 25191.42, 0.00, 0.000, 0.000, 0.000, 13:27:09.292
184, 0.00, 21502.38, 12072.27, 8922.77, -10820.32, 4505.17, 25205.01, 0.00, 0.000, 0.000, 0.000, 13:27:09.292
185, 0.00, 21495.07, 12067.82, 9059.65, -10879.64, 4498.00, 25219.85, 0.00, 0.000, 0.000, 0.000, 13:27:09.293
186, 0.00, 21497.19, 12064.93, 9059.52, -10634.02, 4500.59, 25218.00, 0.00, 0.000, 0.000, 0.000, 13:27:09.293
187, 0.00, 21507.03, 12077.61, 8919.71, -10470.70, 4506.89, 25205.86, 0.00, 0.026, -0.036, 0.996, 13:27:09.293
188, 0.00, 21507.03, 12077.16, 8843.38, -10567.93, 4511.19, 25197.68, 0.00, 0.000, 0.000, 0.000, 13:27:09.293
189, 0.00, 21499.92, 12069.58, 8921.12, -10825.80, 4496.52, 25204.81, 0.00, 0.000, 0.000, 0.000, 13:27:09.293
190, 0.00, 21493.28, 12063.04, 9059.18, -10886.46, 4488.34, 25220.01, 0.00, 0.000, 0.000, 0.000, 13:27:09.293
191, 0.00, 21494.73, 12063.50, 9062.20, -10638.07, 4503.07, 25219.72, 0.00, 0.000, 0.000, 0.000, 13:27:09.293
192, 0.00, 21507.23, 12071.33, 8924.09, -10468.91, 4508.93, 25208.10, 0.00, 0.000, 0.000, 0.000, 13:27:09.293
193, 0.00, 21508.93, 12076.78, 8844.18, -10567.95, 4509.93, 25197.79, 0.00, 0.000, 0.000, 0.000, 13:27:09.294
194, 0.00, 21499.45, 12067.88, 8922.66, -10820.99, 4496.48, 25202.33, 0.00, 0.000, 0.000, 0.000, 13:27:09.294
195, 0.00, 21492.43, 12060.02, 9061.02, -10884.09, 4491.63, 25217.06, 0.00, 0.000, 0.000, 0.000, 13:27:09.751
196, 0.00, 21494.11, 12057.96, 9060.46, -10646.83, 4495.96, 25216.70, 0.00, 0.000, 0.000, 0.000, 13:27:09.751
197, 0.00, 21505.35, 12070.88, 8923.60, -10479.41, 4504.28, 25204.70, 0.00, 0.028, -0.040, 0.992, 13:27:09.751
198, 0.00, 21506.80, 12074.84, 8844.67, -10572.35, 4503.45, 25197.66, 0.00, 0.000, 0.000, 0.000, 13:27:09.752
199, 0.00, 21498.11, 12067.91, 8920.89, -10823.92, 4501.55, 25201.61, 0.00, 0.000, 0.000, 0.000, 13:27:09.752
200, 0.00, 21491.63, 12057.16, 9054.20, -10893.90, 4482.91, 25217.68, 0.00, 0.000, 0.000, 0.000, 13:27:09.752
201, 0.00, 21495.74, 12059.91, 9063.30, -10647.52, 4494.18, 25220.14, 0.00, 0.000, 0.000, 0.000, 13:27:09.752
202, 0.00, 21503.38, 12070.88, 8928.54, -10472.75, 4511.72, 25202.48, 0.00, 0.000, 0.000, 0.000, 13:27:09.752
203, 0.00, 21505.51, 12074.88, 8847.63, -10556.64, 4508.01, 25192.85, 0.00, 0.000, 0.000, 0.000, 13:27:09.752
204, 0.00, 21497.15, 12069.16, 8918.82, -10811.99, 4498.13, 25200.52, 0.00, 0.000, 0.000, 0.000, 13:27:09.752
205, 0.00, 21487.40, 12055.30, 9050.15, -10893.50, 4488.07, 25212.07, 0.00, 0.000, 0.000, 0.000, 13:27:09.752
206, 0.00, 21496.77, 12061.13, 9066.14, -10643.61, 4498.60, 25220.70, 0.00, 0.000, 0.000, 0.000, 13:27:09.753
207, 0.00, 21504.77, 12071.62, 8923.58, -10471.99, 4502.87, 25207.20, 0.00, 0.026, -0.040, 0.994, 13:27:09.753
208, 0.00, 21505.75, 12074.32, 8841.57, -10556.62, 4506.65, 25194.51, 0.00, 0.000, 0.000, 0.000, 13:27:09.753
209, 0.00, 21497.26, 12064.44, 8915.98, -10807.16, 4493.06, 25199.45, 0.00, 0.000, 0.000, 0.000, 13:27:09.753
210, 0.00, 21491.36, 12056.80, 9050.15, -10891.74, 4482.49, 25213.39, 0.00, 0.000, 0.000, 0.000, 13:27:09.753
211, 0.00, 21497.82, 12062.25, 9064.59, -10650.85, 4497.08, 25219.72, 0.00, 0.000, 0.000, 0.000, 13:27:09.753
212, 0.00, 21506.00, 12070.05, 8925.90, -10474.23, 4506.69, 25206.08, 0.00, 0.000, 0.000, 0.000, 13:27:09.753
213, 0.00, 21506.04, 12071.77, 8835.73, -10564.71, 4505.33, 25193.39, 0.00, 0.000, 0.000, 0.000, 13:27:09.754
214, 0.00, 21500.88, 12070.12, 8912.80, -10813.19, 4497.93, 25204.29, 0.00, 0.000, 0.000, 0.000, 13:27:09.754
215, 0.00, 21493.06, 12058.41, 9052.86, -10893.99, 4489.77, 25218.09, 0.00, 0.000, 0.000, 0.000, 13:27:09.754
216, 0.00, 21496.05, 12058.50, 9067.68, -10652.91, 4488.43, 25221.93, 0.00, 0.000, 0.000, 0.000, 13:27:09.754
217, 0.00, 21507.76, 12071.19, 8927.93, -10475.10, 4508.41, 25208.50, 0.00, 0.026, -0.042, 0.994, 13:27:09.754
218, 0.00, 21509.73, 12072.91, 8840.32, -10554.65, 4503.85, 25196.29, 0.00, 0.000, 0.000, 0.000, 13:27:09.754
219, 0.00, 21501.44, 12064.11, 8907.35, -10811.00, 4490.91, 25200.94, 0.00, 0.000, 0.000, 0.000, 13:27:09.754
220, 0.00, 21493.91, 12054.21, 9045.55, -10900.74, 4481.90, 25216.52, 0.00, 0.000, 0.000, 0.000, 13:27:09.754
221, 0.00, 21499.76, 12063.86, 9068.86, -10657.60, 4492.32, 25221.24, 0.00, 0.000, 0.000, 0.000, 13:27:09.754
222, 0.00, 21507.76, 12073.61, 8932.52, -10473.67, 4507.14, 25207.65, 0.00, 0.000, 0.000, 0.000, 13:27:09.755
223, 0.00, 21511.72, 12075.17, 8839.62, -10555.59, 4507.92, 25196.92, 0.00, 0.000, 0.000, 0.000, 13:27:09.755
224, 0.00, 21502.87, 12067.68, 8909.32, -10804.86, 4496.17, 25202.17, 0.00, 0.000, 0.000, 0.000, 13:27:09.755
225, 0.00, 21497.19, 12060.35, 9048.08, -10895.11, 4489.77, 25219.38, 0.00, 0.000, 0.000, 0.000, 13:27:09.755
226, 0.00, 21498.76, 12063.06, 9068.86, -10661.16, 4495.00, 25222.06, 0.00, 0.000, 0.000, 0.000, 13:27:09.756
227, 0.00, 21505.13, 12065.31, 8928.27, -10484.26, 4498.11, 25208.01, 0.00, 0.038, -0.040, 0.996, 13:27:09.756
228, 0.00, 21509.60, 12068.18, 8836.23, -10558.94, 4503.70, 25196.88, 0.00, 0.000, 0.000, 0.000, 13:27:09.756
229, 0.00, 21502.96, 12068.02, 8904.73, -10811.20, 4497.13, 25201.52, 0.00, 0.000, 0.000, 0.000, 13:27:09.756
230, 0.00, 21493.73, 12055.77, 9045.19, -10906.35, 4487.13, 25213.86, 0.00, 0.000, 0.000, 0.000, 13:27:09.756
231, 0.00, 21496.77, 12055.95, 9071.57, -10664.40, 4492.57, 25219.34, 0.00, 0.000, 0.000, 0.000, 13:27:09.756
232, 0.00, 21504.81, 12065.63, 8934.06, -10479.62, 4499.47, 25205.68, 0.00, 0.000, 0.000, 0.000, 13:27:09.756
233, 0.00, 21505.95, 12068.78, 8838.82, -10551.12, 4497.57, 25193.25, 0.00, 0.000, 0.000, 0.000, 13:27:09.756
234, 0.00, 21500.46, 12063.95, 8901.09, -10809.91, 4490.22, 25201.61, 0.00, 0.000, 0.000, 0.000, 13:27:09.756
235, 0.00, 21490.89, 12057.47, 9039.22, -10913.31, 4479.69, 25214.76, 0.00, 0.000, 0.000, 0.000, 13:27:09.756
236, 0.00, 21494.29, 12057.38, 9067.90, -10677.18, 4494.53, 25219.12, 0.00, 0.000, 0.000, 0.000, 13:27:09.757
237, 0.00, 21502.56, 12065.29, 8935.76, -10483.15, 4502.00, 25207.51, 0.00, 0.032, -0.040, 0.998, 13:27:09.757
238, 0.00, 21505.75, 12065.87, 8837.72, -10548.93, 4502.18, 25194.84, 0.00, 0.000, 0.000, 0.000, 13:27:09.757
239, 0.00, 21500.01, 12062.74, 8898.92, -10803.47, 4492.39, 25200.90, 0.00, 0.000, 0.000, 0.000, 13:27:09.757
240, 0.00, 21490.08, 12055.23, 9039.85, -10908.72, 4483.20, 25212.63, 0.00, 0.000, 0.000, 0.000, 13:27:09.757
241, 0.00, 21493.30, 12054.41, 9070.02, -10675.39, 4489.71, 25216.43, 0.00, 0.000, 0.000, 0.000, 13:27:09.758
242, 0.00, 21503.03, 12063.55, 8935.24, -10483.82, 4499.99, 25206.04, 0.00, 0.000, 0.000, 0.000, 13:27:09.758
243, 0.00, 21505.51, 12065.38, 8834.10, -10547.68, 4498.94, 25193.83, 0.00, 0.000, 0.000, 0.000, 13:27:09.758
244, 0.00, 21499.61, 12060.96, 8896.64, -10799.89, 4492.57, 25200.09, 0.00, 0.000, 0.000, 0.000, 13:27:09.758
245, 0.00, 21493.28, 12056.33, 9040.41, -10911.81, 4485.01, 25215.31, 0.00, 0.000, 0.000, 0.000, 13:27:09.758
246, 0.00, 21494.53, 12057.98, 9072.75, -10685.52, 4492.21, 25218.04, 0.00, 0.000, 0.000, 0.000, 13:27:09.758
247, 0.00, 21503.43, 12065.72, 8941.79, -10489.09, 4504.90, 25204.56, 0.00, 0.032, -0.038, 0.994, 13:27:09.758
248, 0.00, 21506.38, 12069.27, 8842.19, -10547.97, 4504.35, 25195.18, 0.00, 0.000, 0.000, 0.000, 13:27:09.758
249, 0.00, 21497.71, 12059.06, 8896.64, -10802.91, 4487.25, 25196.43, 0.00, 0.000, 0.000, 0.000, 13:27:09.758
250, 0.00, 21490.51, 12054.99, 9040.52, -10913.04, 4479.13, 25212.32, 0.00, 0.000, 0.000, 0.000, 13:27:09.758
251, 0.00, 21492.14, 12058.36, 9078.12, -10677.99, 4493.13, 25218.29, 0.00, 0.000, 0.000, 0.000, 13:27:09.758
252, 0.00, 21503.79, 12065.09, 8942.46, -10483.06, 4501.22, 25205.48, 0.00, 0.000, 0.000, 0.000, 13:27:09.758
253, 0.00, 21504.46, 12067.08, 8842.26, -10539.79, 4498.94, 25192.14, 0.00, 0.000, 0.000, 0.000, 13:27:09.758
254, 0.00, 21502.24, 12063.77, 8898.30, -10794.17, 4491.43, 25200.41, 0.00, 0.000, 0.000, 0.000, 13:27:09.759
255, 0.00, 21495.36, 12061.00, 9039.54, -10914.47, 4488.14, 25216.37, 0.00, 0.000, 0.000, 0.000, 13:27:09.759
0, 0.00, 21494.46, 12055.30, 9071.81, -10691.20, 4485.46, 25219.32, 0.00, 0.000, 0.000, 0.000, 13:27:09.759
1, 0.00, 21508.05, 12066.32, 8941.57, -10493.81, 4494.15, 25210.62, 0.00, 0.030, -0.034, 0.998, 13:27:09.759
2, 0.00, 21506.47, 12067.95, 8843.22, -10538.65, 4508.59, 25195.18, 0.00, 0.000, 0.000, 0.000, 13:27:09.759
3, 0.00, 21503.56, 12065.87, 8898.18, -10789.23, 4498.69, 25203.87, 0.00, 0.000, 0.000, 0.000, 13:27:09.759
4, 0.00, 21495.16, 12056.96, 9039.00, -10910.98, 4489.33, 25217.01, 0.00, 0.000, 0.000, 0.000, 13:27:09.759
5, 0.00, 21492.86, 12051.72, 9073.09, -10694.71, 4490.87, 25218.27, 0.00, 0.000, 0.000, 0.000, 13:27:09.759
6, 0.00, 21496.46, 12052.87, 8936.58, -10499.89, 4496.70, 25201.70, 0.00, 0.000, 0.000, 0.000, 13:27:09.759
7, 0.00, 21508.39, 12069.67, 8844.18, -10537.44, 4504.46, 25194.86, 0.00, 0.000, 0.000, 0.000, 13:27:09.759
8, 0.00, 21502.89, 12063.77, 8902.59, -10772.00, 4494.40, 25201.97, 0.00, 0.000, 0.000, 0.000, 13:27:09.759
9, 0.00, 21493.57, 12056.98, 9038.22, -10902.67, 4483.07, 25216.30, 0.00, 0.000, 0.000, 0.000, 13:27:09.759
10, 0.00, 21495.69, 12057.38, 9079.79, -10688.20, 4490.80, 25220.21, 0.00, 0.000, 0.000, 0.000, 13:27:09.759
11, 0.00, 21504.46, 12066.79, 8951.85, -10486.59, 4503.99, 25207.87, 0.00, 0.034, -0.032, 0.992, 13:27:09.759
12, 0.00, 21503.76, 12065.49, 8842.08, -10536.30, 4496.32, 25192.29, 0.00, 0.000, 0.000, 0.000, 13:27:09.760
13, 0.00, 21501.17, 12060.93, 8895.28, -10781.27, 4490.33, 25200.67, 0.00, 0.000, 0.000, 0.000, 13:27:09.760
14, 0.00, 21495.11, 12052.33, 9035.33, -10905.66, 4487.81, 25216.14, 0.00, 0.000, 0.000, 0.000, 13:27:09.760
15, 0.00, 21499.61, 12056.04, 9077.92, -10693.05, 4484.63, 25223.92, 0.00, 0.000, 0.000, 0.000, 13:27:09.760
16, 0.00, 21504.97, 12064.42, 8949.39, -10494.26, 4505.84, 25208.36, 0.00, 0.000, 0.000, 0.000, 13:27:09.760
17, 0.00, 21507.16, 12066.77, 8845.97, -10532.86, 4502.56, 25192.99, 0.00, 0.000, 0.000, 0.000, 13:27:09.760
18, 0.00, 21502.58, 12061.36, 8896.55, -10773.56, 4493.13, 25199.89, 0.00, 0.000, 0.000, 0.000, 13:27:09.760
19, 0.00, 21492.95, 12051.10, 9035.40, -10903.36, 4484.14, 25214.49, 0.00, 0.000, 0.000, 0.000, 13:27:09.760
20, 0.00, 21496.19, 12054.00, 9079.26, -10693.66, 4490.11, 25221.17, 0.00, 0.000, 0.000, 0.000, 13:27:09.760
21, 0.00, 21501.57, 12056.15, 8945.82, -10493.45, 4501.55, 25206.51, 0.00, 0.032, -0.032, 0.994, 13:27:09.760
22, 0.00, 21509.91, 12064.00, 8836.38, -10536.17, 4501.48, 25197.54, 0.00, 0.000, 0.000, 0.000, 13:27:09.760
23, 0.00, 21506.71, 12068.91, 8893.71, -10775.15, 4502.67, 25206.58, 0.00, 0.000, 0.000, 0.000, 13:27:09.760
24, 0.00, 21494.02, 12055.57, 9033.79, -10909.91, 4491.38, 25216.90, 0.00, 0.000, 0.000, 0.000, 13:27:09.760
25, 0.00, 21491.51, 12048.10, 9077.24, -10702.01, 4488.23, 25218.11, 0.00, 0.000, 0.000, 0.000, 13:27:09.761
26, 0.00, 21503.23, 12063.71, 8948.92, -10503.29, 4501.06, 25209.88, 0.00, 0.000, 0.000, 0.000, 13:27:09.761
27, 0.00, 21503.34, 12066.88, 8844.25, -10534.26, 4498.51, 25192.31, 0.00, 0.000, 0.000, 0.000, 13:27:09.761
28, 0.00, 21500.79, 12066.46, 8897.07, -10764.00, 4491.87, 25203.02, 0.00, 0.000, 0.000, 0.000, 13:27:09.761
29, 0.00, 21492.86, 12056.08, 9034.06, -10904.01, 4485.46, 25216.70, 0.00, 0.000, 0.000, 0.000, 13:27:09.761
30, 0.00, 21491.36, 12051.86, 9079.48, -10702.84, 4496.48, 25220.03, 0.00, 0.000, 0.000, 0.000, 13:27:09.763
31, 0.00, 21507.50, 12064.62, 8949.46, -10505.88, 4507.34, 25213.95, 0.00, 0.036, -0.036, 1.000, 13:27:09.763
32, 0.00, 21510.69, 12069.29, 8845.23, -10536.10, 4500.93, 25199.09, 0.00, 0.000, 0.000, 0.000, 13:27:09.763
33, 0.00, 21500.90, 12057.51, 8889.91, -10770.68, 4482.80, 25198.66, 0.00, 0.000, 0.000, 0.000, 13:27:09.764
34, 0.00, 21496.48, 12058.39, 9031.07, -10912.03, 4494.85, 25217.15, 0.00, 0.000, 0.000, 0.000, 13:27:09.764
35, 0.00, 21496.19, 12057.94, 9087.44, -10705.73, 4496.25, 25223.27, 0.00, 0.000, 0.000, 0.000, 13:27:09.764
36, 0.00, 21502.56, 12059.59, 8956.17, -10502.95, 4499.88, 25208.41, 0.00, 0.000, 0.000, 0.000, 13:27:09.764
37, 0.00, 21504.59, 12067.50, 8845.57, -10529.26, 4502.65, 25194.57, 0.00, 0.000, 0.000, 0.000, 13:27:09.764
38, 0.00, 21497.42, 12061.49, 8891.10, -10760.53, 4495.63, 25195.51, 0.00, 0.000, 0.000, 0.000, 13:27:09.764
39, 0.00, 21491.74, 12060.80, 9032.65, -10905.95, 4491.56, 25211.81, 0.00, 0.000, 0.000, 0.000, 13:27:09.764
40, 0.00, 21493.75, 12054.45, 9086.05, -10710.53, 4495.09, 25221.55, 0.00, 0.000, 0.000, 0.000, 13:27:09.764
41, 0.00, 21500.99, 12060.62, 8959.70, -10502.91, 4503.09, 25209.62, 0.00, 0.036, -0.034, 1.006, 13:27:09.764
42, 0.00, 21507.29, 12067.17, 8847.69, -10521.84, 4502.51, 25197.41, 0.00, 0.000, 0.000, 0.000, 13:27:09.764
43, 0.00, 21503.16, 12060.80, 8883.90, -10763.73, 4490.26, 25197.75, 0.00, 0.000, 0.000, 0.000, 13:27:09.765
44, 0.00, 21493.28, 12051.84, 9024.58, -10907.43, 4480.21, 25211.07, 0.00, 0.000, 0.000, 0.000, 13:27:09.765
45, 0.00, 21492.27, 12052.57, 9079.52, -10710.33, 4488.23, 25217.75, 0.00, 0.000, 0.000, 0.000, 13:27:09.765
46, 0.00, 21499.16, 12060.35, 8956.12, -10501.68, 4494.29, 25204.56, 0.00, 0.000, 0.000, 0.000, 13:27:09.765
47, 0.00, 21499.79, 12060.93, 8842.22, -10524.34, 4491.94, 25188.07, 0.00, 0.000, 0.000, 0.000, 13:27:09.765
48, 0.00, 21494.76, 12055.41, 8880.82, -10760.26, 4493.48, 25190.33, 0.00, 0.000, 0.000, 0.000, 13:27:09.765
49, 0.00, 21491.07, 12056.51, 9023.53, -10912.59, 4486.29, 25209.71, 0.00, 0.000, 0.000, 0.000, 13:27:09.765
50, 0.00, 21493.73, 12057.60, 9084.15, -10717.37, 4492.95, 25218.64, 0.00, 0.000, 0.000, 0.000, 13:27:09.765
51, 0.00, 21502.40, 12062.50, 8954.85, -10514.60, 4498.09, 25209.44, 0.00, 0.032, -0.034, 1.004, 13:27:09.765
52, 0.00, 21505.62, 12066.41, 8841.21, -10530.87, 4498.15, 25195.31, 0.00, 0.000, 0.000, 0.000, 13:27:09.765
53, 0.00, 21499.20, 12059.91, 8880.10, -10766.37, 4486.22, 25196.56, 0.00, 0.000, 0.000, 0.000, 13:27:09.765
54, 0.00, 21491.27, 12050.38, 9020.09, -10918.29, 4484.34, 25210.60, 0.00, 0.000, 0.000, 0.000, 13:27:09.765
55, 0.00, 21493.32, 12050.43, 9084.06, -10724.28, 4492.72, 25218.44, 0.00, 0.000, 0.000, 0.000, 13:27:09.765
56, 0.00, 21502.38, 12061.63, 8966.36, -10508.90, 4500.05, 25209.71, 0.00, 0.000, 0.000, 0.000, 13:27:09.765
57, 0.00, 21500.75, 12057.33, 8846.75, -10522.17, 4496.17, 25191.55, 0.00, 0.000, 0.000, 0.000, 13:27:09.765
58, 0.00, 21495.16, 12050.85, 8878.02, -10752.57, 4487.96, 25190.77, 0.00, 0.000, 0.000, 0.000, 13:27:09.765
