%OpenBCI Raw EEG Data
%
%Sample Rate = 250.0 Hz
%First Column = SampleIndex
%Last Column = Timestamp 
%Other Columns = EEG data in microvolts followed by Accel Data (in G) interleaved with Aux Data
0, 0.00, 0.00, 0.00, 0.00, 0.00, 0.00, 0.00, 0.00, 0.026, -0.026, 1.004, 13:23:07.818
1, 0.00, 23396.04, 15916.65, 5043.43, -9099.33, 7126.32, 27396.51, 0.00, 0.000, 0.000, 0.000, 13:23:07.818
2, 0.00, 23377.98, 15904.00, 5147.03, -9054.74, 7108.50, 27406.05, 0.00, 0.000, 0.000, 0.000, 13:23:07.818
3, 0.00, 23389.45, 15923.09, 5150.98, -8723.64, 7126.36, 27411.15, 0.00, 0.000, 0.000, 0.000, 13:23:07.818
4, 0.00, 23405.05, 15942.20, 5048.45, -8601.93, 7138.34, 27402.08, 0.00, 0.000, 0.000, 0.000, 13:23:07.819
5, 0.00, 23402.81, 15935.41, 4987.23, -8816.73, 7136.67, 27387.66, 0.00, 0.000, 0.000, 0.000, 13:23:07.819
6, 0.00, 23379.01, 15910.28, 5040.97, -9101.96, 7117.38, 27385.85, 0.00, 0.000, 0.000, 0.000, 13:23:07.819
7, 0.00, 23373.55, 15897.05, 5146.33, -9049.30, 7113.29, 27405.88, 0.00, 0.000, 0.000, 0.000, 13:23:07.819
8, 0.00, 23389.36, 15916.41, 5152.21, -8721.18, 7131.59, 27418.08, 0.00, 0.032, -0.034, 0.998, 13:23:07.819
9, 0.00, 23407.84, 15922.47, 5046.87, -8598.11, 7138.32, 27401.49, 0.00, 0.000, 0.000, 0.000, 13:23:07.820
10, 0.00, 23407.10, 15921.28, 4984.73, -8807.59, 7138.95, 27390.68, 0.00, 0.000, 0.000, 0.000, 13:23:07.820
11, 0.00, 23394.88, 15915.18, 5042.98, -9096.31, 7127.55, 27394.65, 0.00, 0.000, 0.000, 0.000, 13:23:07.820
12, 0.00, 23388.71, 15919.87, 5157.75, -9041.97, 7124.73, 27416.25, 0.00, 0.000, 0.000, 0.000, 13:23:07.820
13, 0.00, 23389.40, 15921.37, 5157.58, -8718.83, 7130.63, 27414.55, 0.00, 0.000, 0.000, 0.000, 13:23:07.820
14, 0.00, 23403.91, 15929.13, 5051.18, -8597.64, 7139.17, 27401.88, 0.00, 0.000, 0.000, 0.000, 13:23:07.821
15, 0.00, 23400.29, 15933.75, 4987.37, -8811.77, 7134.16, 27383.28, 0.00, 0.000, 0.000, 0.000, 13:23:07.821
16, 0.00, 23389.15, 15929.84, 5046.89, -9094.59, 7121.18, 27390.01, 0.00, 0.000, 0.000, 0.000, 13:23:07.821
17, 0.00, 23381.51, 15906.53, 5152.99, -9055.56, 7113.46, 27406.88, 0.00, 0.000, 0.000, 0.000, 13:23:07.821
18, 0.00, 23380.24, 15909.21, 5158.02, -8730.23, 7125.76, 27408.85, 0.00, 0.030, -0.030, 0.996, 13:23:07.821
19, 0.00, 23397.58, 15924.08, 5056.25, -8601.89, 7138.23, 27396.49, 0.00, 0.000, 0.000, 0.000, 13:23:07.822
20, 0.00, 23404.42, 15918.55, 4990.21, -8812.64, 7134.34, 27385.27, 0.00, 0.000, 0.000, 0.000, 13:23:07.822
21, 0.00, 23400.29, 15924.10, 5051.07, -9100.83, 7126.59, 27398.52, 0.00, 0.000, 0.000, 0.000, 13:23:07.822
22, 0.00, 23394.92, 15918.98, 5166.34, -9053.64, 7129.13, 27420.27, 0.00, 0.000, 0.000, 0.000, 13:23:07.822
23, 0.00, 23391.61, 15913.84, 5168.64, -8729.16, 7128.35, 27416.49, 0.00, 0.000, 0.000, 0.000, 13:23:07.823
24, 0.00, 23394.47, 15915.09, 5058.58, -8607.86, 7130.21, 27393.76, 0.00, 0.000, 0.000, 0.000, 13:23:07.823
25, 0.00, 23393.96, 15919.22, 4995.26, -8818.12, 7128.15, 27379.75, 0.00, 0.000, 0.000, 0.000, 13:23:07.823
26, 0.00, 23401.70, 15920.43, 5058.02, -9101.67, 7126.94, 27397.40, 0.00, 0.000, 0.000, 0.000, 13:23:07.823
27, 0.00, 23390.63, 15911.09, 5170.58, -9052.90, 7121.62, 27414.82, 0.00, 0.000, 0.000, 0.000, 13:23:07.823
28, 0.00, 23396.53, 15911.02, 5169.15, -8736.40, 7129.07, 27419.46, 0.00, 0.036, -0.030, 0.990, 13:23:07.825
29, 0.00, 23400.26, 15919.20, 5066.67, -8605.44, 7138.63, 27400.11, 0.00, 0.000, 0.000, 0.000, 13:23:07.825
30, 0.00, 23398.72, 15923.34, 5005.36, -8803.08, 7133.07, 27384.66, 0.00, 0.000, 0.000, 0.000, 13:23:07.825
31, 0.00, 23395.10, 15924.25, 5062.13, -9091.13, 7126.03, 27397.40, 0.00, 0.000, 0.000, 0.000, 13:23:07.825
32, 0.00, 23393.54, 15910.71, 5171.99, -9056.48, 7124.15, 27416.16, 0.00, 0.000, 0.000, 0.000, 13:23:07.826
33, 0.00, 23396.75, 15914.96, 5180.13, -8727.39, 7133.34, 27419.53, 0.00, 0.000, 0.000, 0.000, 13:23:07.826
34, 0.00, 23401.31, 15927.90, 5078.74, -8592.37, 7141.31, 27399.62, 0.00, 0.000, 0.000, 0.000, 13:23:07.826
35, 0.00, 23400.67, 15922.29, 5010.95, -8795.21, 7138.43, 27383.12, 0.00, 0.000, 0.000, 0.000, 13:23:07.826
36, 0.00, 23392.96, 15917.55, 5064.37, -9089.81, 7130.88, 27391.59, 0.00, 0.000, 0.000, 0.000, 13:23:07.826
37, 0.00, 23376.86, 15894.39, 5166.40, -9063.90, 7117.38, 27403.69, 0.00, 0.000, 0.000, 0.000, 13:23:07.827
38, 0.00, 23403.24, 15925.17, 5183.41, -8731.51, 7137.98, 27424.79, 0.00, 0.036, -0.032, 0.992, 13:23:07.827
39, 0.00, 23405.25, 15929.48, 5083.75, -8593.26, 7146.70, 27401.45, 0.00, 0.000, 0.000, 0.000, 13:23:07.827
40, 0.00, 23401.98, 15931.94, 5017.54, -8798.47, 7143.46, 27386.45, 0.00, 0.000, 0.000, 0.000, 13:23:07.827
41, 0.00, 23386.09, 15919.27, 5070.11, -9095.55, 7126.83, 27389.13, 0.00, 0.000, 0.000, 0.000, 13:23:07.827
42, 0.00, 23389.15, 15915.74, 5182.45, -9062.69, 7124.93, 27413.43, 0.00, 0.000, 0.000, 0.000, 13:23:07.828
43, 0.00, 23398.21, 15919.18, 5190.21, -8740.58, 7130.56, 27417.79, 0.00, 0.000, 0.000, 0.000, 13:23:07.828
44, 0.00, 23400.40, 15926.44, 5086.92, -8602.56, 7136.78, 27398.10, 0.00, 0.000, 0.000, 0.000, 13:23:07.828
45, 0.00, 23389.74, 15921.04, 5014.75, -8802.94, 7127.75, 27375.77, 0.00, 0.000, 0.000, 0.000, 13:23:07.828
46, 0.00, 23388.78, 15909.28, 5065.71, -9094.05, 7120.55, 27387.84, 0.00, 0.000, 0.000, 0.000, 13:23:07.828
47, 0.00, 23394.47, 15924.46, 5184.69, -9051.70, 7128.08, 27419.69, 0.00, 0.028, -0.032, 0.994, 13:23:07.828
48, 0.00, 23394.88, 15916.63, 5187.68, -8733.21, 7128.44, 27418.53, 0.00, 0.000, 0.000, 0.000, 13:23:07.828
49, 0.00, 23396.42, 15916.92, 5080.51, -8598.29, 7131.46, 27394.83, 0.00, 0.000, 0.000, 0.000, 13:23:07.830
50, 0.00, 23396.15, 15919.31, 5012.18, -8792.59, 7129.04, 27379.59, 0.00, 0.000, 0.000, 0.000, 13:23:07.830
51, 0.00, 23396.04, 15921.13, 5065.80, -9085.56, 7126.52, 27395.71, 0.00, 0.000, 0.000, 0.000, 13:23:07.830
52, 0.00, 23395.28, 15923.56, 5181.42, -9059.81, 7130.59, 27421.03, 0.00, 0.000, 0.000, 0.000, 13:23:07.830
53, 0.00, 23387.97, 15920.77, 5191.21, -8738.19, 7130.83, 27415.98, 0.00, 0.000, 0.000, 0.000, 13:23:07.830
54, 0.00, 23398.39, 15925.82, 5089.29, -8597.08, 7137.47, 27396.42, 0.00, 0.000, 0.000, 0.000, 13:23:07.830
55, 0.00, 23402.81, 15935.38, 5022.26, -8790.96, 7139.82, 27386.74, 0.00, 0.000, 0.000, 0.000, 13:23:07.831
56, 0.00, 23396.64, 15920.79, 5072.06, -9084.06, 7128.26, 27393.65, 0.00, 0.000, 0.000, 0.000, 13:23:07.831
57, 0.00, 23385.58, 15914.26, 5182.61, -9053.37, 7123.97, 27410.52, 0.00, 0.028, -0.034, 0.992, 13:23:07.831
58, 0.00, 23390.18, 15919.81, 5190.92, -8729.96, 7131.15, 27415.04, 0.00, 0.000, 0.000, 0.000, 13:23:07.831
59, 0.00, 23401.07, 15922.98, 5084.87, -8592.32, 7139.01, 27399.06, 0.00, 0.000, 0.000, 0.000, 13:23:07.832
60, 0.00, 23402.23, 15927.41, 5020.27, -8778.16, 7141.07, 27385.31, 0.00, 0.000, 0.000, 0.000, 13:23:07.833
61, 0.00, 23395.77, 15923.25, 5069.89, -9075.34, 7132.80, 27393.76, 0.00, 0.000, 0.000, 0.000, 13:23:07.833
62, 0.00, 23385.45, 15913.19, 5180.08, -9057.51, 7123.79, 27412.09, 0.00, 0.000, 0.000, 0.000, 13:23:07.833
63, 0.00, 23390.83, 15919.45, 5190.70, -8738.64, 7129.00, 27416.18, 0.00, 0.000, 0.000, 0.000, 13:23:07.833
64, 0.00, 23394.30, 15924.25, 5087.79, -8597.62, 7132.91, 27393.36, 0.00, 0.000, 0.000, 0.000, 13:23:07.833
65, 0.00, 23393.16, 15915.92, 5015.35, -8791.43, 7124.73, 27375.86, 0.00, 0.000, 0.000, 0.000, 13:23:07.833
66, 0.00, 23401.96, 15934.29, 5077.00, -9075.86, 7129.58, 27400.31, 0.00, 0.000, 0.000, 0.000, 13:23:07.833
67, 0.00, 23393.58, 15924.59, 5187.91, -9056.50, 7125.36, 27417.79, 0.00, 0.032, -0.036, 0.992, 13:23:07.833
68, 0.00, 23393.96, 15922.69, 5196.09, -8738.59, 7126.09, 27415.84, 0.00, 0.000, 0.000, 0.000, 13:23:07.833
69, 0.00, 23390.52, 15918.89, 5089.69, -8594.89, 7126.36, 27392.42, 0.00, 0.000, 0.000, 0.000, 13:23:07.834
70, 0.00, 23404.49, 15930.04, 5021.14, -8785.17, 7130.32, 27384.75, 0.00, 0.000, 0.000, 0.000, 13:23:07.834
71, 0.00, 23405.83, 15929.17, 5073.82, -9085.27, 7124.10, 27399.53, 0.00, 0.000, 0.000, 0.000, 13:23:07.835
72, 0.00, 23396.51, 15916.83, 5184.00, -9070.07, 7118.87, 27420.45, 0.00, 0.000, 0.000, 0.000, 13:23:07.835
73, 0.00, 23395.10, 15914.96, 5194.90, -8748.18, 7123.50, 27416.43, 0.00, 0.000, 0.000, 0.000, 13:23:07.835
74, 0.00, 23398.59, 15926.40, 5094.74, -8598.29, 7132.35, 27394.65, 0.00, 0.000, 0.000, 0.000, 13:23:07.835
75, 0.00, 23404.71, 15924.19, 5023.69, -8785.71, 7130.47, 27384.82, 0.00, 0.000, 0.000, 0.000, 13:23:07.835
76, 0.00, 23399.15, 15923.07, 5074.52, -9081.20, 7125.96, 27395.37, 0.00, 0.000, 0.000, 0.000, 13:23:07.837
77, 0.00, 23383.48, 15913.97, 5184.60, -9071.97, 7118.27, 27408.96, 0.00, 0.030, -0.036, 0.994, 13:23:07.837
78, 0.00, 23387.52, 15906.42, 5196.11, -8751.00, 7118.67, 27411.02, 0.00, 0.000, 0.000, 0.000, 13:23:07.838
79, 0.00, 23412.58, 15942.34, 5103.33, -8594.00, 7143.93, 27409.61, 0.00, 0.000, 0.000, 0.000, 13:23:07.838
80, 0.00, 23405.54, 15934.58, 5029.12, -8785.38, 7134.32, 27386.05, 0.00, 0.000, 0.000, 0.000, 13:23:07.838
81, 0.00, 23393.45, 15919.56, 5073.26, -9085.89, 7119.54, 27389.51, 0.00, 0.000, 0.000, 0.000, 13:23:07.839
82, 0.00, 23386.00, 15915.11, 5185.98, -9073.04, 7116.08, 27410.39, 0.00, 0.000, 0.000, 0.000, 13:23:07.839
83, 0.00, 23397.65, 15921.84, 5205.14, -8746.68, 7123.52, 27419.51, 0.00, 0.000, 0.000, 0.000, 13:23:07.839
84, 0.00, 23407.17, 15933.17, 5106.32, -8593.17, 7136.20, 27404.89, 0.00, 0.000, 0.000, 0.000, 13:23:07.839
85, 0.00, 23406.41, 15932.93, 5033.90, -8778.42, 7130.97, 27387.46, 0.00, 0.000, 0.000, 0.000, 13:23:07.839
86, 0.00, 23398.52, 15921.77, 5078.34, -9082.41, 7116.66, 27395.84, 0.00, 0.000, 0.000, 0.000, 13:23:07.839
87, 0.00, 23393.51, 15916.21, 5188.17, -9077.54, 7115.66, 27416.49, 0.00, 0.030, -0.030, 0.988, 13:23:07.839
88, 0.00, 23398.12, 15922.38, 5206.93, -8752.03, 7126.59, 27423.89, 0.00, 0.000, 0.000, 0.000, 13:23:07.839
89, 0.00, 23403.24, 15930.04, 5107.62, -8595.07, 7127.21, 27402.39, 0.00, 0.000, 0.000, 0.000, 13:23:07.839
90, 0.00, 23404.47, 15934.85, 5033.86, -8782.09, 7116.64, 27387.70, 0.00, 0.000, 0.000, 0.000, 13:23:07.839
91, 0.00, 23401.87, 15936.44, 5081.87, -9083.12, 7134.81, 27398.72, 0.00, 0.000, 0.000, 0.000, 13:23:07.839
92, 0.00, 23393.38, 15931.47, 5194.68, -9077.80, 7125.20, 27418.19, 0.00, 0.000, 0.000, 0.000, 13:23:07.840
93, 0.00, 23393.13, 15927.18, 5210.37, -8752.70, 7125.45, 27420.58, 0.00, 0.000, 0.000, 0.000, 13:23:07.840
94, 0.00, 23401.96, 15933.69, 5112.04, -8594.80, 7128.89, 27401.25, 0.00, 0.000, 0.000, 0.000, 13:23:07.840
95, 0.00, 23404.71, 15939.16, 5039.67, -8778.78, 7130.56, 27388.02, 0.00, 0.000, 0.000, 0.000, 13:23:07.840
96, 0.00, 23389.42, 15927.56, 5083.70, -9077.51, 7126.76, 27389.09, 0.00, 0.000, 0.000, 0.000, 13:23:07.840
97, 0.00, 23392.29, 15926.87, 5196.22, -9071.19, 7128.98, 27417.63, 0.00, 0.032, -0.030, 0.996, 13:23:07.840
98, 0.00, 23394.43, 15926.60, 5216.41, -8744.36, 7132.31, 27419.04, 0.00, 0.000, 0.000, 0.000, 13:23:07.841
99, 0.00, 23399.46, 15934.42, 5116.00, -8586.13, 7122.03, 27400.31, 0.00, 0.000, 0.000, 0.000, 13:23:07.841
100, 0.00, 23408.15, 15941.02, 5044.74, -8764.48, 7136.24, 27388.89, 0.00, 0.000, 0.000, 0.000, 13:23:07.841
101, 0.00, 23389.98, 15925.37, 5083.70, -9075.34, 7125.91, 27388.29, 0.00, 0.000, 0.000, 0.000, 13:23:07.841
102, 0.00, 23383.57, 15918.78, 5196.02, -9076.93, 7107.77, 27408.83, 0.00, 0.000, 0.000, 0.000, 13:23:07.841
103, 0.00, 23395.62, 15931.43, 5220.36, -8753.10, 7129.49, 27421.19, 0.00, 0.000, 0.000, 0.000, 13:23:07.841
104, 0.00, 23395.41, 15933.53, 5117.90, -8595.03, 7138.57, 27392.08, 0.00, 0.000, 0.000, 0.000, 13:23:07.841
105, 0.00, 23389.49, 15936.44, 5043.47, -8778.13, 7121.33, 27370.47, 0.00, 0.000, 0.000, 0.000, 13:23:07.841
106, 0.00, 23378.34, 15936.91, 5094.19, -9073.15, 7119.59, 27374.63, 0.00, 0.000, 0.000, 0.000, 13:23:07.841
107, 0.00, 23369.93, 15926.87, 5205.70, -9072.91, 7127.32, 27391.01, 0.00, 0.032, -0.034, 0.996, 13:23:07.842
108, 0.00, 23364.34, 15926.60, 5218.84, -8761.82, 7111.14, 27387.93, 0.00, 0.000, 0.000, 0.000, 13:23:07.842
109, 0.00, 23368.53, 15932.50, 5116.56, -8602.00, 7127.39, 27363.85, 0.00, 0.000, 0.000, 0.000, 13:23:07.842
110, 0.00, 23364.59, 15936.37, 5043.09, -8776.77, 7133.51, 27341.53, 0.00, 0.000, 0.000, 0.000, 13:23:07.842
111, 0.00, 23350.13, 15930.09, 5089.31, -9077.65, 7118.76, 27344.97, 0.00, 0.000, 0.000, 0.000, 13:23:07.842
112, 0.00, 23340.96, 15923.92, 5203.37, -9080.80, 7117.85, 27361.42, 0.00, 0.000, 0.000, 0.000, 13:23:07.842
113, 0.00, 23336.58, 15926.80, 5224.83, -8755.92, 7131.01, 27358.02, 0.00, 0.000, 0.000, 0.000, 13:23:07.842
114, 0.00, 23334.97, 15929.75, 5122.10, -8597.38, 7133.47, 27334.30, 0.00, 0.000, 0.000, 0.000, 13:23:07.843
115, 0.00, 23335.98, 15937.26, 5048.50, -8776.77, 7130.74, 27320.63, 0.00, 0.000, 0.000, 0.000, 13:23:07.843
116, 0.00, 23326.39, 15928.84, 5092.24, -9078.61, 7123.34, 27322.30, 0.00, 0.000, 0.000, 0.000, 13:23:07.843
117, 0.00, 23315.04, 15920.16, 5203.17, -9086.10, 7118.20, 27338.48, 0.00, 0.034, -0.028, 0.992, 13:23:07.843
118, 0.00, 23316.58, 15922.00, 5223.74, -8768.39, 7123.08, 27338.96, 0.00, 0.000, 0.000, 0.000, 13:23:07.843
119, 0.00, 23317.54, 15920.61, 5121.03, -8607.59, 7121.04, 27315.19, 0.00, 0.000, 0.000, 0.000, 13:23:07.843
120, 0.00, 23327.15, 15931.12, 5050.44, -8779.36, 7125.27, 27306.10, 0.00, 0.000, 0.000, 0.000, 13:23:08.291
121, 0.00, 23328.45, 15944.10, 5105.50, -9064.97, 7135.37, 27315.82, 0.00, 0.000, 0.000, 0.000, 13:23:08.292
122, 0.00, 23319.44, 15931.56, 5214.08, -9070.94, 7124.86, 27336.76, 0.00, 0.000, 0.000, 0.000, 13:23:08.292
123, 0.00, 23322.03, 15928.50, 5231.60, -8756.03, 7112.46, 27342.96, 0.00, 0.000, 0.000, 0.000, 13:23:08.292
124, 0.00, 23329.48, 15929.77, 5129.50, -8595.36, 7122.74, 27322.41, 0.00, 0.000, 0.000, 0.000, 13:23:08.292
125, 0.00, 23341.28, 15946.85, 5057.44, -8760.79, 7145.45, 27319.51, 0.00, 0.000, 0.000, 0.000, 13:23:08.292
126, 0.00, 23337.84, 15935.63, 5099.06, -9068.35, 7130.56, 27333.12, 0.00, 0.000, 0.000, 0.000, 13:23:08.293
127, 0.00, 23330.59, 15920.50, 5208.43, -9080.51, 7114.81, 27349.64, 0.00, 0.038, -0.026, 0.988, 13:23:08.293
128, 0.00, 23339.60, 15925.51, 5229.82, -8758.35, 7119.46, 27357.46, 0.00, 0.000, 0.000, 0.000, 13:23:08.293
129, 0.00, 23345.77, 15928.03, 5124.00, -8600.66, 7108.93, 27341.53, 0.00, 0.000, 0.000, 0.000, 13:23:08.293
130, 0.00, 23356.66, 15943.39, 5052.63, -8770.31, 7139.33, 27335.71, 0.00, 0.000, 0.000, 0.000, 13:23:08.293
131, 0.00, 23353.95, 15936.15, 5098.83, -9068.59, 7122.96, 27346.87, 0.00, 0.000, 0.000, 0.000, 13:23:08.294
132, 0.00, 23346.33, 15928.03, 5207.35, -9081.60, 7113.13, 27368.01, 0.00, 0.000, 0.000, 0.000, 13:23:08.294
133, 0.00, 23348.01, 15928.93, 5226.80, -8765.62, 7115.61, 27376.73, 0.00, 0.000, 0.000, 0.000, 13:23:08.294
134, 0.00, 23359.76, 15935.12, 5127.36, -8598.63, 7111.07, 27360.46, 0.00, 0.000, 0.000, 0.000, 13:23:08.294
135, 0.00, 23362.45, 15941.55, 5054.56, -8768.32, 7125.42, 27346.64, 0.00, 0.000, 0.000, 0.000, 13:23:08.294
136, 0.00, 23364.46, 15942.07, 5101.05, -9068.73, 7126.45, 27360.43, 0.00, 0.000, 0.000, 0.000, 13:23:08.295
137, 0.00, 23358.04, 15932.05, 5210.84, -9085.22, 7124.98, 27379.52, 0.00, 0.032, -0.030, 0.986, 13:23:08.295
138, 0.00, 23367.32, 15933.02, 5233.91, -8765.01, 7127.88, 27389.96, 0.00, 0.000, 0.000, 0.000, 13:23:08.295
139, 0.00, 23376.21, 15938.80, 5134.26, -8594.38, 7135.10, 27375.07, 0.00, 0.000, 0.000, 0.000, 13:23:08.296
140, 0.00, 23381.06, 15947.37, 5058.71, -8764.16, 7136.08, 27364.37, 0.00, 0.000, 0.000, 0.000, 13:23:08.296
141, 0.00, 23376.26, 15938.60, 5102.08, -9063.36, 7123.86, 27371.68, 0.00, 0.000, 0.000, 0.000, 13:23:08.296
142, 0.00, 23373.64, 15932.26, 5210.93, -9078.45, 7119.32, 27395.75, 0.00, 0.000, 0.000, 0.000, 13:23:08.296
143, 0.00, 23378.05, 15938.04, 5235.96, -8761.97, 7120.15, 27405.38, 0.00, 0.000, 0.000, 0.000, 13:23:08.296
144, 0.00, 23380.48, 15939.12, 5135.76, -8590.49, 7135.75, 27384.53, 0.00, 0.000, 0.000, 0.000, 13:23:08.297
145, 0.00, 23386.07, 15943.45, 5057.60, -8760.14, 7130.72, 27370.02, 0.00, 0.000, 0.000, 0.000, 13:23:08.297
146, 0.00, 23384.97, 15942.25, 5104.60, -9056.75, 7123.48, 27383.72, 0.00, 0.000, 0.000, 0.000, 13:23:08.297
147, 0.00, 23376.84, 15935.76, 5214.37, -9075.52, 7122.20, 27404.94, 0.00, 0.034, -0.034, 0.992, 13:23:08.297
148, 0.00, 23381.49, 15935.99, 5236.48, -8761.37, 7124.57, 27411.46, 0.00, 0.000, 0.000, 0.000, 13:23:08.297
149, 0.00, 23388.91, 15938.78, 5137.86, -8593.26, 7129.98, 27393.20, 0.00, 0.000, 0.000, 0.000, 13:23:08.298
150, 0.00, 23397.54, 15954.99, 5064.84, -8758.44, 7114.58, 27386.61, 0.00, 0.000, 0.000, 0.000, 13:23:08.300
151, 0.00, 23383.88, 15942.63, 5106.03, -9058.09, 7113.15, 27383.34, 0.00, 0.000, 0.000, 0.000, 13:23:08.300
152, 0.00, 23380.39, 15932.14, 5214.64, -9078.25, 7132.51, 27404.82, 0.00, 0.000, 0.000, 0.000, 13:23:08.301
153, 0.00, 23386.76, 15945.49, 5242.33, -8764.97, 7134.94, 27417.45, 0.00, 0.000, 0.000, 0.000, 13:23:08.301
154, 0.00, 23394.61, 15952.06, 5144.88, -8592.28, 7143.28, 27399.53, 0.00, 0.000, 0.000, 0.000, 13:23:08.302
155, 0.00, 23399.41, 15957.96, 5067.07, -8758.17, 7140.80, 27386.03, 0.00, 0.000, 0.000, 0.000, 13:23:08.302
156, 0.00, 23391.99, 15948.06, 5107.31, -9062.76, 7119.70, 27391.86, 0.00, 0.000, 0.000, 0.000, 13:23:08.302
157, 0.00, 23380.64, 15936.26, 5218.66, -9080.15, 7123.28, 27408.78, 0.00, 0.032, -0.038, 0.994, 13:23:08.302
158, 0.00, 23379.72, 15935.09, 5242.15, -8766.06, 7124.73, 27412.29, 0.00, 0.000, 0.000, 0.000, 13:23:08.302
159, 0.00, 23399.77, 15951.30, 5149.84, -8586.96, 7137.18, 27404.65, 0.00, 0.000, 0.000, 0.000, 13:23:08.303
160, 0.00, 23402.54, 15957.29, 5075.92, -8749.84, 7134.59, 27390.59, 0.00, 0.000, 0.000, 0.000, 13:23:08.303
161, 0.00, 23395.41, 15948.95, 5116.20, -9051.07, 7120.55, 27395.86, 0.00, 0.000, 0.000, 0.000, 13:23:08.303
162, 0.00, 23388.84, 15938.54, 5222.80, -9078.18, 7120.24, 27418.21, 0.00, 0.000, 0.000, 0.000, 13:23:08.303
163, 0.00, 23389.83, 15938.87, 5247.18, -8760.61, 7126.59, 27421.54, 0.00, 0.000, 0.000, 0.000, 13:23:08.303
164, 0.00, 23401.67, 15953.24, 5147.18, -8595.61, 7135.57, 27407.73, 0.00, 0.000, 0.000, 0.000, 13:23:08.304
165, 0.00, 23406.61, 15959.73, 5072.26, -8761.15, 7128.71, 27393.92, 0.00, 0.000, 0.000, 0.000, 13:23:08.304
166, 0.00, 23397.04, 15949.96, 5112.42, -9063.41, 7118.96, 27393.72, 0.00, 0.000, 0.000, 0.000, 13:23:08.304
167, 0.00, 23386.25, 15938.76, 5221.64, -9090.03, 7124.08, 27412.27, 0.00, 0.032, -0.040, 0.992, 13:23:08.304
168, 0.00, 23392.91, 15947.23, 5252.84, -8765.06, 7127.95, 27422.82, 0.00, 0.000, 0.000, 0.000, 13:23:08.304
169, 0.00, 23403.71, 15959.19, 5155.25, -8591.70, 7135.73, 27408.65, 0.00, 0.000, 0.000, 0.000, 13:23:08.305
170, 0.00, 23405.94, 15962.68, 5077.71, -8754.51, 7136.82, 27393.49, 0.00, 0.000, 0.000, 0.000, 13:23:08.305
171, 0.00, 23396.33, 15950.05, 5118.53, -9049.33, 7122.56, 27396.58, 0.00, 0.000, 0.000, 0.000, 13:23:08.305
172, 0.00, 23388.26, 15936.32, 5224.52, -9081.07, 7118.34, 27413.38, 0.00, 0.000, 0.000, 0.000, 13:23:08.305
173, 0.00, 23394.92, 15949.56, 5255.48, -8766.96, 7130.45, 27427.53, 0.00, 0.000, 0.000, 0.000, 13:23:08.306
174, 0.00, 23406.10, 15961.92, 5160.93, -8592.95, 7137.47, 27411.73, 0.00, 0.000, 0.000, 0.000, 13:23:08.306
175, 0.00, 23409.27, 15964.80, 5085.63, -8752.85, 7139.66, 27396.06, 0.00, 0.000, 0.000, 0.000, 13:23:08.306
176, 0.00, 23398.99, 15952.46, 5125.43, -9049.35, 7122.41, 27398.79, 0.00, 0.000, 0.000, 0.000, 13:23:08.306
177, 0.00, 23385.11, 15939.23, 5229.93, -9089.14, 7109.37, 27413.59, 0.00, 0.036, -0.034, 0.992, 13:23:08.307
178, 0.00, 23393.80, 15947.03, 5260.01, -8776.90, 7128.73, 27421.63, 0.00, 0.000, 0.000, 0.000, 13:23:08.307
179, 0.00, 23406.59, 15959.14, 5165.13, -8597.29, 7136.11, 27410.64, 0.00, 0.000, 0.000, 0.000, 13:23:08.308
180, 0.00, 23405.23, 15959.61, 5083.50, -8756.18, 7119.32, 27392.91, 0.00, 0.000, 0.000, 0.000, 13:23:08.308
181, 0.00, 23397.45, 15953.36, 5127.29, -9048.59, 7133.02, 27396.24, 0.00, 0.000, 0.000, 0.000, 13:23:08.309
182, 0.00, 23391.08, 15945.15, 5236.25, -9084.49, 7124.15, 27417.77, 0.00, 0.000, 0.000, 0.000, 13:23:08.309
183, 0.00, 23394.05, 15946.29, 5263.92, -8776.93, 7119.41, 27426.64, 0.00, 0.000, 0.000, 0.000, 13:23:08.309
184, 0.00, 23398.30, 15950.67, 5170.29, -8597.98, 7128.06, 27407.33, 0.00, 0.000, 0.000, 0.000, 13:23:08.309
185, 0.00, 23394.16, 15943.10, 5086.90, -8756.72, 7121.62, 27383.32, 0.00, 0.000, 0.000, 0.000, 13:23:08.310
186, 0.00, 23403.24, 15954.18, 5132.54, -9056.95, 7121.56, 27401.61, 0.00, 0.000, 0.000, 0.000, 13:23:08.310
187, 0.00, 23390.54, 15942.78, 5243.25, -9090.32, 7118.00, 27413.97, 0.00, 0.038, -0.036, 0.990, 13:23:08.310
188, 0.00, 23394.07, 15945.49, 5273.78, -8773.77, 7127.93, 27421.07, 0.00, 0.000, 0.000, 0.000, 13:23:08.310
189, 0.00, 23402.39, 15958.32, 5178.74, -8598.47, 7122.99, 27406.21, 0.00, 0.000, 0.000, 0.000, 13:23:08.311
190, 0.00, 23402.59, 15959.95, 5099.91, -8755.83, 7132.24, 27389.78, 0.00, 0.000, 0.000, 0.000, 13:23:08.311
191, 0.00, 23395.71, 15951.63, 5139.18, -9049.86, 7130.07, 27394.99, 0.00, 0.000, 0.000, 0.000, 13:23:08.311
192, 0.00, 23388.55, 15938.49, 5241.55, -9094.90, 7114.29, 27416.00, 0.00, 0.000, 0.000, 0.000, 13:23:08.311
193, 0.00, 23396.49, 15951.43, 5276.11, -8781.35, 7128.66, 27428.05, 0.00, 0.000, 0.000, 0.000, 13:23:08.312
194, 0.00, 23407.37, 15964.58, 5180.89, -8599.19, 7138.90, 27413.94, 0.00, 0.000, 0.000, 0.000, 13:23:08.313
195, 0.00, 23405.49, 15957.85, 5094.16, -8754.95, 7130.99, 27394.05, 0.00, 0.000, 0.000, 0.000, 13:23:08.314
196, 0.00, 23396.55, 15945.40, 5126.08, -9057.69, 7114.00, 27397.11, 0.00, 0.000, 0.000, 0.000, 13:23:08.314
197, 0.00, 23390.41, 15946.25, 5241.17, -9086.52, 7105.44, 27419.98, 0.00, 0.038, -0.040, 0.988, 13:23:08.314
198, 0.00, 23392.66, 15947.39, 5271.46, -8775.79, 7118.34, 27425.37, 0.00, 0.000, 0.000, 0.000, 13:23:08.314
199, 0.00, 23407.15, 15957.67, 5172.48, -8605.13, 7116.59, 27413.92, 0.00, 0.000, 0.000, 0.000, 13:23:08.314
200, 0.00, 23406.28, 15961.25, 5092.26, -8755.83, 7148.45, 27393.83, 0.00, 0.000, 0.000, 0.000, 13:23:08.314
201, 0.00, 23398.12, 15952.24, 5128.79, -9053.33, 7125.02, 27397.76, 0.00, 0.000, 0.000, 0.000, 13:23:08.315
202, 0.00, 23393.89, 15950.34, 5242.18, -9085.07, 7121.56, 27421.68, 0.00, 0.000, 0.000, 0.000, 13:23:08.315
203, 0.00, 23392.55, 15949.27, 5270.18, -8780.03, 7121.69, 27423.49, 0.00, 0.000, 0.000, 0.000, 13:23:08.315
204, 0.00, 23401.56, 15957.54, 5169.13, -8608.01, 7129.58, 27410.37, 0.00, 0.000, 0.000, 0.000, 13:23:08.316
205, 0.00, 23402.61, 15972.73, 5089.36, -8757.10, 7127.95, 27391.86, 0.00, 0.000, 0.000, 0.000, 13:23:08.316
206, 0.00, 23396.44, 15979.35, 5132.65, -9045.97, 7122.11, 27395.41, 0.00, 0.000, 0.000, 0.000, 13:23:08.316
207, 0.00, 23390.72, 15977.72, 5241.13, -9090.70, 7116.04, 27416.00, 0.00, 0.038, -0.044, 0.992, 13:23:08.316
208, 0.00, 23397.85, 15989.57, 5278.14, -8781.26, 7117.31, 27429.52, 0.00, 0.000, 0.000, 0.000, 13:23:08.316
209, 0.00, 23402.79, 15998.24, 5181.09, -8604.68, 7123.77, 27411.35, 0.00, 0.000, 0.000, 0.000, 13:23:08.316
210, 0.00, 23405.25, 16004.09, 5099.55, -8754.13, 7127.52, 27393.36, 0.00, 0.000, 0.000, 0.000, 13:23:08.316
211, 0.00, 23400.13, 16002.64, 5137.35, -9048.75, 7133.69, 27396.82, 0.00, 0.000, 0.000, 0.000, 13:23:08.316
212, 0.00, 23386.99, 15992.14, 5244.48, -9092.15, 7114.58, 27412.38, 0.00, 0.000, 0.000, 0.000, 13:23:08.317
213, 0.00, 23387.28, 15988.31, 5271.35, -8788.73, 7118.78, 27416.13, 0.00, 0.000, 0.000, 0.000, 13:23:08.317
214, 0.00, 23404.27, 16019.52, 5182.68, -8599.99, 7145.67, 27411.57, 0.00, 0.000, 0.000, 0.000, 13:23:08.317
215, 0.00, 23403.30, 16010.96, 5098.97, -8751.60, 7135.88, 27393.63, 0.00, 0.000, 0.000, 0.000, 13:23:08.317
216, 0.00, 23396.91, 15988.78, 5134.60, -9046.76, 7126.21, 27396.93, 0.00, 0.000, 0.000, 0.000, 13:23:08.317
217, 0.00, 23392.33, 15982.91, 5241.71, -9093.56, 7117.42, 27416.94, 0.00, 0.034, -0.040, 0.990, 13:23:08.317
218, 0.00, 23392.20, 15999.22, 5274.32, -8782.87, 7125.20, 27423.47, 0.00, 0.000, 0.000, 0.000, 13:23:08.317
219, 0.00, 23395.99, 15992.09, 5174.41, -8603.01, 7132.02, 27403.93, 0.00, 0.000, 0.000, 0.000, 13:23:08.317
220, 0.00, 23390.76, 15972.04, 5087.68, -8756.00, 7121.73, 27379.75, 0.00, 0.000, 0.000, 0.000, 13:23:08.318
221, 0.00, 23400.06, 15966.39, 5127.45, -9046.98, 7125.67, 27392.13, 0.00, 0.000, 0.000, 0.000, 13:23:08.318
222, 0.00, 23398.07, 15971.77, 5244.26, -9087.28, 7129.11, 27423.27, 0.00, 0.000, 0.000, 0.000, 13:23:08.318
223, 0.00, 23397.27, 15969.67, 5279.77, -8777.84, 7135.86, 27425.81, 0.00, 0.000, 0.000, 0.000, 13:23:08.318
224, 0.00, 23402.10, 15971.82, 5179.73, -8599.74, 7134.97, 27407.24, 0.00, 0.000, 0.000, 0.000, 13:23:08.318
225, 0.00, 23408.53, 15978.75, 5099.64, -8740.58, 7138.43, 27396.00, 0.00, 0.000, 0.000, 0.000, 13:23:08.318
226, 0.00, 23402.41, 15976.53, 5137.95, -9038.20, 7133.51, 27402.03, 0.00, 0.000, 0.000, 0.000, 13:23:08.318
227, 0.00, 23390.12, 15963.46, 5249.33, -9088.29, 7122.03, 27416.27, 0.00, 0.030, -0.038, 0.992, 13:23:08.318
228, 0.00, 23394.18, 15966.83, 5283.64, -8782.80, 7131.68, 27424.90, 0.00, 0.000, 0.000, 0.000, 13:23:08.319
229, 0.00, 23403.59, 15976.69, 5188.33, -8599.74, 7136.33, 27410.35, 0.00, 0.000, 0.000, 0.000, 13:23:08.319
230, 0.00, 23406.66, 15980.31, 5106.79, -8739.84, 7120.39, 27395.77, 0.00, 0.000, 0.000, 0.000, 13:23:08.319
231, 0.00, 23402.68, 15977.12, 5144.14, -9033.88, 7138.72, 27399.19, 0.00, 0.000, 0.000, 0.000, 13:23:08.319
232, 0.00, 23394.16, 15964.31, 5252.12, -9083.59, 7137.72, 27419.82, 0.00, 0.000, 0.000, 0.000, 13:23:08.319
233, 0.00, 23395.88, 15963.03, 5283.26, -8780.93, 7132.20, 27425.88, 0.00, 0.000, 0.000, 0.000, 13:23:08.319
234, 0.00, 23403.37, 15974.10, 5188.02, -8595.79, 7136.06, 27409.29, 0.00, 0.000, 0.000, 0.000, 13:23:08.320
235, 0.00, 23404.85, 15976.24, 5108.11, -8737.94, 7138.45, 27391.93, 0.00, 0.000, 0.000, 0.000, 13:23:08.320
236, 0.00, 23399.17, 15967.26, 5143.78, -9035.27, 7128.49, 27397.18, 0.00, 0.000, 0.000, 0.000, 13:23:08.320
237, 0.00, 23389.94, 15969.43, 5252.06, -9089.05, 7118.76, 27414.03, 0.00, 0.036, -0.036, 0.992, 13:23:08.320
238, 0.00, 23393.80, 15985.54, 5285.74, -8782.45, 7130.68, 27424.23, 0.00, 0.000, 0.000, 0.000, 13:23:08.320
239, 0.00, 23401.47, 15998.64, 5187.46, -8600.73, 7137.20, 27405.70, 0.00, 0.000, 0.000, 0.000, 13:23:08.320
240, 0.00, 23406.03, 16011.69, 5109.12, -8741.34, 7138.50, 27392.15, 0.00, 0.000, 0.000, 0.000, 13:23:08.773
241, 0.00, 23398.83, 16005.46, 5143.27, -9037.08, 7126.29, 27395.01, 0.00, 0.000, 0.000, 0.000, 13:23:08.773
242, 0.00, 23386.99, 15991.29, 5247.81, -9089.22, 7108.03, 27409.14, 0.00, 0.000, 0.000, 0.000, 13:23:08.773
243, 0.00, 23391.84, 16005.41, 5285.16, -8780.52, 7124.04, 27420.36, 0.00, 0.000, 0.000, 0.000, 13:23:08.774
244, 0.00, 23401.70, 16020.41, 5194.95, -8588.12, 7142.34, 27407.78, 0.00, 0.000, 0.000, 0.000, 13:23:08.774
245, 0.00, 23406.48, 16023.88, 5109.72, -8729.61, 7136.84, 27390.63, 0.00, 0.000, 0.000, 0.000, 13:23:08.774
246, 0.00, 23399.50, 16013.79, 5139.60, -9033.73, 7124.04, 27394.30, 0.00, 0.000, 0.000, 0.000, 13:23:08.774
247, 0.00, 23387.97, 16011.31, 5249.69, -9091.66, 7116.19, 27412.31, 0.00, 0.032, -0.040, 0.990, 13:23:08.774
248, 0.00, 23389.29, 16010.73, 5283.93, -8790.05, 7120.06, 27419.51, 0.00, 0.000, 0.000, 0.000, 13:23:08.774
249, 0.00, 23399.88, 16012.45, 5190.70, -8598.20, 7143.28, 27406.68, 0.00, 0.000, 0.000, 0.000, 13:23:08.774
250, 0.00, 23404.64, 16001.01, 5104.65, -8743.67, 7125.98, 27390.81, 0.00, 0.000, 0.000, 0.000, 13:23:08.774
251, 0.00, 23396.42, 15984.09, 5137.59, -9039.67, 7130.41, 27391.17, 0.00, 0.000, 0.000, 0.000, 13:23:08.775
252, 0.00, 23391.84, 15985.32, 5245.42, -9096.51, 7123.93, 27414.35, 0.00, 0.000, 0.000, 0.000, 13:23:08.775
253, 0.00, 23389.51, 15990.48, 5282.97, -8792.39, 7126.56, 27418.97, 0.00, 0.000, 0.000, 0.000, 13:23:08.775
254, 0.00, 23402.07, 16004.50, 5186.41, -8602.43, 7125.98, 27408.18, 0.00, 0.000, 0.000, 0.000, 13:23:08.775
255, 0.00, 23405.47, 16027.59, 5107.66, -8735.46, 7135.59, 27389.36, 0.00, 0.000, 0.000, 0.000, 13:23:08.775
0, 0.00, 23395.66, 16021.64, 5142.04, -9034.02, 7123.30, 27390.86, 0.00, 0.000, 0.000, 0.000, 13:23:08.775
1, 0.00, 23389.22, 16018.24, 5250.94, -9091.95, 7125.36, 27411.35, 0.00, 0.032, -0.038, 0.992, 13:23:08.775
2, 0.00, 23390.83, 16020.63, 5284.02, -8796.28, 7129.09, 27416.04, 0.00, 0.000, 0.000, 0.000, 13:23:08.775
3, 0.00, 23397.54, 16030.20, 5189.87, -8606.70, 7127.81, 27403.64, 0.00, 0.000, 0.000, 0.000, 13:23:08.776
4, 0.00, 23399.24, 16037.85, 5107.31, -8738.33, 7137.56, 27386.14, 0.00, 0.000, 0.000, 0.000, 13:23:08.776
5, 0.00, 23391.75, 16027.00, 5133.66, -9045.30, 7121.73, 27389.71, 0.00, 0.000, 0.000, 0.000, 13:23:08.776
6, 0.00, 23383.90, 16025.44, 5244.84, -9111.13, 7113.73, 27408.47, 0.00, 0.000, 0.000, 0.000, 13:23:08.776
7, 0.00, 23387.57, 16018.13, 5284.98, -8801.78, 7117.98, 27416.72, 0.00, 0.000, 0.000, 0.000, 13:23:08.776
8, 0.00, 23401.38, 16025.80, 5189.72, -8604.39, 7122.34, 27406.54, 0.00, 0.000, 0.000, 0.000, 13:23:08.776
9, 0.00, 23404.96, 16024.86, 5109.61, -8736.51, 7145.03, 27389.65, 0.00, 0.000, 0.000, 0.000, 13:23:08.776
10, 0.00, 23402.97, 16017.21, 5145.73, -9035.74, 7137.27, 27399.75, 0.00, 0.000, 0.000, 0.000, 13:23:08.776
11, 0.00, 23393.18, 15995.65, 5250.96, -9102.50, 7125.02, 27417.21, 0.00, 0.032, -0.034, 0.990, 13:23:08.777
12, 0.00, 23388.15, 15988.90, 5289.99, -8795.25, 7124.82, 27416.11, 0.00, 0.000, 0.000, 0.000, 13:23:08.777
13, 0.00, 23398.54, 16001.37, 5199.51, -8592.81, 7135.48, 27402.03, 0.00, 0.000, 0.000, 0.000, 13:23:08.777
14, 0.00, 23400.55, 16004.59, 5110.90, -8729.63, 7135.46, 27384.42, 0.00, 0.000, 0.000, 0.000, 13:23:08.777
15, 0.00, 23393.47, 15995.73, 5139.38, -9037.75, 7123.93, 27387.10, 0.00, 0.000, 0.000, 0.000, 13:23:08.777
16, 0.00, 23386.27, 15983.20, 5244.64, -9107.17, 7116.82, 27405.83, 0.00, 0.000, 0.000, 0.000, 13:23:08.777
17, 0.00, 23389.96, 15993.57, 5282.52, -8806.63, 7127.39, 27413.59, 0.00, 0.000, 0.000, 0.000, 13:23:08.778
18, 0.00, 23398.01, 16004.99, 5196.36, -8599.39, 7131.61, 27400.76, 0.00, 0.000, 0.000, 0.000, 13:23:08.778
19, 0.00, 23402.37, 16006.49, 5111.15, -8726.39, 7126.25, 27385.92, 0.00, 0.000, 0.000, 0.000, 13:23:08.778
20, 0.00, 23392.24, 15998.33, 5137.95, -9034.40, 7134.30, 27386.05, 0.00, 0.000, 0.000, 0.000, 13:23:08.778
21, 0.00, 23382.49, 15989.07, 5245.98, -9103.55, 7107.72, 27405.63, 0.00, 0.030, -0.034, 0.994, 13:23:08.778
22, 0.00, 23389.74, 16002.24, 5288.74, -8800.08, 7123.75, 27417.79, 0.00, 0.000, 0.000, 0.000, 13:23:08.778
23, 0.00, 23395.97, 16020.19, 5198.48, -8598.20, 7134.16, 27400.13, 0.00, 0.000, 0.000, 0.000, 13:23:08.779
24, 0.00, 23398.16, 16026.13, 5114.37, -8721.63, 7142.14, 27385.76, 0.00, 0.000, 0.000, 0.000, 13:23:08.779
25, 0.00, 23394.21, 16009.30, 5139.07, -9034.89, 7124.98, 27389.11, 0.00, 0.000, 0.000, 0.000, 13:23:08.779
26, 0.00, 23387.03, 15995.11, 5248.26, -9104.67, 7125.13, 27408.78, 0.00, 0.000, 0.000, 0.000, 13:23:08.779
27, 0.00, 23389.09, 15999.85, 5290.30, -8799.93, 7127.32, 27420.22, 0.00, 0.000, 0.000, 0.000, 13:23:08.779
28, 0.00, 23392.02, 15997.21, 5194.93, -8599.86, 7126.36, 27398.86, 0.00, 0.000, 0.000, 0.000, 13:23:08.779
29, 0.00, 23389.15, 15989.32, 5107.55, -8729.67, 7133.87, 27375.79, 0.00, 0.000, 0.000, 0.000, 13:23:08.779
30, 0.00, 23396.17, 15992.78, 5143.83, -9024.34, 7132.64, 27390.01, 0.00, 0.000, 0.000, 0.000, 13:23:08.779
31, 0.00, 23388.19, 15982.82, 5251.99, -9099.86, 7126.45, 27407.04, 0.00, 0.032, -0.034, 0.996, 13:23:08.779
32, 0.00, 23384.53, 15975.71, 5293.03, -8796.91, 7114.25, 27411.98, 0.00, 0.000, 0.000, 0.000, 13:23:08.779
33, 0.00, 23388.48, 15982.93, 5199.19, -8597.75, 7127.17, 27395.68, 0.00, 0.000, 0.000, 0.000, 13:23:08.780
34, 0.00, 23398.23, 15996.00, 5119.82, -8718.95, 7144.89, 27383.34, 0.00, 0.000, 0.000, 0.000, 13:23:08.780
35, 0.00, 23395.44, 15997.10, 5151.79, -9023.29, 7135.91, 27390.07, 0.00, 0.000, 0.000, 0.000, 13:23:08.780
36, 0.00, 23384.08, 15981.76, 5257.44, -9099.55, 7123.57, 27407.33, 0.00, 0.000, 0.000, 0.000, 13:23:08.780
37, 0.00, 23382.56, 15976.09, 5295.44, -8800.69, 7125.02, 27411.91, 0.00, 0.000, 0.000, 0.000, 13:23:08.780
38, 0.00, 23390.52, 15980.51, 5201.94, -8595.47, 7136.08, 27393.27, 0.00, 0.000, 0.000, 0.000, 13:23:08.780
39, 0.00, 23393.92, 15983.62, 5115.53, -8717.36, 7128.44, 27381.22, 0.00, 0.000, 0.000, 0.000, 13:23:08.781
40, 0.00, 23390.96, 15977.12, 5138.24, -9032.27, 7107.47, 27386.05, 0.00, 0.000, 0.000, 0.000, 13:23:08.781
41, 0.00, 23383.25, 15975.71, 5251.81, -9111.29, 7126.50, 27404.33, 0.00, 0.036, -0.030, 0.998, 13:23:08.781
42, 0.00, 23386.85, 15975.19, 5297.65, -8804.51, 7131.28, 27415.22, 0.00, 0.000, 0.000, 0.000, 13:23:08.781
43, 0.00, 23397.72, 15986.73, 5211.64, -8590.47, 7137.31, 27403.48, 0.00, 0.000, 0.000, 0.000, 13:23:08.781
44, 0.00, 23397.98, 15988.20, 5124.05, -8716.71, 7135.10, 27383.52, 0.00, 0.000, 0.000, 0.000, 13:23:08.781
45, 0.00, 23392.98, 15986.32, 5154.67, -9027.00, 7127.32, 27388.84, 0.00, 0.000, 0.000, 0.000, 13:23:08.782
46, 0.00, 23384.80, 15977.72, 5261.56, -9115.15, 7113.35, 27407.24, 0.00, 0.000, 0.000, 0.000, 13:23:08.782
47, 0.00, 23381.98, 15976.96, 5305.50, -8812.33, 7115.43, 27414.01, 0.00, 0.000, 0.000, 0.000, 13:23:08.782
48, 0.00, 23388.71, 16000.25, 5217.21, -8597.22, 7120.51, 27396.53, 0.00, 0.000, 0.000, 0.000, 13:23:08.782
49, 0.00, 23392.55, 16011.09, 5129.41, -8717.65, 7143.86, 27379.41, 0.00, 0.000, 0.000, 0.000, 13:23:08.782
50, 0.00, 23399.79, 16011.31, 5158.29, -9021.14, 7135.44, 27392.51, 0.00, 0.000, 0.000, 0.000, 13:23:08.782
51, 0.00, 23389.60, 15990.62, 5261.94, -9106.53, 7124.31, 27410.59, 0.00, 0.034, -0.032, 0.998, 13:23:08.782
52, 0.00, 23386.32, 15981.27, 5302.91, -8806.07, 7126.94, 27416.04, 0.00, 0.000, 0.000, 0.000, 13:23:08.783
53, 0.00, 23396.08, 15986.62, 5213.05, -8593.62, 7139.21, 27402.21, 0.00, 0.000, 0.000, 0.000, 13:23:08.783
54, 0.00, 23399.35, 15988.60, 5124.00, -8716.58, 7136.29, 27384.60, 0.00, 0.000, 0.000, 0.000, 13:23:08.783
55, 0.00, 23392.20, 15982.93, 5148.72, -9024.87, 7123.88, 27386.25, 0.00, 0.000, 0.000, 0.000, 13:23:08.783
56, 0.00, 23382.47, 15973.07, 5253.38, -9111.44, 7117.64, 27404.60, 0.00, 0.000, 0.000, 0.000, 13:23:08.783
57, 0.00, 23380.84, 15971.80, 5295.87, -8817.58, 7113.53, 27409.88, 0.00, 0.000, 0.000, 0.000, 13:23:08.783
58, 0.00, 23388.82, 15984.13, 5211.44, -8599.97, 7109.06, 27395.55, 0.00, 0.000, 0.000, 0.000, 13:23:08.783
59, 0.00, 23390.07, 15988.16, 5123.42, -8716.17, 7127.70, 27377.18, 0.00, 0.000, 0.000, 0.000, 13:23:08.783
60, 0.00, 23395.39, 15997.54, 5153.51, -9019.49, 7134.70, 27391.41, 0.00, 0.000, 0.000, 0.000, 13:23:08.784
61, 0.00, 23380.79, 15980.47, 5256.64, -9108.89, 7119.21, 27402.16, 0.00, 0.032, -0.038, 0.998, 13:23:08.784
62, 0.00, 23390.36, 15991.02, 5300.49, -8812.31, 7123.41, 27418.35, 0.00, 0.000, 0.000, 0.000, 13:23:08.784
63, 0.00, 23397.83, 16011.31, 5213.79, -8594.56, 7136.80, 27402.70, 0.00, 0.000, 0.000, 0.000, 13:23:08.784
64, 0.00, 23398.28, 16019.96, 5124.38, -8715.21, 7135.26, 27383.01, 0.00, 0.000, 0.000, 0.000, 13:23:08.784
65, 0.00, 23392.82, 16004.65, 5148.79, -9019.13, 7126.41, 27387.57, 0.00, 0.000, 0.000, 0.000, 13:23:08.784
66, 0.00, 23383.54, 15985.27, 5252.41, -9109.05, 7118.11, 27406.34, 0.00, 0.000, 0.000, 0.000, 13:23:08.784
67, 0.00, 23381.80, 15980.16, 5297.54, -8812.40, 7124.19, 27410.93, 0.00, 0.000, 0.000, 0.000, 13:23:08.784
68, 0.00, 23393.96, 15992.65, 5209.21, -8599.83, 7129.11, 27400.69, 0.00, 0.000, 0.000, 0.000, 13:23:08.785
69, 0.00, 23387.72, 15984.02, 5115.73, -8722.01, 7114.98, 27374.14, 0.00, 0.000, 0.000, 0.000, 13:23:08.785
70, 0.00, 23389.02, 15991.17, 5144.88, -9025.68, 7117.64, 27385.92, 0.00, 0.000, 0.000, 0.000, 13:23:08.785
71, 0.00, 23386.56, 16002.37, 5254.45, -9110.39, 7128.95, 27411.15, 0.00, 0.032, -0.040, 0.996, 13:23:08.785
72, 0.00, 23390.00, 16003.78, 5296.76, -8816.49, 7129.60, 27420.67, 0.00, 0.000, 0.000, 0.000, 13:23:08.785
73, 0.00, 23398.23, 16023.14, 5211.26, -8598.76, 7142.77, 27405.00, 0.00, 0.000, 0.000, 0.000, 13:23:08.785
74, 0.00, 23400.82, 16029.71, 5123.76, -8713.09, 7136.00, 27386.68, 0.00, 0.000, 0.000, 0.000, 13:23:08.785
75, 0.00, 23394.83, 16026.09, 5147.09, -9020.69, 7131.41, 27388.44, 0.00, 0.000, 0.000, 0.000, 13:23:08.788
76, 0.00, 23384.86, 16017.08, 5248.95, -9114.37, 7120.39, 27405.79, 0.00, 0.000, 0.000, 0.000, 13:23:08.788
77, 0.00, 23382.76, 16015.58, 5294.14, -8812.58, 7126.03, 27410.44, 0.00, 0.000, 0.000, 0.000, 13:23:08.788
78, 0.00, 23388.44, 16011.96, 5204.69, -8594.38, 7131.73, 27393.65, 0.00, 0.000, 0.000, 0.000, 13:23:08.788
79, 0.00, 23391.79, 16018.00, 5117.83, -8710.97, 7125.91, 27378.67, 0.00, 0.000, 0.000, 0.000, 13:23:08.788
80, 0.00, 23388.22, 16029.17, 5144.79, -9024.05, 7119.54, 27383.14, 0.00, 0.000, 0.000, 0.000, 13:23:08.789
81, 0.00, 23378.27, 16021.01, 5251.77, -9115.87, 7115.14, 27402.32, 0.00, 0.032, -0.036, 0.996, 13:23:08.789
82, 0.00, 23388.31, 16021.06, 5300.67, -8811.91, 7128.26, 27416.92, 0.00, 0.000, 0.000, 0.000, 13:23:08.789
83, 0.00, 23393.69, 16022.33, 5212.85, -8592.17, 7131.75, 27401.03, 0.00, 0.000, 0.000, 0.000, 13:23:08.789
84, 0.00, 23396.04, 16030.16, 5122.37, -8705.54, 7129.33, 27381.60, 0.00, 0.000, 0.000, 0.000, 13:23:08.789
85, 0.00, 23392.42, 16028.30, 5142.64, -9018.24, 7118.76, 27384.37, 0.00, 0.000, 0.000, 0.000, 13:23:08.789
86, 0.00, 23388.13, 16022.78, 5247.63, -9119.22, 7105.02, 27407.73, 0.00, 0.000, 0.000, 0.000, 13:23:08.789
87, 0.00, 23386.47, 16025.19, 5298.28, -8822.66, 7119.88, 27413.97, 0.00, 0.000, 0.000, 0.000, 13:23:08.790
88, 0.00, 23395.28, 16027.56, 5214.86, -8595.34, 7133.54, 27399.71, 0.00, 0.000, 0.000, 0.000, 13:23:08.790
89, 0.00, 23398.72, 16016.16, 5122.48, -8712.84, 7127.26, 27385.07, 0.00, 0.000, 0.000, 0.000, 13:23:08.790
90, 0.00, 23386.92, 15999.60, 5140.34, -9026.59, 7117.13, 27385.42, 0.00, 0.000, 0.000, 0.000, 13:23:08.790
91, 0.00, 23381.02, 15992.94, 5246.31, -9123.33, 7116.04, 27402.59, 0.00, 0.030, -0.040, 0.998, 13:23:08.790
92, 0.00, 23382.70, 15989.05, 5294.26, -8826.21, 7113.08, 27409.45, 0.00, 0.000, 0.000, 0.000, 13:23:08.790
93, 0.00, 23391.61, 15994.89, 5210.26, -8598.00, 7130.88, 27397.22, 0.00, 0.000, 0.000, 0.000, 13:23:08.790
94, 0.00, 23400.73, 16012.12, 5121.63, -8707.35, 7132.51, 27385.98, 0.00, 0.000, 0.000, 0.000, 13:23:08.790
95, 0.00, 23397.80, 16030.38, 5143.96, -9021.81, 7122.36, 27391.39, 0.00, 0.000, 0.000, 0.000, 13:23:08.790
96, 0.00, 23389.58, 16031.90, 5251.41, -9120.61, 7119.50, 27409.52, 0.00, 0.000, 0.000, 0.000, 13:23:08.791
97, 0.00, 23387.37, 16019.38, 5295.60, -8825.07, 7124.86, 27414.99, 0.00, 0.000, 0.000, 0.000, 13:23:08.791
98, 0.00, 23395.64, 16014.26, 5209.83, -8601.40, 7133.20, 27399.57, 0.00, 0.000, 0.000, 0.000, 13:23:08.791
99, 0.00, 23394.01, 16007.60, 5120.29, -8712.64, 7120.60, 27377.44, 0.00, 0.000, 0.000, 0.000, 13:23:08.791
100, 0.00, 23379.79, 15987.33, 5133.70, -9038.62, 7095.65, 27377.60, 0.00, 0.000, 0.000, 0.000, 13:23:08.791
101, 0.00, 23388.15, 15993.59, 5250.18, -9127.25, 7129.78, 27407.51, 0.00, 0.032, -0.036, 0.992, 13:23:08.791
102, 0.00, 23380.66, 15987.31, 5301.45, -8821.54, 7123.97, 27411.91, 0.00, 0.000, 0.000, 0.000, 13:23:08.791
103, 0.00, 23390.85, 15992.56, 5211.33, -8600.86, 7127.03, 27395.93, 0.00, 0.000, 0.000, 0.000, 13:23:08.791
104, 0.00, 23402.86, 16011.74, 5129.73, -8704.48, 7127.52, 27387.57, 0.00, 0.000, 0.000, 0.000, 13:23:09.253
105, 0.00, 23396.31, 16008.05, 5151.47, -9015.67, 7130.25, 27387.21, 0.00, 0.000, 0.000, 0.000, 13:23:09.253
106, 0.00, 23382.81, 16005.35, 5250.27, -9125.14, 7119.34, 27401.14, 0.00, 0.000, 0.000, 0.000, 13:23:09.253
107, 0.00, 23382.76, 16010.38, 5296.94, -8834.01, 7117.04, 27409.32, 0.00, 0.000, 0.000, 0.000, 13:23:09.253
108, 0.00, 23391.53, 16014.49, 5214.39, -8601.00, 7121.27, 27397.31, 0.00, 0.000, 0.000, 0.000, 13:23:09.254
109, 0.00, 23397.87, 16018.47, 5127.31, -8702.70, 7111.79, 27382.38, 0.00, 0.000, 0.000, 0.000, 13:23:09.254
110, 0.00, 23391.81, 16027.99, 5148.84, -9016.42, 7127.12, 27382.94, 0.00, 0.000, 0.000, 0.000, 13:23:09.254
111, 0.00, 23384.35, 16026.83, 5249.26, -9128.23, 7124.01, 27403.19, 0.00, 0.028, -0.034, 0.988, 13:23:09.254
112, 0.00, 23382.74, 16026.56, 5297.41, -8834.08, 7118.23, 27410.37, 0.00, 0.000, 0.000, 0.000, 13:23:09.254
113, 0.00, 23389.18, 16037.38, 5215.73, -8601.62, 7129.22, 27393.02, 0.00, 0.000, 0.000, 0.000, 13:23:09.254
114, 0.00, 23393.71, 16038.43, 5123.82, -8708.26, 7124.75, 27379.79, 0.00, 0.000, 0.000, 0.000, 13:23:09.254
115, 0.00, 23392.71, 16044.22, 5146.24, -9019.69, 7111.36, 27385.69, 0.00, 0.000, 0.000, 0.000, 13:23:09.254
116, 0.00, 23388.62, 16044.95, 5256.03, -9119.04, 7124.91, 27407.55, 0.00, 0.000, 0.000, 0.000, 13:23:09.255
117, 0.00, 23384.97, 16038.18, 5303.13, -8828.18, 7128.31, 27411.91, 0.00, 0.000, 0.000, 0.000, 13:23:09.255
118, 0.00, 23393.31, 16045.40, 5218.55, -8596.41, 7133.16, 27396.20, 0.00, 0.000, 0.000, 0.000, 13:23:09.255
119, 0.00, 23395.82, 16050.36, 5129.14, -8697.87, 7129.20, 27378.83, 0.00, 0.000, 0.000, 0.000, 13:23:09.255
120, 0.00, 23387.41, 16043.17, 5141.46, -9023.20, 7102.80, 27381.31, 0.00, 0.000, 0.000, 0.000, 13:23:09.255
121, 0.00, 23379.21, 16039.23, 5247.03, -9136.25, 7120.51, 27398.48, 0.00, 0.026, -0.030, 0.992, 13:23:09.255
122, 0.00, 23385.49, 16046.72, 5303.69, -8835.69, 7120.86, 27412.42, 0.00, 0.000, 0.000, 0.000, 13:23:09.255
123, 0.00, 23395.10, 16058.74, 5222.22, -8600.91, 7125.36, 27400.29, 0.00, 0.000, 0.000, 0.000, 13:23:09.256
124, 0.00, 23396.82, 16058.43, 5130.42, -8701.47, 7140.69, 27379.41, 0.00, 0.000, 0.000, 0.000, 13:23:09.256
125, 0.00, 23392.24, 16055.32, 5146.91, -9019.11, 7116.93, 27385.98, 0.00, 0.000, 0.000, 0.000, 13:23:09.256
126, 0.00, 23379.32, 16047.97, 5252.26, -9128.72, 7115.41, 27402.19, 0.00, 0.000, 0.000, 0.000, 13:23:09.256
127, 0.00, 23387.10, 16050.36, 5305.10, -8837.37, 7124.31, 27413.83, 0.00, 0.000, 0.000, 0.000, 13:23:09.256
128, 0.00, 23396.75, 16062.68, 5227.31, -8598.94, 7130.77, 27401.83, 0.00, 0.000, 0.000, 0.000, 13:23:09.256
129, 0.00, 23398.10, 16066.08, 5137.68, -8697.09, 7127.26, 27382.85, 0.00, 0.000, 0.000, 0.000, 13:23:09.256
130, 0.00, 23393.51, 16062.99, 5157.49, -9012.76, 7123.14, 27386.14, 0.00, 0.000, 0.000, 0.000, 13:23:09.256
131, 0.00, 23370.47, 16041.76, 5251.61, -9136.54, 7089.32, 27390.90, 0.00, 0.032, -0.030, 0.988, 13:23:09.257
132, 0.00, 23379.54, 16044.08, 5302.39, -8843.18, 7102.38, 27403.15, 0.00, 0.000, 0.000, 0.000, 13:23:09.257
133, 0.00, 23403.06, 16076.54, 5234.73, -8592.39, 7149.70, 27406.52, 0.00, 0.000, 0.000, 0.000, 13:23:09.257
134, 0.00, 23401.22, 16079.82, 5142.40, -8696.91, 7136.31, 27386.52, 0.00, 0.000, 0.000, 0.000, 13:23:09.257
135, 0.00, 23398.30, 16071.22, 5156.88, -9017.95, 7113.62, 27388.98, 0.00, 0.000, 0.000, 0.000, 13:23:09.257
136, 0.00, 23387.39, 16061.31, 5257.71, -9138.11, 7120.21, 27403.91, 0.00, 0.000, 0.000, 0.000, 13:23:09.257
137, 0.00, 23386.36, 16058.63, 5312.41, -8839.60, 7126.54, 27413.74, 0.00, 0.000, 0.000, 0.000, 13:23:09.257
138, 0.00, 23395.59, 16058.41, 5232.23, -8597.22, 7131.93, 27400.69, 0.00, 0.000, 0.000, 0.000, 13:23:09.257
139, 0.00, 23400.04, 16054.48, 5142.38, -8688.57, 7132.58, 27382.92, 0.00, 0.000, 0.000, 0.000, 13:23:09.258
140, 0.00, 23394.23, 16052.06, 5159.07, -9002.75, 7123.63, 27386.09, 0.00, 0.000, 0.000, 0.000, 13:23:09.258
141, 0.00, 23382.99, 16043.88, 5257.62, -9124.38, 7114.25, 27400.73, 0.00, 0.032, -0.032, 0.990, 13:23:09.258
142, 0.00, 23379.72, 16027.72, 5306.71, -8839.42, 7110.87, 27405.23, 0.00, 0.000, 0.000, 0.000, 13:23:09.258
143, 0.00, 23399.50, 16035.12, 5230.11, -8600.21, 7127.61, 27404.67, 0.00, 0.000, 0.000, 0.000, 13:23:09.258
144, 0.00, 23398.56, 16034.45, 5142.67, -8693.08, 7131.86, 27384.33, 0.00, 0.000, 0.000, 0.000, 13:23:09.258
145, 0.00, 23395.57, 16027.74, 5156.61, -9013.09, 7122.32, 27388.29, 0.00, 0.000, 0.000, 0.000, 13:23:09.258
146, 0.00, 23387.01, 16015.81, 5258.36, -9134.42, 7126.14, 27405.09, 0.00, 0.000, 0.000, 0.000, 13:23:09.258
147, 0.00, 23387.68, 16017.17, 5317.21, -8834.97, 7129.38, 27414.03, 0.00, 0.000, 0.000, 0.000, 13:23:09.259
148, 0.00, 23395.88, 16033.11, 5240.61, -8594.31, 7133.74, 27401.52, 0.00, 0.000, 0.000, 0.000, 13:23:09.259
149, 0.00, 23398.63, 16052.26, 5153.28, -8686.78, 7131.57, 27382.85, 0.00, 0.000, 0.000, 0.000, 13:23:09.259
150, 0.00, 23394.86, 16051.46, 5166.25, -9003.68, 7123.34, 27385.89, 0.00, 0.000, 0.000, 0.000, 13:23:09.259
151, 0.00, 23387.52, 16049.07, 5265.24, -9129.39, 7111.56, 27406.90, 0.00, 0.032, -0.028, 0.992, 13:23:09.259
152, 0.00, 23384.28, 16042.63, 5319.98, -8837.03, 7114.02, 27412.54, 0.00, 0.000, 0.000, 0.000, 13:23:09.259
153, 0.00, 23390.25, 16029.80, 5236.61, -8591.97, 7118.07, 27396.06, 0.00, 0.000, 0.000, 0.000, 13:23:09.259
154, 0.00, 23393.49, 16025.98, 5142.78, -8684.14, 7139.12, 27376.62, 0.00, 0.000, 0.000, 0.000, 13:23:09.259
155, 0.00, 23392.31, 16019.81, 5153.33, -9013.25, 7118.25, 27384.26, 0.00, 0.000, 0.000, 0.000, 13:23:09.260
156, 0.00, 23386.43, 16011.87, 5256.59, -9136.07, 7119.39, 27403.84, 0.00, 0.000, 0.000, 0.000, 13:23:09.260
157, 0.00, 23388.44, 16011.31, 5313.19, -8837.54, 7124.53, 27413.56, 0.00, 0.000, 0.000, 0.000, 13:23:09.260
158, 0.00, 23394.45, 16019.45, 5232.54, -8593.17, 7133.54, 27399.44, 0.00, 0.000, 0.000, 0.000, 13:23:09.260
159, 0.00, 23398.12, 16021.10, 5143.90, -8682.80, 7131.79, 27380.69, 0.00, 0.000, 0.000, 0.000, 13:23:09.260
160, 0.00, 23393.04, 16015.56, 5156.61, -9005.72, 7125.78, 27383.99, 0.00, 0.000, 0.000, 0.000, 13:23:09.260
161, 0.00, 23379.37, 16000.43, 5251.68, -9138.85, 7112.86, 27396.76, 0.00, 0.032, -0.030, 0.990, 13:23:09.260
162, 0.00, 23377.73, 15996.16, 5305.95, -8847.87, 7108.03, 27403.10, 0.00, 0.000, 0.000, 0.000, 13:23:09.260
163, 0.00, 23389.76, 16009.64, 5231.27, -8600.86, 7128.64, 27394.74, 0.00, 0.000, 0.000, 0.000, 13:23:09.261
164, 0.00, 23400.62, 16021.01, 5147.74, -8683.70, 7140.51, 27382.65, 0.00, 0.000, 0.000, 0.000, 13:23:09.261
165, 0.00, 23397.76, 16020.32, 5164.46, -8994.57, 7131.39, 27386.74, 0.00, 0.000, 0.000, 0.000, 13:23:09.261
166, 0.00, 23386.92, 16008.72, 5262.32, -9125.55, 7122.72, 27406.30, 0.00, 0.000, 0.000, 0.000, 13:23:09.261
167, 0.00, 23384.26, 16004.50, 5315.20, -8840.11, 7116.42, 27413.21, 0.00, 0.000, 0.000, 0.000, 13:23:09.261
168, 0.00, 23390.83, 16011.09, 5234.42, -8601.44, 7121.04, 27398.16, 0.00, 0.000, 0.000, 0.000, 13:23:09.261
169, 0.00, 23392.57, 16016.08, 5146.40, -8688.32, 7138.01, 27376.95, 0.00, 0.000, 0.000, 0.000, 13:23:09.261
170, 0.00, 23386.21, 16007.94, 5156.93, -9008.85, 7117.44, 27377.13, 0.00, 0.000, 0.000, 0.000, 13:23:09.261
171, 0.00, 23383.14, 16002.91, 5258.74, -9134.71, 7124.98, 27403.04, 0.00, 0.034, -0.032, 0.998, 13:23:09.262
172, 0.00, 23383.10, 16005.48, 5317.21, -8837.14, 7128.95, 27412.38, 0.00, 0.000, 0.000, 0.000, 13:23:09.262
173, 0.00, 23390.00, 16010.49, 5238.15, -8590.27, 7133.96, 27395.71, 0.00, 0.000, 0.000, 0.000, 13:23:09.262
174, 0.00, 23392.29, 16010.31, 5143.47, -8683.79, 7131.84, 27375.59, 0.00, 0.000, 0.000, 0.000, 13:23:09.262
175, 0.00, 23386.81, 16004.97, 5155.36, -9004.11, 7112.50, 27379.12, 0.00, 0.000, 0.000, 0.000, 13:23:09.262
176, 0.00, 23384.73, 16003.96, 5259.95, -9127.20, 7125.56, 27404.45, 0.00, 0.000, 0.000, 0.000, 13:23:09.262
177, 0.00, 23383.68, 16001.52, 5317.35, -8834.24, 7127.37, 27412.31, 0.00, 0.000, 0.000, 0.000, 13:23:09.262
178, 0.00, 23389.36, 16005.64, 5235.52, -8589.69, 7127.70, 27392.96, 0.00, 0.000, 0.000, 0.000, 13:23:09.262
179, 0.00, 23394.47, 16012.99, 5144.12, -8681.55, 7125.53, 27378.72, 0.00, 0.000, 0.000, 0.000, 13:23:09.263
180, 0.00, 23391.12, 16008.70, 5156.95, -9005.34, 7119.95, 27384.93, 0.00, 0.000, 0.000, 0.000, 13:23:09.263
181, 0.00, 23383.50, 15998.89, 5258.23, -9133.50, 7123.46, 27401.20, 0.00, 0.034, -0.036, 0.992, 13:23:09.263
182, 0.00, 23382.74, 15996.29, 5315.45, -8842.22, 7118.99, 27409.79, 0.00, 0.000, 0.000, 0.000, 13:23:09.263
183, 0.00, 23390.47, 16005.97, 5237.10, -8593.11, 7132.11, 27397.27, 0.00, 0.000, 0.000, 0.000, 13:23:09.263
184, 0.00, 23394.92, 16009.73, 5144.95, -8685.06, 7121.62, 27380.39, 0.00, 0.000, 0.000, 0.000, 13:23:09.263
185, 0.00, 23390.72, 16004.74, 5155.56, -9006.52, 7126.99, 27384.98, 0.00, 0.000, 0.000, 0.000, 13:23:09.264
186, 0.00, 23379.12, 15990.91, 5254.09, -9137.62, 7114.65, 27398.74, 0.00, 0.000, 0.000, 0.000, 13:23:09.264
187, 0.00, 23385.76, 15994.86, 5316.14, -8835.60, 7121.24, 27411.98, 0.00, 0.000, 0.000, 0.000, 13:23:09.264
188, 0.00, 23389.58, 16005.03, 5235.31, -8590.24, 7125.24, 27398.10, 0.00, 0.000, 0.000, 0.000, 13:23:09.264
189, 0.00, 23391.75, 16007.71, 5141.77, -8680.21, 7120.33, 27376.62, 0.00, 0.000, 0.000, 0.000, 13:23:09.264
190, 0.00, 23392.53, 16008.56, 5155.74, -8998.59, 7120.57, 27384.78, 0.00, 0.042, -0.036, 0.990, 13:23:09.264
191, 0.00, 23386.05, 16002.08, 5258.34, -9124.07, 7133.13, 27404.71, 0.00, 0.000, 0.000, 0.000, 13:23:09.264
192, 0.00, 23383.48, 15997.59, 5313.97, -8834.88, 7128.55, 27410.95, 0.00, 0.000, 0.000, 0.000, 13:23:09.265
193, 0.00, 23388.84, 16001.72, 5233.12, -8594.11, 7127.48, 27393.78, 0.00, 0.000, 0.000, 0.000, 13:23:09.265
194, 0.00, 23393.51, 16006.37, 5142.44, -8684.01, 7129.29, 27376.88, 0.00, 0.000, 0.000, 0.000, 13:23:09.265
195, 0.00, 23388.13, 16001.28, 5155.07, -9001.54, 7121.13, 27381.69, 0.00, 0.000, 0.000, 0.000, 13:23:09.267
196, 0.00, 23379.32, 15989.39, 5249.73, -9138.60, 7106.85, 27399.59, 0.00, 0.000, 0.000, 0.000, 13:23:09.267
197, 0.00, 23381.47, 15987.22, 5305.48, -8848.07, 7113.76, 27406.50, 0.00, 0.000, 0.000, 0.000, 13:23:09.267
198, 0.00, 23395.99, 16003.47, 5230.38, -8593.84, 7127.97, 27400.69, 0.00, 0.000, 0.000, 0.000, 13:23:09.267
199, 0.00, 23398.77, 16008.34, 5140.30, -8678.15, 7124.91, 27381.42, 0.00, 0.000, 0.000, 0.000, 13:23:09.267
200, 0.00, 23395.39, 16004.34, 5151.25, -9002.05, 7108.39, 27387.01, 0.00, 0.038, -0.036, 0.990, 13:23:09.267
201, 0.00, 23383.97, 15992.11, 5249.82, -9133.26, 7114.87, 27403.93, 0.00, 0.000, 0.000, 0.000, 13:23:09.268
202, 0.00, 23382.23, 15992.87, 5307.24, -8844.52, 7109.49, 27409.25, 0.00, 0.000, 0.000, 0.000, 13:23:09.268
203, 0.00, 23393.58, 16005.95, 5233.59, -8588.30, 7136.60, 27397.74, 0.00, 0.000, 0.000, 0.000, 13:23:09.268
204, 0.00, 23396.93, 16010.91, 5141.28, -8679.81, 7134.32, 27380.10, 0.00, 0.000, 0.000, 0.000, 13:23:09.268
205, 0.00, 23392.84, 16007.20, 5157.51, -8996.78, 7125.02, 27384.98, 0.00, 0.000, 0.000, 0.000, 13:23:09.268
206, 0.00, 23386.96, 15998.95, 5258.47, -9128.94, 7115.74, 27405.23, 0.00, 0.000, 0.000, 0.000, 13:23:09.268
207, 0.00, 23384.71, 15995.49, 5315.20, -8844.72, 7118.94, 27411.71, 0.00, 0.000, 0.000, 0.000, 13:23:09.269
208, 0.00, 23392.73, 16006.75, 5239.79, -8593.49, 7125.60, 27399.73, 0.00, 0.000, 0.000, 0.000, 13:23:09.269
209, 0.00, 23395.41, 16005.64, 5146.06, -8684.14, 7121.78, 27379.86, 0.00, 0.000, 0.000, 0.000, 13:23:09.269
210, 0.00, 23390.00, 16001.39, 5157.46, -9003.86, 7122.65, 27379.54, 0.00, 0.030, -0.034, 0.992, 13:23:09.269
211, 0.00, 23382.74, 15995.20, 5263.14, -9130.73, 7120.08, 27401.38, 0.00, 0.000, 0.000, 0.000, 13:23:09.269
212, 0.00, 23385.60, 15997.84, 5321.19, -8844.83, 7124.04, 27412.42, 0.00, 0.000, 0.000, 0.000, 13:23:09.269
213, 0.00, 23391.03, 16001.55, 5239.32, -8603.05, 7121.73, 27396.00, 0.00, 0.000, 0.000, 0.000, 13:23:09.269
214, 0.00, 23392.62, 16004.25, 5145.66, -8691.45, 7131.95, 27375.48, 0.00, 0.000, 0.000, 0.000, 13:23:09.269
215, 0.00, 23389.54, 16003.67, 5162.45, -9007.13, 7117.87, 27381.71, 0.00, 0.000, 0.000, 0.000, 13:23:09.270
216, 0.00, 23383.01, 15997.01, 5268.71, -9128.88, 7112.73, 27402.75, 0.00, 0.000, 0.000, 0.000, 13:23:09.270
217, 0.00, 23381.89, 15994.04, 5325.37, -8838.48, 7119.83, 27411.22, 0.00, 0.000, 0.000, 0.000, 13:23:09.270
218, 0.00, 23387.63, 15997.90, 5241.44, -8598.34, 7125.04, 27395.59, 0.00, 0.000, 0.000, 0.000, 13:23:09.270
219, 0.00, 23392.89, 15997.97, 5145.57, -8690.72, 7125.22, 27377.09, 0.00, 0.000, 0.000, 0.000, 13:23:09.270
220, 0.00, 23390.90, 15998.95, 5161.89, -9005.34, 7116.42, 27382.27, 0.00, 0.030, -0.030, 0.992, 13:23:09.270
221, 0.00, 23380.51, 15987.44, 5262.23, -9135.54, 7107.81, 27400.73, 0.00, 0.000, 0.000, 0.000, 13:23:09.270
222, 0.00, 23389.07, 15998.51, 5329.68, -8837.10, 7123.88, 27416.58, 0.00, 0.000, 0.000, 0.000, 13:23:09.271
223, 0.00, 23393.27, 16004.63, 5250.74, -8596.53, 7122.58, 27399.91, 0.00, 0.000, 0.000, 0.000, 13:23:09.271
224, 0.00, 23396.91, 16007.60, 5159.03, -8686.89, 7124.33, 27380.60, 0.00, 0.000, 0.000, 0.000, 13:23:09.734
225, 0.00, 23392.29, 16001.90, 5171.93, -9003.39, 7120.37, 27383.30, 0.00, 0.000, 0.000, 0.000, 13:23:09.735
226, 0.00, 23383.32, 15992.58, 5271.73, -9134.58, 7102.67, 27402.52, 0.00, 0.000, 0.000, 0.000, 13:23:09.735
227, 0.00, 23382.23, 15991.64, 5330.24, -8843.18, 7116.75, 27408.96, 0.00, 0.000, 0.000, 0.000, 13:23:09.735
228, 0.00, 23389.98, 15999.07, 5248.28, -8604.06, 7120.04, 27395.48, 0.00, 0.000, 0.000, 0.000, 13:23:09.735
229, 0.00, 23389.69, 15999.67, 5152.73, -8699.63, 7115.61, 27371.54, 0.00, 0.000, 0.000, 0.000, 13:23:09.735
230, 0.00, 23389.71, 15995.18, 5168.46, -9013.18, 7107.56, 27376.48, 0.00, 0.038, -0.026, 0.988, 13:23:09.735
231, 0.00, 23386.41, 15992.92, 5274.03, -9132.83, 7110.40, 27404.18, 0.00, 0.000, 0.000, 0.000, 13:23:09.735
232, 0.00, 23379.03, 15990.46, 5328.90, -8848.29, 7110.49, 27409.25, 0.00, 0.000, 0.000, 0.000, 13:23:09.735
233, 0.00, 23388.48, 15997.88, 5248.73, -8601.76, 7121.40, 27394.39, 0.00, 0.000, 0.000, 0.000, 13:23:09.735
234, 0.00, 23400.51, 16014.38, 5161.76, -8685.31, 7142.10, 27382.03, 0.00, 0.000, 0.000, 0.000, 13:23:09.735
235, 0.00, 23395.77, 16005.82, 5174.63, -8999.97, 7125.83, 27385.31, 0.00, 0.000, 0.000, 0.000, 13:23:09.735
236, 0.00, 23384.08, 15994.64, 5277.49, -9127.42, 7108.12, 27401.07, 0.00, 0.000, 0.000, 0.000, 13:23:09.735
237, 0.00, 23383.37, 15994.89, 5336.23, -8838.28, 7124.28, 27409.29, 0.00, 0.000, 0.000, 0.000, 13:23:09.735
238, 0.00, 23390.00, 16000.90, 5254.16, -8601.53, 7126.52, 27393.36, 0.00, 0.000, 0.000, 0.000, 13:23:09.736
239, 0.00, 23394.50, 16005.03, 5161.67, -8690.36, 7124.24, 27376.62, 0.00, 0.000, 0.000, 0.000, 13:23:09.736
240, 0.00, 23390.76, 16000.79, 5174.97, -9003.71, 7115.36, 27380.64, 0.00, 0.034, -0.030, 0.992, 13:23:09.736
241, 0.00, 23382.79, 15992.47, 5278.19, -9131.27, 7117.15, 27400.31, 0.00, 0.000, 0.000, 0.000, 13:23:09.736
242, 0.00, 23377.09, 15984.58, 5333.22, -8851.31, 7108.84, 27406.54, 0.00, 0.000, 0.000, 0.000, 13:23:09.736
243, 0.00, 23390.96, 16000.03, 5255.05, -8604.66, 7125.31, 27396.31, 0.00, 0.000, 0.000, 0.000, 13:23:09.736
244, 0.00, 23401.85, 16011.34, 5165.29, -8692.08, 7126.67, 27385.49, 0.00, 0.000, 0.000, 0.000, 13:23:09.736
245, 0.00, 23391.26, 15999.58, 5176.42, -9004.74, 7125.98, 27383.01, 0.00, 0.000, 0.000, 0.000, 13:23:09.737
246, 0.00, 23385.04, 15990.17, 5275.68, -9133.93, 7101.89, 27401.74, 0.00, 0.000, 0.000, 0.000, 13:23:09.737
247, 0.00, 23383.95, 15988.05, 5333.15, -8845.90, 7118.05, 27408.51, 0.00, 0.000, 0.000, 0.000, 13:23:09.737
248, 0.00, 23388.51, 16000.70, 5253.22, -8605.58, 7129.25, 27393.43, 0.00, 0.000, 0.000, 0.000, 13:23:09.737
249, 0.00, 23392.08, 16003.83, 5160.97, -8697.20, 7123.48, 27377.96, 0.00, 0.000, 0.000, 0.000, 13:23:09.737
250, 0.00, 23391.26, 16001.48, 5179.77, -9006.01, 7116.57, 27379.28, 0.00, 0.034, -0.032, 0.988, 13:23:09.737
251, 0.00, 23382.00, 15992.02, 5284.02, -9129.61, 7110.22, 27399.28, 0.00, 0.000, 0.000, 0.000, 13:23:09.737
252, 0.00, 23378.87, 15991.24, 5341.02, -8842.48, 7116.19, 27406.77, 0.00, 0.000, 0.000, 0.000, 13:23:09.737
253, 0.00, 23389.69, 16001.41, 5258.45, -8603.39, 7124.35, 27396.22, 0.00, 0.000, 0.000, 0.000, 13:23:09.738
254, 0.00, 23392.29, 16005.86, 5166.47, -8691.10, 7124.62, 27377.82, 0.00, 0.000, 0.000, 0.000, 13:23:09.738
255, 0.00, 23388.60, 16001.26, 5180.15, -9003.08, 7119.99, 27380.53, 0.00, 0.000, 0.000, 0.000, 13:23:09.738
0, 0.00, 23378.58, 15990.73, 5283.46, -9127.36, 7111.05, 27396.31, 0.00, 0.000, 0.000, 0.000, 13:23:09.738
1, 0.00, 23377.60, 15988.45, 5339.76, -8842.37, 7110.96, 27407.02, 0.00, 0.000, 0.000, 0.000, 13:23:09.738
2, 0.00, 23379.68, 15988.98, 5253.20, -8613.78, 7096.61, 27388.46, 0.00, 0.000, 0.000, 0.000, 13:23:09.739
3, 0.00, 23395.10, 16006.04, 5168.37, -8695.70, 7118.63, 27380.57, 0.00, 0.000, 0.000, 0.000, 13:23:09.739
4, 0.00, 23391.64, 16003.47, 5188.47, -9004.18, 7118.02, 27382.14, 0.00, 0.034, -0.034, 0.992, 13:23:09.739
5, 0.00, 23383.86, 15996.56, 5295.84, -9125.30, 7124.28, 27401.18, 0.00, 0.000, 0.000, 0.000, 13:23:09.739
6, 0.00, 23380.35, 15988.49, 5350.63, -8840.76, 7114.09, 27407.17, 0.00, 0.000, 0.000, 0.000, 13:23:09.739
7, 0.00, 23387.97, 15994.28, 5266.61, -8602.16, 7122.36, 27395.95, 0.00, 0.000, 0.000, 0.000, 13:23:09.739
8, 0.00, 23393.85, 16000.76, 5170.36, -8700.95, 7128.73, 27378.36, 0.00, 0.000, 0.000, 0.000, 13:23:09.739
9, 0.00, 23386.47, 15993.57, 5184.76, -9014.55, 7115.03, 27377.82, 0.00, 0.000, 0.000, 0.000, 13:23:09.740
10, 0.00, 23378.90, 15983.29, 5288.20, -9135.52, 7100.95, 27398.52, 0.00, 0.000, 0.000, 0.000, 13:23:09.740
11, 0.00, 23373.26, 15973.25, 5340.35, -8849.77, 7091.69, 27404.24, 0.00, 0.000, 0.000, 0.000, 13:23:09.740
12, 0.00, 23389.96, 15998.89, 5262.00, -8612.33, 7130.45, 27394.45, 0.00, 0.000, 0.000, 0.000, 13:23:09.740
13, 0.00, 23396.64, 16009.08, 5172.55, -8702.72, 7129.76, 27378.29, 0.00, 0.000, 0.000, 0.000, 13:23:09.740
14, 0.00, 23392.24, 16002.71, 5188.00, -9014.50, 7114.09, 27382.45, 0.00, 0.038, -0.036, 0.990, 13:23:09.740
15, 0.00, 23382.81, 15991.33, 5295.66, -9130.17, 7105.98, 27402.63, 0.00, 0.000, 0.000, 0.000, 13:23:09.740
16, 0.00, 23378.20, 15987.02, 5349.35, -8844.38, 7104.26, 27408.31, 0.00, 0.000, 0.000, 0.000, 13:23:09.741
17, 0.00, 23389.51, 15997.23, 5264.71, -8607.05, 7122.50, 27397.07, 0.00, 0.000, 0.000, 0.000, 13:23:09.741
18, 0.00, 23394.86, 16001.30, 5167.83, -8702.67, 7121.06, 27379.10, 0.00, 0.000, 0.000, 0.000, 13:23:09.741
19, 0.00, 23389.85, 15999.65, 5185.92, -9010.41, 7111.50, 27381.13, 0.00, 0.000, 0.000, 0.000, 13:23:09.741
20, 0.00, 23382.94, 15991.71, 5292.40, -9133.08, 7105.71, 27401.25, 0.00, 0.000, 0.000, 0.000, 13:23:09.741
21, 0.00, 23379.05, 15985.70, 5349.78, -8845.50, 7096.61, 27408.96, 0.00, 0.000, 0.000, 0.000, 13:23:09.741
22, 0.00, 23384.26, 15991.96, 5264.91, -8605.29, 7121.65, 27392.62, 0.00, 0.000, 0.000, 0.000, 13:23:09.741
23, 0.00, 23395.97, 16003.87, 5170.76, -8703.10, 7120.77, 27380.44, 0.00, 0.000, 0.000, 0.000, 13:23:09.741
24, 0.00, 23385.02, 15995.87, 5184.96, -9014.41, 7110.07, 27378.16, 0.00, 0.036, -0.036, 0.988, 13:23:09.742
25, 0.00, 23380.21, 15994.15, 5293.74, -9132.68, 7114.63, 27400.71, 0.00, 0.000, 0.000, 0.000, 13:23:09.742
26, 0.00, 23380.21, 15992.92, 5354.36, -8848.16, 7113.15, 27409.32, 0.00, 0.000, 0.000, 0.000, 13:23:09.742
27, 0.00, 23388.82, 16001.52, 5272.80, -8611.05, 7119.99, 27395.48, 0.00, 0.000, 0.000, 0.000, 13:23:09.742
28, 0.00, 23391.50, 16004.07, 5175.75, -8705.20, 7123.46, 27375.83, 0.00, 0.000, 0.000, 0.000, 13:23:09.742
29, 0.00, 23387.63, 15999.80, 5190.10, -9013.68, 7114.60, 27378.90, 0.00, 0.000, 0.000, 0.000, 13:23:09.742
30, 0.00, 23377.29, 15989.57, 5295.42, -9139.65, 7102.11, 27396.89, 0.00, 0.000, 0.000, 0.000, 13:23:09.742
31, 0.00, 23375.63, 15986.62, 5355.84, -8848.36, 7107.05, 27403.93, 0.00, 0.000, 0.000, 0.000, 13:23:09.743
32, 0.00, 23387.46, 15998.04, 5274.30, -8605.91, 7113.71, 27394.12, 0.00, 0.000, 0.000, 0.000, 13:23:09.743
33, 0.00, 23387.79, 15997.17, 5176.15, -8699.66, 7123.28, 27375.81, 0.00, 0.000, 0.000, 0.000, 13:23:09.743
34, 0.00, 23385.85, 15994.44, 5186.70, -9016.98, 7101.17, 27380.39, 0.00, 0.026, -0.032, 0.994, 13:23:09.743
35, 0.00, 23383.57, 15992.27, 5296.56, -9133.01, 7098.51, 27399.17, 0.00, 0.000, 0.000, 0.000, 13:23:09.743
36, 0.00, 23383.99, 15992.74, 5356.84, -8835.93, 7128.42, 27412.16, 0.00, 0.000, 0.000, 0.000, 13:23:09.743
37, 0.00, 23391.81, 16002.71, 5272.02, -8603.68, 7127.88, 27400.27, 0.00, 0.000, 0.000, 0.000, 13:23:09.743
38, 0.00, 23395.84, 16006.15, 5177.98, -8696.82, 7123.81, 27379.63, 0.00, 0.000, 0.000, 0.000, 13:23:09.743
39, 0.00, 23391.57, 16003.20, 5193.29, -9004.42, 7117.00, 27382.85, 0.00, 0.000, 0.000, 0.000, 13:23:09.744
40, 0.00, 23383.03, 15995.69, 5299.55, -9122.75, 7110.09, 27401.96, 0.00, 0.000, 0.000, 0.000, 13:23:09.744
41, 0.00, 23380.10, 15988.16, 5355.39, -8838.55, 7109.71, 27409.81, 0.00, 0.000, 0.000, 0.000, 13:23:09.744
42, 0.00, 23384.13, 15991.87, 5267.70, -8608.30, 7114.85, 27392.91, 0.00, 0.000, 0.000, 0.000, 13:23:09.744
43, 0.00, 23393.36, 16002.62, 5175.57, -8699.59, 7117.47, 27376.04, 0.00, 0.000, 0.000, 0.000, 13:23:09.744
44, 0.00, 23392.22, 16000.14, 5192.38, -9011.75, 7116.95, 27381.13, 0.00, 0.026, -0.032, 0.994, 13:23:09.744
45, 0.00, 23383.90, 15995.98, 5301.65, -9125.21, 7109.73, 27401.03, 0.00, 0.000, 0.000, 0.000, 13:23:09.744
46, 0.00, 23382.36, 15990.73, 5355.77, -8840.09, 7106.36, 27409.90, 0.00, 0.000, 0.000, 0.000, 13:23:09.745
47, 0.00, 23390.16, 15996.63, 5268.93, -8605.91, 7120.21, 27396.62, 0.00, 0.000, 0.000, 0.000, 13:23:09.745
48, 0.00, 23394.86, 16002.75, 5172.62, -8698.70, 7122.56, 27381.31, 0.00, 0.000, 0.000, 0.000, 13:23:09.745
49, 0.00, 23391.12, 15999.62, 5185.67, -9010.52, 7111.56, 27382.74, 0.00, 0.000, 0.000, 0.000, 13:23:09.745
50, 0.00, 23382.25, 15990.08, 5289.70, -9132.70, 7098.09, 27401.99, 0.00, 0.000, 0.000, 0.000, 13:23:09.745
51, 0.00, 23379.23, 15986.50, 5349.91, -8843.33, 7119.10, 27407.17, 0.00, 0.000, 0.000, 0.000, 13:23:09.745
52, 0.00, 23380.35, 15986.44, 5263.17, -8609.94, 7115.43, 27389.56, 0.00, 0.000, 0.000, 0.000, 13:23:09.745
53, 0.00, 23385.87, 15995.78, 5168.26, -8700.35, 7118.43, 27372.37, 0.00, 0.000, 0.000, 0.000, 13:23:09.746
54, 0.00, 23392.53, 16002.46, 5186.79, -9007.48, 7113.38, 27380.93, 0.00, 0.032, -0.040, 0.994, 13:23:09.746
55, 0.00, 23385.51, 15992.18, 5289.29, -9135.69, 7100.08, 27401.85, 0.00, 0.000, 0.000, 0.000, 13:23:09.746
56, 0.00, 23384.13, 15992.76, 5353.42, -8845.55, 7118.31, 27413.70, 0.00, 0.000, 0.000, 0.000, 13:23:09.747
57, 0.00, 23391.86, 15998.62, 5272.40, -8606.49, 7126.56, 27397.90, 0.00, 0.000, 0.000, 0.000, 13:23:09.747
58, 0.00, 23396.22, 16002.69, 5180.11, -8695.21, 7128.53, 27381.78, 0.00, 0.000, 0.000, 0.000, 13:23:09.747
59, 0.00, 23390.76, 15996.88, 5194.72, -9011.42, 7114.72, 27384.11, 0.00, 0.000, 0.000, 0.000, 13:23:09.749
60, 0.00, 23381.73, 15986.79, 5300.85, -9136.23, 7105.60, 27401.45, 0.00, 0.000, 0.000, 0.000, 13:23:09.749
61, 0.00, 23382.25, 15987.11, 5361.16, -8849.17, 7109.69, 27411.15, 0.00, 0.000, 0.000, 0.000, 13:23:09.749
62, 0.00, 23387.30, 15995.65, 5277.94, -8613.02, 7114.74, 27398.68, 0.00, 0.000, 0.000, 0.000, 13:23:09.749
63, 0.00, 23391.53, 15995.89, 5182.97, -8703.39, 7116.86, 27376.21, 0.00, 0.000, 0.000, 0.000, 13:23:09.749
64, 0.00, 23389.98, 15996.67, 5198.52, -9012.54, 7114.85, 27380.35, 0.00, 0.034, -0.036, 0.988, 13:23:09.750
65, 0.00, 23382.63, 15991.69, 5307.09, -9129.79, 7117.62, 27401.65, 0.00, 0.000, 0.000, 0.000, 13:23:09.750
66, 0.00, 23383.08, 15989.77, 5365.27, -8843.40, 7116.88, 27410.17, 0.00, 0.000, 0.000, 0.000, 13:23:09.750
67, 0.00, 23390.65, 15998.28, 5286.19, -8597.62, 7121.98, 27399.44, 0.00, 0.000, 0.000, 0.000, 13:23:09.750
68, 0.00, 23392.33, 16002.57, 5186.81, -8696.93, 7122.18, 27380.69, 0.00, 0.000, 0.000, 0.000, 13:23:09.750
69, 0.00, 23391.53, 15997.03, 5201.68, -9009.94, 7113.64, 27382.03, 0.00, 0.000, 0.000, 0.000, 13:23:09.750
70, 0.00, 23386.21, 15992.56, 5308.79, -9131.89, 7103.27, 27403.06, 0.00, 0.000, 0.000, 0.000, 13:23:09.751
71, 0.00, 23383.28, 15988.20, 5366.45, -8846.46, 7101.95, 27410.90, 0.00, 0.000, 0.000, 0.000, 13:23:09.751
72, 0.00, 23390.23, 15995.38, 5282.81, -8606.40, 7116.75, 27395.95, 0.00, 0.000, 0.000, 0.000, 13:23:09.751
73, 0.00, 23391.84, 15999.24, 5185.69, -8698.67, 7120.46, 27376.48, 0.00, 0.000, 0.000, 0.000, 13:23:09.751
74, 0.00, 23388.89, 15997.68, 5201.32, -9012.13, 7121.13, 27380.84, 0.00, 0.038, -0.032, 0.984, 13:23:09.751
75, 0.00, 23381.33, 15991.02, 5309.61, -9133.79, 7106.27, 27399.13, 0.00, 0.000, 0.000, 0.000, 13:23:09.751
76, 0.00, 23378.16, 15986.21, 5367.37, -8848.54, 7109.37, 27405.41, 0.00, 0.000, 0.000, 0.000, 13:23:09.751
77, 0.00, 23390.90, 15998.48, 5286.50, -8608.55, 7121.96, 27393.29, 0.00, 0.000, 0.000, 0.000, 13:23:09.752
78, 0.00, 23394.18, 16005.37, 5192.29, -8701.24, 7116.55, 27377.71, 0.00, 0.000, 0.000, 0.000, 13:23:09.752
79, 0.00, 23387.32, 15997.68, 5205.97, -9011.35, 7108.28, 27375.72, 0.00, 0.000, 0.000, 0.000, 13:23:09.752
80, 0.00, 23382.58, 15991.11, 5309.97, -9135.81, 7102.53, 27399.06, 0.00, 0.000, 0.000, 0.000, 13:23:09.752
81, 0.00, 23380.06, 15989.36, 5370.86, -8843.71, 7117.47, 27406.14, 0.00, 0.000, 0.000, 0.000, 13:23:09.752
82, 0.00, 23389.04, 15998.62, 5288.89, -8605.78, 7116.84, 27395.37, 0.00, 0.000, 0.000, 0.000, 13:23:09.752
83, 0.00, 23394.74, 16002.19, 5190.77, -8706.03, 7112.39, 27379.05, 0.00, 0.000, 0.000, 0.000, 13:23:09.753
84, 0.00, 23390.50, 16001.19, 5208.31, -9012.92, 7114.20, 27381.33, 0.00, 0.038, -0.036, 0.990, 13:23:09.753
85, 0.00, 23381.89, 15990.64, 5313.77, -9133.46, 7105.64, 27402.30, 0.00, 0.000, 0.000, 0.000, 13:23:09.753
86, 0.00, 23379.72, 15983.67, 5368.55, -8845.46, 7114.29, 27409.00, 0.00, 0.000, 0.000, 0.000, 13:23:09.753
87, 0.00, 23388.69, 15994.26, 5283.62, -8612.40, 7117.89, 27396.60, 0.00, 0.000, 0.000, 0.000, 13:23:09.753
88, 0.00, 23388.73, 15993.54, 5188.20, -8702.58, 7109.67, 27372.57, 0.00, 0.000, 0.000, 0.000, 13:23:09.753
89, 0.00, 23384.08, 15995.67, 5204.89, -9008.40, 7116.01, 27374.83, 0.00, 0.000, 0.000, 0.000, 13:23:10.213
90, 0.00, 23373.31, 15982.79, 5308.85, -9132.07, 7102.78, 27394.32, 0.00, 0.000, 0.000, 0.000, 13:23:10.213
91, 0.00, 23382.32, 15992.18, 5375.01, -8840.49, 7111.61, 27410.48, 0.00, 0.000, 0.000, 0.000, 13:23:10.213
92, 0.00, 23387.61, 15996.67, 5290.72, -8606.56, 7118.00, 27394.72, 0.00, 0.000, 0.000, 0.000, 13:23:10.214
93, 0.00, 23392.64, 15998.39, 5193.45, -8705.38, 7116.10, 27375.32, 0.00, 0.000, 0.000, 0.000, 13:23:10.214
94, 0.00, 23390.29, 15998.91, 5211.55, -9010.90, 7114.96, 27379.72, 0.00, 0.040, -0.034, 0.992, 13:23:10.214
95, 0.00, 23382.81, 15990.30, 5316.09, -9132.43, 7106.45, 27401.25, 0.00, 0.000, 0.000, 0.000, 13:23:10.214
96, 0.00, 23378.63, 15987.40, 5373.07, -8843.71, 7104.70, 27408.36, 0.00, 0.000, 0.000, 0.000, 13:23:10.214
97, 0.00, 23387.39, 16001.41, 5289.85, -8608.68, 7092.10, 27395.62, 0.00, 0.000, 0.000, 0.000, 13:23:10.214
98, 0.00, 23390.74, 16012.90, 5195.57, -8701.60, 7113.40, 27373.71, 0.00, 0.000, 0.000, 0.000, 13:23:10.214
99, 0.00, 23386.70, 16017.86, 5213.50, -9004.20, 7124.19, 27380.69, 0.00, 0.000, 0.000, 0.000, 13:23:10.214
100, 0.00, 23368.99, 16003.27, 5311.85, -9133.30, 7102.04, 27390.47, 0.00, 0.000, 0.000, 0.000, 13:23:10.214
101, 0.00, 23380.46, 16019.56, 5375.19, -8844.79, 7109.73, 27406.84, 0.00, 0.000, 0.000, 0.000, 13:23:10.214
102, 0.00, 23392.66, 16036.33, 5299.17, -8598.42, 7122.23, 27400.62, 0.00, 0.000, 0.000, 0.000, 13:23:10.214
103, 0.00, 23393.56, 16040.75, 5202.32, -8689.93, 7124.69, 27380.13, 0.00, 0.000, 0.000, 0.000, 13:23:10.214
104, 0.00, 23387.19, 16035.92, 5213.34, -9009.76, 7112.73, 27378.90, 0.00, 0.032, -0.030, 0.994, 13:23:10.215
105, 0.00, 23378.45, 16026.74, 5318.58, -9136.36, 7100.90, 27396.69, 0.00, 0.000, 0.000, 0.000, 13:23:10.215
106, 0.00, 23376.86, 16027.14, 5381.14, -8843.15, 7104.97, 27405.88, 0.00, 0.000, 0.000, 0.000, 13:23:10.215
107, 0.00, 23387.17, 16036.79, 5300.34, -8599.27, 7110.18, 27396.64, 0.00, 0.000, 0.000, 0.000, 13:23:10.215
108, 0.00, 23391.90, 16042.52, 5202.55, -8695.36, 7113.49, 27378.54, 0.00, 0.000, 0.000, 0.000, 13:23:10.215
109, 0.00, 23385.27, 16040.24, 5216.96, -9005.34, 7112.21, 27376.44, 0.00, 0.000, 0.000, 0.000, 13:23:10.215
110, 0.00, 23379.68, 16039.59, 5322.42, -9131.72, 7090.67, 27399.64, 0.00, 0.000, 0.000, 0.000, 13:23:10.215
111, 0.00, 23375.30, 16035.07, 5380.31, -8844.38, 7109.73, 27405.18, 0.00, 0.000, 0.000, 0.000, 13:23:10.215
112, 0.00, 23392.80, 16051.55, 5302.64, -8595.54, 7120.62, 27398.83, 0.00, 0.000, 0.000, 0.000, 13:23:10.215
113, 0.00, 23393.83, 16059.42, 5206.39, -8687.05, 7117.31, 27379.39, 0.00, 0.000, 0.000, 0.000, 13:23:10.215
114, 0.00, 23387.81, 16054.25, 5219.87, -9002.66, 7104.84, 27381.73, 0.00, 0.034, -0.028, 0.988, 13:23:10.215
115, 0.00, 23377.44, 16045.71, 5325.64, -9127.13, 7107.65, 27394.72, 0.00, 0.000, 0.000, 0.000, 13:23:10.215
116, 0.00, 23378.16, 16046.05, 5387.84, -8835.49, 7109.44, 27408.36, 0.00, 0.000, 0.000, 0.000, 13:23:10.216
117, 0.00, 23386.47, 16057.96, 5305.72, -8595.43, 7116.66, 27397.49, 0.00, 0.000, 0.000, 0.000, 13:23:10.216
118, 0.00, 23391.01, 16062.83, 5209.16, -8688.37, 7111.30, 27375.19, 0.00, 0.000, 0.000, 0.000, 13:23:10.216
119, 0.00, 23384.17, 16058.81, 5220.61, -9002.25, 7108.82, 27378.67, 0.00, 0.000, 0.000, 0.000, 13:23:10.216
120, 0.00, 23375.54, 16046.67, 5321.03, -9134.98, 7088.99, 27394.92, 0.00, 0.000, 0.000, 0.000, 13:23:10.217
121, 0.00, 23377.15, 16053.13, 5385.63, -8844.29, 7119.99, 27409.14, 0.00, 0.000, 0.000, 0.000, 13:23:10.217
122, 0.00, 23385.42, 16061.47, 5306.64, -8599.36, 7115.77, 27391.82, 0.00, 0.000, 0.000, 0.000, 13:23:10.217
123, 0.00, 23393.25, 16072.71, 5209.97, -8694.14, 7123.17, 27379.12, 0.00, 0.000, 0.000, 0.000, 13:23:10.217
124, 0.00, 23389.00, 16072.71, 5226.89, -9006.46, 7112.91, 27381.42, 0.00, 0.032, -0.028, 0.992, 13:23:10.217
125, 0.00, 23377.80, 16059.68, 5330.18, -9132.16, 7103.07, 27397.45, 0.00, 0.000, 0.000, 0.000, 13:23:10.217
126, 0.00, 23377.80, 16059.15, 5390.28, -8839.15, 7109.53, 27407.42, 0.00, 0.000, 0.000, 0.000, 13:23:10.217
127, 0.00, 23386.03, 16072.65, 5309.14, -8601.71, 7119.21, 27393.58, 0.00, 0.000, 0.000, 0.000, 13:23:10.217
128, 0.00, 23389.38, 16077.09, 5215.04, -8691.79, 7117.47, 27373.73, 0.00, 0.000, 0.000, 0.000, 13:23:10.217
129, 0.00, 23385.53, 16073.85, 5228.92, -9001.74, 7100.14, 27378.65, 0.00, 0.000, 0.000, 0.000, 13:23:10.217
130, 0.00, 23377.76, 16066.81, 5332.77, -9128.94, 7107.18, 27399.17, 0.00, 0.000, 0.000, 0.000, 13:23:10.217
131, 0.00, 23373.64, 16060.11, 5389.83, -8842.24, 7109.71, 27403.84, 0.00, 0.000, 0.000, 0.000, 13:23:10.217
132, 0.00, 23387.68, 16080.78, 5312.00, -8603.54, 7107.03, 27393.69, 0.00, 0.000, 0.000, 0.000, 13:23:10.218
133, 0.00, 23392.24, 16085.72, 5219.91, -8688.39, 7111.61, 27377.20, 0.00, 0.000, 0.000, 0.000, 13:23:10.218
134, 0.00, 23390.05, 16083.04, 5232.61, -8997.67, 7123.32, 27379.01, 0.00, 0.036, -0.036, 0.994, 13:23:10.218
135, 0.00, 23381.35, 16076.25, 5336.57, -9126.46, 7108.79, 27398.66, 0.00, 0.000, 0.000, 0.000, 13:23:10.218
136, 0.00, 23377.98, 16069.58, 5393.48, -8844.45, 7109.22, 27407.55, 0.00, 0.000, 0.000, 0.000, 13:23:10.218
137, 0.00, 23384.82, 16077.12, 5309.68, -8604.73, 7115.03, 27393.74, 0.00, 0.000, 0.000, 0.000, 13:23:10.218
138, 0.00, 23387.28, 16079.49, 5211.58, -8699.25, 7108.55, 27374.31, 0.00, 0.000, 0.000, 0.000, 13:23:10.218
139, 0.00, 23381.40, 16075.11, 5224.36, -9016.45, 7103.59, 27373.15, 0.00, 0.000, 0.000, 0.000, 13:23:10.218
140, 0.00, 23380.66, 16078.24, 5335.23, -9139.23, 7111.77, 27399.73, 0.00, 0.000, 0.000, 0.000, 13:23:10.218
141, 0.00, 23381.40, 16072.49, 5397.66, -8842.80, 7109.15, 27409.83, 0.00, 0.000, 0.000, 0.000, 13:23:10.219
142, 0.00, 23386.88, 16086.39, 5315.11, -8601.98, 7115.50, 27395.71, 0.00, 0.000, 0.000, 0.000, 13:23:10.219
143, 0.00, 23389.56, 16090.75, 5219.42, -8692.57, 7115.68, 27375.37, 0.00, 0.000, 0.000, 0.000, 13:23:10.219
144, 0.00, 23381.91, 16085.61, 5232.30, -9006.93, 7098.33, 27374.61, 0.00, 0.034, -0.032, 0.994, 13:23:10.219
145, 0.00, 23372.17, 16074.37, 5338.22, -9130.58, 7106.16, 27390.12, 0.00, 0.000, 0.000, 0.000, 13:23:10.219
146, 0.00, 23373.69, 16075.22, 5396.47, -8840.47, 7113.24, 27404.27, 0.00, 0.000, 0.000, 0.000, 13:23:10.219
147, 0.00, 23383.57, 16085.34, 5313.48, -8600.77, 7115.25, 27391.62, 0.00, 0.000, 0.000, 0.000, 13:23:10.219
148, 0.00, 23387.84, 16090.35, 5218.31, -8690.45, 7118.11, 27373.78, 0.00, 0.000, 0.000, 0.000, 13:23:10.219
149, 0.00, 23385.15, 16087.98, 5232.19, -9004.27, 7113.69, 27377.78, 0.00, 0.000, 0.000, 0.000, 13:23:10.219
150, 0.00, 23378.43, 16081.90, 5338.20, -9130.35, 7107.36, 27396.91, 0.00, 0.000, 0.000, 0.000, 13:23:10.219
151, 0.00, 23375.36, 16079.38, 5400.05, -8840.47, 7104.19, 27401.29, 0.00, 0.000, 0.000, 0.000, 13:23:10.219
152, 0.00, 23381.94, 16088.23, 5320.36, -8597.24, 7117.29, 27390.03, 0.00, 0.000, 0.000, 0.000, 13:23:10.219
153, 0.00, 23390.07, 16093.99, 5224.03, -8688.17, 7126.00, 27378.05, 0.00, 0.000, 0.000, 0.000, 13:23:10.220
154, 0.00, 23380.53, 16082.24, 5231.83, -9004.42, 7105.33, 27372.26, 0.00, 0.032, -0.042, 0.992, 13:23:10.220
155, 0.00, 23378.76, 16079.44, 5337.26, -9130.67, 7103.70, 27397.38, 0.00, 0.000, 0.000, 0.000, 13:23:10.220
156, 0.00, 23377.42, 16079.67, 5394.79, -8856.14, 7095.02, 27409.18, 0.00, 0.000, 0.000, 0.000, 13:23:10.220
157, 0.00, 23385.47, 16086.28, 5317.79, -8607.79, 7123.75, 27392.38, 0.00, 0.000, 0.000, 0.000, 13:23:10.220
158, 0.00, 23391.12, 16093.93, 5220.16, -8700.42, 7125.45, 27375.43, 0.00, 0.000, 0.000, 0.000, 13:23:10.220
159, 0.00, 23386.92, 16092.43, 5234.49, -9014.97, 7112.39, 27378.40, 0.00, 0.000, 0.000, 0.000, 13:23:10.220
160, 0.00, 23380.17, 16083.17, 5339.68, -9139.27, 7101.22, 27399.59, 0.00, 0.000, 0.000, 0.000, 13:23:10.220
161, 0.00, 23378.34, 16079.46, 5396.87, -8854.38, 7099.16, 27410.77, 0.00, 0.000, 0.000, 0.000, 13:23:10.221
162, 0.00, 23384.15, 16085.70, 5315.31, -8611.93, 7107.36, 27392.87, 0.00, 0.000, 0.000, 0.000, 13:23:10.221
163, 0.00, 23392.84, 16094.80, 5220.32, -8702.63, 7121.51, 27378.23, 0.00, 0.000, 0.000, 0.000, 13:23:10.221
164, 0.00, 23386.90, 16091.13, 5234.71, -9014.21, 7113.20, 27378.88, 0.00, 0.030, -0.036, 0.990, 13:23:10.221
165, 0.00, 23377.60, 16083.55, 5338.27, -9140.16, 7101.57, 27393.80, 0.00, 0.000, 0.000, 0.000, 13:23:10.221
166, 0.00, 23380.13, 16083.44, 5396.74, -8853.50, 7105.15, 27407.46, 0.00, 0.000, 0.000, 0.000, 13:23:10.221
167, 0.00, 23388.06, 16094.57, 5317.66, -8608.53, 7119.10, 27397.94, 0.00, 0.000, 0.000, 0.000, 13:23:10.221
168, 0.00, 23390.16, 16098.28, 5222.06, -8699.88, 7116.21, 27376.15, 0.00, 0.000, 0.000, 0.000, 13:23:10.221
169, 0.00, 23384.30, 16095.74, 5235.90, -9016.69, 7110.40, 27375.05, 0.00, 0.000, 0.000, 0.000, 13:23:10.221
170, 0.00, 23373.35, 16086.06, 5342.11, -9143.05, 7100.21, 27391.46, 0.00, 0.000, 0.000, 0.000, 13:23:10.221
171, 0.00, 23375.83, 16084.52, 5401.37, -8855.25, 7098.78, 27404.67, 0.00, 0.000, 0.000, 0.000, 13:23:10.221
172, 0.00, 23385.00, 16093.05, 5318.62, -8613.29, 7103.07, 27391.64, 0.00, 0.000, 0.000, 0.000, 13:23:10.221
173, 0.00, 23390.61, 16100.72, 5223.56, -8705.87, 7106.89, 27375.72, 0.00, 0.000, 0.000, 0.000, 13:23:10.221
174, 0.00, 23388.04, 16097.90, 5239.61, -9017.12, 7123.70, 27376.15, 0.00, 0.028, -0.038, 0.988, 13:23:10.221
175, 0.00, 23379.28, 16087.76, 5343.99, -9143.79, 7103.14, 27395.66, 0.00, 0.000, 0.000, 0.000, 13:23:10.221
176, 0.00, 23379.14, 16087.82, 5403.44, -8851.16, 7109.53, 27404.02, 0.00, 0.000, 0.000, 0.000, 13:23:10.222
177, 0.00, 23388.37, 16097.32, 5319.13, -8614.79, 7116.24, 27394.43, 0.00, 0.000, 0.000, 0.000, 13:23:10.222
178, 0.00, 23393.02, 16101.66, 5225.75, -8703.88, 7114.18, 27377.09, 0.00, 0.000, 0.000, 0.000, 13:23:10.222
179, 0.00, 23385.80, 16097.82, 5241.80, -9018.68, 7103.72, 27377.35, 0.00, 0.000, 0.000, 0.000, 13:23:10.222
180, 0.00, 23375.21, 16086.95, 5348.84, -9142.60, 7094.82, 27393.07, 0.00, 0.000, 0.000, 0.000, 13:23:10.224
181, 0.00, 23371.23, 16084.99, 5407.98, -8850.04, 7104.26, 27399.79, 0.00, 0.000, 0.000, 0.000, 13:23:10.224
182, 0.00, 23383.52, 16092.76, 5323.67, -8609.80, 7110.36, 27390.03, 0.00, 0.000, 0.000, 0.000, 13:23:10.224
183, 0.00, 23395.26, 16107.78, 5229.26, -8703.39, 7112.28, 27379.50, 0.00, 0.000, 0.000, 0.000, 13:23:10.224
184, 0.00, 23385.60, 16097.64, 5237.97, -9023.80, 7105.66, 27375.12, 0.00, 0.028, -0.036, 0.996, 13:23:10.224
185, 0.00, 23380.17, 16088.87, 5344.26, -9147.23, 7098.87, 27396.22, 0.00, 0.000, 0.000, 0.000, 13:23:10.224
186, 0.00, 23379.16, 16089.12, 5406.06, -8855.81, 7111.70, 27407.13, 0.00, 0.000, 0.000, 0.000, 13:23:10.224
187, 0.00, 23383.30, 16095.85, 5324.05, -8612.84, 7111.97, 27390.79, 0.00, 0.000, 0.000, 0.000, 13:23:10.224
188, 0.00, 23391.39, 16105.84, 5230.35, -8706.81, 7112.84, 27376.44, 0.00, 0.000, 0.000, 0.000, 13:23:10.224
189, 0.00, 23384.24, 16097.52, 5243.61, -9020.47, 7111.19, 27379.03, 0.00, 0.000, 0.000, 0.000, 13:23:10.224
190, 0.00, 23371.86, 16089.21, 5344.57, -9149.28, 7099.56, 27390.86, 0.00, 0.000, 0.000, 0.000, 13:23:10.224
191, 0.00, 23372.23, 16086.33, 5401.81, -8863.94, 7102.87, 27400.96, 0.00, 0.000, 0.000, 0.000, 13:23:10.224
192, 0.00, 23387.48, 16100.54, 5323.20, -8619.10, 7106.85, 27397.70, 0.00, 0.000, 0.000, 0.000, 13:23:10.224
193, 0.00, 23389.98, 16102.55, 5226.31, -8712.42, 7121.44, 27375.88, 0.00, 0.000, 0.000, 0.000, 13:23:10.224
194, 0.00, 23384.04, 16099.96, 5241.28, -9022.77, 7109.75, 27374.58, 0.00, 0.034, -0.030, 0.996, 13:23:10.225
195, 0.00, 23376.06, 16093.37, 5344.86, -9147.50, 7100.50, 27394.28, 0.00, 0.000, 0.000, 0.000, 13:23:10.225
196, 0.00, 23374.63, 16091.42, 5403.49, -8857.93, 7106.18, 27404.67, 0.00, 0.000, 0.000, 0.000, 13:23:10.225
197, 0.00, 23381.22, 16093.77, 5320.07, -8614.50, 7110.74, 27388.80, 0.00, 0.000, 0.000, 0.000, 13:23:10.225
198, 0.00, 23390.25, 16088.07, 5223.42, -8708.89, 7111.14, 27373.49, 0.00, 0.000, 0.000, 0.000, 13:23:10.225
199, 0.00, 23382.92, 16068.74, 5235.56, -9026.62, 7103.36, 27375.25, 0.00, 0.000, 0.000, 0.000, 13:23:10.225
200, 0.00, 23372.08, 16051.46, 5338.49, -9161.40, 7080.54, 27394.14, 0.00, 0.000, 0.000, 0.000, 13:23:10.225
201, 0.00, 23379.77, 16052.04, 5404.50, -8864.84, 7108.70, 27406.39, 0.00, 0.000, 0.000, 0.000, 13:23:10.225
202, 0.00, 23386.92, 16055.15, 5321.23, -8622.36, 7104.79, 27393.65, 0.00, 0.000, 0.000, 0.000, 13:23:10.225
203, 0.00, 23390.50, 16055.57, 5226.51, -8708.11, 7121.27, 27375.39, 0.00, 0.000, 0.000, 0.000, 13:23:10.226
204, 0.00, 23387.72, 16053.78, 5239.92, -9021.32, 7109.78, 27380.21, 0.00, 0.034, -0.032, 0.994, 13:23:10.226
205, 0.00, 23379.14, 16045.29, 5345.96, -9152.14, 7103.47, 27397.16, 0.00, 0.000, 0.000, 0.000, 13:23:10.226
206, 0.00, 23376.04, 16040.59, 5408.41, -8863.29, 7107.61, 27406.93, 0.00, 0.000, 0.000, 0.000, 13:23:10.226
207, 0.00, 23386.92, 16046.63, 5327.09, -8619.12, 7115.77, 27393.36, 0.00, 0.000, 0.000, 0.000, 13:23:10.226
208, 0.00, 23389.45, 16048.35, 5231.16, -8708.87, 7112.66, 27373.11, 0.00, 0.000, 0.000, 0.000, 13:23:10.226
209, 0.00, 23383.14, 16041.04, 5242.22, -9025.79, 7107.90, 27375.28, 0.00, 0.000, 0.000, 0.000, 13:23:10.695
210, 0.00, 23381.94, 16037.06, 5346.29, -9156.06, 7103.59, 27400.13, 0.00, 0.000, 0.000, 0.000, 13:23:10.695
211, 0.00, 23379.16, 16032.97, 5406.71, -8866.24, 7106.36, 27406.77, 0.00, 0.000, 0.000, 0.000, 13:23:10.695
212, 0.00, 23387.48, 16042.99, 5327.65, -8615.99, 7117.15, 27393.38, 0.00, 0.000, 0.000, 0.000, 13:23:10.696
213, 0.00, 23392.46, 16045.96, 5232.07, -8701.67, 7116.75, 27375.77, 0.00, 0.000, 0.000, 0.000, 13:23:10.696
214, 0.00, 23385.20, 16040.68, 5240.34, -9023.33, 7107.03, 27376.59, 0.00, 0.036, -0.030, 0.994, 13:23:10.696
215, 0.00, 23374.36, 16029.13, 5343.52, -9153.58, 7098.20, 27390.79, 0.00, 0.000, 0.000, 0.000, 13:23:10.696
216, 0.00, 23376.08, 16032.24, 5405.23, -8869.35, 7095.34, 27403.01, 0.00, 0.000, 0.000, 0.000, 13:23:10.696
217, 0.00, 23378.85, 16034.11, 5326.76, -8621.89, 7105.35, 27389.54, 0.00, 0.000, 0.000, 0.000, 13:23:10.696
218, 0.00, 23386.07, 16038.67, 5229.44, -8716.71, 7096.48, 27372.68, 0.00, 0.000, 0.000, 0.000, 13:23:10.696
219, 0.00, 23389.49, 16046.74, 5249.82, -9027.15, 7122.34, 27378.83, 0.00, 0.000, 0.000, 0.000, 13:23:10.697
220, 0.00, 23376.48, 16031.36, 5350.63, -9157.00, 7110.49, 27394.52, 0.00, 0.000, 0.000, 0.000, 13:23:10.697
221, 0.00, 23375.97, 16028.19, 5408.88, -8871.12, 7109.22, 27406.01, 0.00, 0.000, 0.000, 0.000, 13:23:10.697
222, 0.00, 23384.53, 16035.32, 5332.81, -8615.08, 7116.15, 27392.20, 0.00, 0.000, 0.000, 0.000, 13:23:10.697
223, 0.00, 23388.08, 16038.54, 5236.66, -8706.45, 7115.32, 27372.86, 0.00, 0.000, 0.000, 0.000, 13:23:10.697
224, 0.00, 23383.46, 16032.86, 5248.64, -9024.56, 7108.15, 27375.90, 0.00, 0.034, -0.034, 0.996, 13:23:10.697
225, 0.00, 23375.77, 16022.94, 5351.10, -9156.57, 7099.94, 27395.91, 0.00, 0.000, 0.000, 0.000, 13:23:10.697
226, 0.00, 23374.29, 16024.37, 5410.87, -8870.27, 7095.11, 27404.58, 0.00, 0.000, 0.000, 0.000, 13:23:10.697
227, 0.00, 23379.34, 16025.10, 5326.82, -8628.35, 7109.22, 27388.51, 0.00, 0.000, 0.000, 0.000, 13:23:10.698
228, 0.00, 23392.49, 16041.65, 5238.11, -8712.75, 7122.00, 27379.68, 0.00, 0.000, 0.000, 0.000, 13:23:10.698
229, 0.00, 23383.86, 16031.68, 5250.16, -9025.39, 7104.48, 27377.27, 0.00, 0.000, 0.000, 0.000, 13:23:10.698
230, 0.00, 23375.30, 16020.59, 5349.29, -9156.50, 7092.45, 27392.42, 0.00, 0.000, 0.000, 0.000, 13:23:10.698
231, 0.00, 23376.64, 16023.36, 5412.45, -8862.96, 7105.98, 27405.88, 0.00, 0.000, 0.000, 0.000, 13:23:10.698
232, 0.00, 23382.81, 16031.07, 5334.76, -8617.02, 7116.04, 27392.24, 0.00, 0.000, 0.000, 0.000, 13:23:10.698
233, 0.00, 23389.22, 16035.66, 5239.92, -8708.28, 7120.84, 27375.41, 0.00, 0.000, 0.000, 0.000, 13:23:10.698
234, 0.00, 23384.53, 16034.96, 5251.59, -9023.58, 7110.56, 27374.72, 0.00, 0.036, -0.032, 0.994, 13:23:10.699
235, 0.00, 23374.98, 16021.48, 5352.71, -9151.25, 7096.12, 27393.63, 0.00, 0.000, 0.000, 0.000, 13:23:10.699
236, 0.00, 23375.10, 16015.94, 5406.86, -8866.78, 7094.13, 27403.08, 0.00, 0.000, 0.000, 0.000, 13:23:10.699
237, 0.00, 23386.21, 16034.31, 5330.11, -8614.63, 7121.18, 27391.23, 0.00, 0.000, 0.000, 0.000, 13:23:10.699
238, 0.00, 23391.35, 16048.40, 5236.34, -8704.42, 7122.92, 27373.71, 0.00, 0.000, 0.000, 0.000, 13:23:10.699
239, 0.00, 23386.88, 16047.01, 5250.63, -9022.75, 7108.37, 27378.74, 0.00, 0.000, 0.000, 0.000, 13:23:10.700
240, 0.00, 23378.29, 16032.37, 5356.24, -9151.38, 7100.28, 27396.06, 0.00, 0.000, 0.000, 0.000, 13:23:10.700
241, 0.00, 23378.00, 16024.03, 5414.82, -8864.41, 7106.27, 27404.87, 0.00, 0.000, 0.000, 0.000, 13:23:10.700
242, 0.00, 23385.36, 16029.02, 5334.47, -8619.32, 7109.40, 27389.20, 0.00, 0.000, 0.000, 0.000, 13:23:10.700
243, 0.00, 23393.65, 16035.12, 5243.83, -8704.46, 7117.91, 27375.14, 0.00, 0.000, 0.000, 0.000, 13:23:10.700
244, 0.00, 23388.08, 16029.35, 5257.31, -9016.34, 7112.19, 27378.00, 0.00, 0.032, -0.028, 0.990, 13:23:10.700
245, 0.00, 23376.37, 16022.15, 5356.64, -9151.00, 7104.30, 27393.52, 0.00, 0.000, 0.000, 0.000, 13:23:10.701
246, 0.00, 23374.58, 16020.34, 5412.39, -8867.88, 7095.16, 27404.91, 0.00, 0.000, 0.000, 0.000, 13:23:10.701
247, 0.00, 23379.16, 16027.63, 5332.19, -8623.35, 7103.47, 27386.25, 0.00, 0.000, 0.000, 0.000, 13:23:10.701
248, 0.00, 23393.22, 16043.23, 5242.76, -8705.33, 7115.25, 27375.63, 0.00, 0.000, 0.000, 0.000, 13:23:10.701
249, 0.00, 23389.04, 16050.63, 5256.82, -9019.40, 7119.99, 27374.94, 0.00, 0.000, 0.000, 0.000, 13:23:10.701
250, 0.00, 23377.26, 16038.56, 5356.62, -9152.77, 7103.56, 27393.58, 0.00, 0.000, 0.000, 0.000, 13:23:10.701
251, 0.00, 23377.15, 16032.48, 5413.23, -8869.48, 7104.41, 27403.77, 0.00, 0.000, 0.000, 0.000, 13:23:10.701
252, 0.00, 23380.10, 16032.26, 5332.61, -8624.20, 7107.36, 27386.27, 0.00, 0.000, 0.000, 0.000, 13:23:10.702
253, 0.00, 23381.55, 16024.10, 5238.09, -8709.92, 7105.15, 27365.33, 0.00, 0.000, 0.000, 0.000, 13:23:10.702
254, 0.00, 23388.33, 16034.27, 5257.73, -9018.15, 7106.87, 27378.90, 0.00, 0.038, -0.032, 0.990, 13:23:10.702
255, 0.00, 23379.77, 16024.14, 5359.81, -9150.51, 7093.39, 27396.13, 0.00, 0.000, 0.000, 0.000, 13:23:10.702
0, 0.00, 23375.30, 16018.85, 5420.45, -8856.74, 7106.78, 27404.15, 0.00, 0.000, 0.000, 0.000, 13:23:10.702
1, 0.00, 23382.34, 16025.71, 5338.18, -8615.77, 7101.89, 27394.88, 0.00, 0.000, 0.000, 0.000, 13:23:10.702
2, 0.00, 23388.04, 16031.14, 5243.47, -8706.21, 7123.79, 27372.24, 0.00, 0.000, 0.000, 0.000, 13:23:10.702
3, 0.00, 23384.24, 16031.30, 5255.88, -9018.41, 7110.96, 27374.36, 0.00, 0.000, 0.000, 0.000, 13:23:10.703
4, 0.00, 23376.95, 16020.25, 5358.85, -9150.49, 7100.43, 27396.80, 0.00, 0.000, 0.000, 0.000, 13:23:10.703
5, 0.00, 23376.95, 16016.03, 5418.35, -8863.99, 7101.19, 27405.27, 0.00, 0.000, 0.000, 0.000, 13:23:10.703
6, 0.00, 23383.21, 16020.72, 5337.28, -8618.79, 7105.80, 27389.33, 0.00, 0.000, 0.000, 0.000, 13:23:10.703
7, 0.00, 23391.81, 16033.26, 5245.71, -8705.47, 7113.62, 27375.70, 0.00, 0.000, 0.000, 0.000, 13:23:10.703
8, 0.00, 23385.18, 16034.76, 5256.86, -9023.29, 7108.70, 27376.84, 0.00, 0.028, -0.036, 0.994, 13:23:10.703
9, 0.00, 23377.53, 16033.60, 5356.95, -9154.65, 7102.36, 27394.07, 0.00, 0.000, 0.000, 0.000, 13:23:10.704
10, 0.00, 23370.07, 16028.61, 5413.17, -8868.30, 7098.47, 27398.70, 0.00, 0.000, 0.000, 0.000, 13:23:10.704
11, 0.00, 23381.11, 16034.16, 5334.94, -8626.68, 7108.37, 27385.96, 0.00, 0.000, 0.000, 0.000, 13:23:10.704
12, 0.00, 23392.57, 16041.76, 5246.11, -8709.65, 7116.71, 27376.71, 0.00, 0.000, 0.000, 0.000, 13:23:10.704
13, 0.00, 23386.07, 16035.43, 5259.50, -9020.54, 7106.33, 27377.11, 0.00, 0.000, 0.000, 0.000, 13:23:10.704
14, 0.00, 23375.74, 16028.32, 5362.32, -9149.89, 7095.31, 27392.46, 0.00, 0.000, 0.000, 0.000, 13:23:10.705
15, 0.00, 23372.66, 16029.96, 5422.60, -8865.04, 7103.14, 27398.07, 0.00, 0.000, 0.000, 0.000, 13:23:10.706
16, 0.00, 23383.90, 16037.78, 5348.55, -8613.96, 7111.41, 27390.05, 0.00, 0.000, 0.000, 0.000, 13:23:10.706
17, 0.00, 23383.99, 16027.07, 5249.93, -8712.84, 7092.50, 27366.58, 0.00, 0.000, 0.000, 0.000, 13:23:10.706
18, 0.00, 23384.75, 16031.97, 5265.44, -9028.34, 7104.01, 27374.81, 0.00, 0.028, -0.038, 0.996, 13:23:10.706
19, 0.00, 23374.36, 16028.06, 5370.07, -9150.56, 7105.66, 27390.88, 0.00, 0.000, 0.000, 0.000, 13:23:10.707
20, 0.00, 23373.98, 16019.94, 5425.89, -8859.45, 7097.30, 27403.60, 0.00, 0.000, 0.000, 0.000, 13:23:10.707
21, 0.00, 23382.85, 16033.75, 5344.61, -8617.20, 7110.42, 27387.26, 0.00, 0.000, 0.000, 0.000, 13:23:10.707
22, 0.00, 23384.69, 16043.99, 5249.80, -8715.59, 7103.23, 27367.77, 0.00, 0.000, 0.000, 0.000, 13:23:10.707
23, 0.00, 23382.36, 16043.77, 5265.67, -9033.14, 7109.42, 27372.15, 0.00, 0.000, 0.000, 0.000, 13:23:10.707
24, 0.00, 23375.41, 16040.08, 5369.63, -9160.68, 7096.88, 27392.69, 0.00, 0.000, 0.000, 0.000, 13:23:10.707
25, 0.00, 23373.46, 16028.52, 5426.35, -8873.58, 7091.36, 27400.62, 0.00, 0.000, 0.000, 0.000, 13:23:10.707
26, 0.00, 23386.29, 16038.23, 5346.81, -8627.39, 7114.74, 27390.86, 0.00, 0.000, 0.000, 0.000, 13:23:10.707
27, 0.00, 23381.47, 16041.13, 5252.44, -8714.18, 7104.93, 27363.03, 0.00, 0.000, 0.000, 0.000, 13:23:10.708
28, 0.00, 23383.03, 16051.48, 5266.29, -9034.15, 7094.47, 27372.68, 0.00, 0.030, -0.036, 0.996, 13:23:10.708
29, 0.00, 23378.56, 16051.03, 5372.55, -9161.80, 7098.42, 27396.55, 0.00, 0.000, 0.000, 0.000, 13:23:10.708
30, 0.00, 23374.52, 16049.60, 5428.64, -8874.31, 7100.50, 27403.89, 0.00, 0.000, 0.000, 0.000, 13:23:10.708
31, 0.00, 23376.68, 16054.27, 5346.67, -8627.37, 7107.99, 27384.26, 0.00, 0.000, 0.000, 0.000, 13:23:10.708
32, 0.00, 23386.65, 16059.15, 5256.30, -8716.62, 7114.87, 27368.32, 0.00, 0.000, 0.000, 0.000, 13:23:10.708
33, 0.00, 23383.57, 16061.99, 5275.88, -9026.28, 7107.54, 27372.95, 0.00, 0.000, 0.000, 0.000, 13:23:10.708
34, 0.00, 23375.86, 16045.38, 5378.75, -9151.45, 7101.89, 27392.93, 0.00, 0.000, 0.000, 0.000, 13:23:10.709
35, 0.00, 23373.20, 16036.33, 5433.84, -8864.21, 7096.77, 27402.50, 0.00, 0.000, 0.000, 0.000, 13:23:10.709
36, 0.00, 23381.02, 16043.77, 5353.04, -8617.92, 7107.61, 27387.01, 0.00, 0.000, 0.000, 0.000, 13:23:10.709
37, 0.00, 23389.00, 16041.65, 5256.86, -8710.85, 7115.03, 27370.07, 0.00, 0.000, 0.000, 0.000, 13:23:10.709
38, 0.00, 23385.82, 16037.85, 5271.44, -9030.57, 7103.61, 27377.40, 0.00, 0.034, -0.036, 0.994, 13:23:10.709
39, 0.00, 23374.96, 16023.81, 5373.11, -9158.05, 7087.63, 27392.98, 0.00, 0.000, 0.000, 0.000, 13:23:10.709
40, 0.00, 23375.92, 16025.19, 5430.94, -8866.29, 7110.18, 27400.89, 0.00, 0.000, 0.000, 0.000, 13:23:10.709
41, 0.00, 23383.66, 16030.80, 5349.31, -8629.02, 7113.78, 27387.66, 0.00, 0.000, 0.000, 0.000, 13:23:10.709
42, 0.00, 23386.36, 16036.95, 5260.06, -8711.61, 7110.29, 27370.74, 0.00, 0.000, 0.000, 0.000, 13:23:10.710
43, 0.00, 23384.08, 16040.15, 5272.60, -9027.20, 7101.44, 27375.12, 0.00, 0.000, 0.000, 0.000, 13:23:10.710
44, 0.00, 23376.04, 16045.45, 5374.54, -9155.25, 7097.10, 27396.87, 0.00, 0.000, 0.000, 0.000, 13:23:10.713
45, 0.00, 23374.38, 16048.64, 5433.69, -8864.30, 7098.49, 27403.57, 0.00, 0.000, 0.000, 0.000, 13:23:10.713
46, 0.00, 23381.80, 16052.67, 5356.95, -8616.80, 7110.56, 27387.64, 0.00, 0.000, 0.000, 0.000, 13:23:10.713
47, 0.00, 23389.38, 16044.62, 5263.28, -8711.50, 7103.34, 27375.70, 0.00, 0.000, 0.000, 0.000, 13:23:10.713
48, 0.00, 23387.10, 16032.75, 5273.51, -9036.03, 7104.37, 27378.05, 0.00, 0.032, -0.028, 0.996, 13:23:10.713
49, 0.00, 23379.23, 16026.96, 5379.77, -9157.42, 7100.39, 27397.31, 0.00, 0.000, 0.000, 0.000, 13:23:10.713
50, 0.00, 23377.55, 16025.49, 5439.50, -8866.24, 7099.99, 27404.29, 0.00, 0.000, 0.000, 0.000, 13:23:10.713
51, 0.00, 23382.85, 16031.43, 5359.46, -8620.04, 7102.96, 27389.36, 0.00, 0.000, 0.000, 0.000, 13:23:10.714
52, 0.00, 23388.13, 16035.52, 5266.43, -8711.44, 7102.40, 27370.29, 0.00, 0.000, 0.000, 0.000, 13:23:10.714
53, 0.00, 23385.27, 16035.50, 5277.72, -9035.60, 7104.19, 27373.06, 0.00, 0.000, 0.000, 0.000, 13:23:10.714
54, 0.00, 23376.26, 16031.99, 5380.96, -9158.49, 7092.68, 27390.07, 0.00, 0.000, 0.000, 0.000, 13:23:10.714
55, 0.00, 23375.05, 16038.36, 5434.65, -8867.65, 7096.92, 27399.17, 0.00, 0.000, 0.000, 0.000, 13:23:10.714
56, 0.00, 23383.30, 16047.12, 5353.31, -8624.78, 7100.63, 27390.03, 0.00, 0.000, 0.000, 0.000, 13:23:10.714
57, 0.00, 23389.33, 16046.83, 5264.15, -8710.09, 7110.18, 27373.33, 0.00, 0.000, 0.000, 0.000, 13:23:10.714
58, 0.00, 23383.57, 16045.51, 5276.69, -9025.77, 7107.83, 27373.49, 0.00, 0.032, -0.034, 1.000, 13:23:10.714
59, 0.00, 23374.94, 16045.62, 5376.11, -9156.93, 7097.39, 27391.64, 0.00, 0.000, 0.000, 0.000, 13:23:10.715
60, 0.00, 23371.90, 16043.72, 5434.89, -8866.22, 7090.33, 27401.27, 0.00, 0.000, 0.000, 0.000, 13:23:10.715
61, 0.00, 23378.65, 16056.46, 5354.23, -8628.26, 7090.33, 27387.70, 0.00, 0.000, 0.000, 0.000, 13:23:10.715
62, 0.00, 23387.68, 16071.60, 5265.67, -8715.64, 7120.62, 27371.68, 0.00, 0.000, 0.000, 0.000, 13:23:10.715
63, 0.00, 23382.49, 16067.55, 5279.97, -9027.47, 7108.03, 27373.49, 0.00, 0.000, 0.000, 0.000, 13:23:10.715
64, 0.00, 23375.79, 16062.88, 5380.09, -9156.17, 7094.89, 27396.60, 0.00, 0.000, 0.000, 0.000, 13:23:10.715
65, 0.00, 23372.53, 16061.99, 5436.12, -8866.00, 7101.55, 27403.08, 0.00, 0.000, 0.000, 0.000, 13:23:10.715
66, 0.00, 23381.94, 16068.02, 5353.53, -8621.83, 7107.43, 27388.69, 0.00, 0.000, 0.000, 0.000, 13:23:10.716
67, 0.00, 23387.21, 16068.69, 5261.67, -8711.15, 7110.11, 27372.33, 0.00, 0.032, -0.028, 0.998, 13:23:10.716
68, 0.00, 23378.58, 16064.31, 5270.74, -9034.24, 7097.60, 27371.63, 0.00, 0.000, 0.000, 0.000, 13:23:10.716
69, 0.00, 23369.04, 16059.91, 5372.55, -9163.46, 7092.39, 27388.42, 0.00, 0.000, 0.000, 0.000, 13:23:10.716
70, 0.00, 23372.95, 16063.48, 5435.14, -8865.08, 7100.77, 27401.79, 0.00, 0.000, 0.000, 0.000, 13:23:10.716
71, 0.00, 23383.30, 16072.20, 5355.57, -8618.30, 7107.70, 27389.63, 0.00, 0.000, 0.000, 0.000, 13:23:10.716
72, 0.00, 23386.94, 16077.05, 5259.88, -8715.21, 7104.39, 27371.52, 0.00, 0.000, 0.000, 0.000, 13:23:10.716
73, 0.00, 23381.73, 16078.41, 5275.41, -9029.34, 7103.79, 27372.28, 0.00, 0.000, 0.000, 0.000, 13:23:11.176
74, 0.00, 23372.68, 16069.70, 5378.25, -9151.83, 7097.15, 27390.56, 0.00, 0.000, 0.000, 0.000, 13:23:11.176
75, 0.00, 23373.40, 16068.31, 5432.14, -8866.29, 7100.55, 27401.14, 0.00, 0.000, 0.000, 0.000, 13:23:11.178
76, 0.00, 23378.00, 16078.30, 5352.42, -8623.97, 7103.92, 27385.31, 0.00, 0.000, 0.000, 0.000, 13:23:11.178
77, 0.00, 23383.63, 16085.68, 5261.38, -8715.41, 7096.63, 27367.83, 0.00, 0.028, -0.036, 0.998, 13:23:11.179
78, 0.00, 23381.42, 16083.87, 5275.75, -9031.00, 7106.04, 27371.65, 0.00, 0.000, 0.000, 0.000, 13:23:11.179
79, 0.00, 23373.06, 16073.18, 5375.57, -9158.72, 7093.95, 27390.41, 0.00, 0.000, 0.000, 0.000, 13:23:11.179
80, 0.00, 23371.50, 16072.42, 5432.55, -8864.86, 7098.71, 27398.28, 0.00, 0.000, 0.000, 0.000, 13:23:11.179
81, 0.00, 23379.39, 16082.91, 5353.00, -8620.15, 7100.90, 27386.79, 0.00, 0.000, 0.000, 0.000, 13:23:11.180
82, 0.00, 23384.35, 16089.84, 5261.13, -8715.55, 7103.70, 27367.83, 0.00, 0.000, 0.000, 0.000, 13:23:11.180
83, 0.00, 23385.06, 16090.93, 5275.97, -9037.73, 7105.71, 27376.39, 0.00, 0.000, 0.000, 0.000, 13:23:11.180
84, 0.00, 23375.28, 16081.54, 5377.56, -9166.16, 7098.87, 27394.54, 0.00, 0.000, 0.000, 0.000, 13:23:11.181
85, 0.00, 23375.16, 16078.35, 5434.22, -8868.12, 7098.87, 27402.84, 0.00, 0.000, 0.000, 0.000, 13:23:11.181
86, 0.00, 23383.46, 16090.33, 5354.72, -8622.12, 7106.25, 27388.73, 0.00, 0.000, 0.000, 0.000, 13:23:11.181
87, 0.00, 23386.27, 16097.12, 5264.48, -8712.87, 7102.69, 27371.81, 0.00, 0.032, -0.030, 0.996, 13:23:11.181
88, 0.00, 23383.37, 16095.07, 5277.90, -9031.13, 7101.66, 27374.16, 0.00, 0.000, 0.000, 0.000, 13:23:11.182
89, 0.00, 23373.38, 16087.02, 5378.59, -9160.28, 7096.81, 27391.44, 0.00, 0.000, 0.000, 0.000, 13:23:11.182
90, 0.00, 23373.06, 16085.61, 5436.30, -8865.19, 7099.27, 27401.76, 0.00, 0.000, 0.000, 0.000, 13:23:11.182
91, 0.00, 23380.62, 16092.76, 5356.08, -8619.26, 7106.98, 27388.26, 0.00, 0.000, 0.000, 0.000, 13:23:11.183
92, 0.00, 23383.21, 16092.12, 5261.56, -8712.98, 7103.16, 27368.66, 0.00, 0.000, 0.000, 0.000, 13:23:11.183
93, 0.00, 23381.80, 16097.70, 5274.32, -9036.56, 7099.65, 27374.29, 0.00, 0.000, 0.000, 0.000, 13:23:11.183
94, 0.00, 23369.78, 16081.10, 5373.20, -9163.86, 7092.30, 27389.18, 0.00, 0.000, 0.000, 0.000, 13:23:11.183
95, 0.00, 23369.62, 16074.79, 5430.11, -8867.09, 7093.73, 27399.62, 0.00, 0.000, 0.000, 0.000, 13:23:11.184
96, 0.00, 23379.74, 16087.09, 5351.03, -8622.23, 7109.26, 27386.27, 0.00, 0.000, 0.000, 0.000, 13:23:11.184
97, 0.00, 23385.33, 16084.56, 5261.06, -8714.23, 7107.72, 27368.50, 0.00, 0.034, -0.032, 0.998, 13:23:11.184
98, 0.00, 23381.11, 16076.47, 5277.18, -9027.98, 7103.12, 27374.70, 0.00, 0.000, 0.000, 0.000, 13:23:11.184
99, 0.00, 23371.83, 16056.98, 5377.90, -9153.29, 7092.41, 27393.58, 0.00, 0.000, 0.000, 0.000, 13:23:11.184
100, 0.00, 23367.43, 16047.79, 5434.80, -8856.83, 7094.38, 27396.73, 0.00, 0.000, 0.000, 0.000, 13:23:11.184
101, 0.00, 23376.35, 16061.07, 5353.27, -8610.83, 7103.25, 27381.87, 0.00, 0.000, 0.000, 0.000, 13:23:11.184
102, 0.00, 23380.06, 16080.47, 5257.20, -8713.51, 7095.58, 27365.40, 0.00, 0.000, 0.000, 0.000, 13:23:11.184
103, 0.00, 23378.98, 16070.52, 5269.58, -9039.89, 7086.89, 27370.40, 0.00, 0.000, 0.000, 0.000, 13:23:11.184
104, 0.00, 23372.48, 16051.82, 5379.48, -9156.53, 7104.01, 27389.69, 0.00, 0.000, 0.000, 0.000, 13:23:11.186
105, 0.00, 23367.43, 16041.15, 5436.06, -8865.04, 7099.72, 27396.00, 0.00, 0.000, 0.000, 0.000, 13:23:11.186
106, 0.00, 23371.90, 16040.13, 5354.16, -8625.05, 7099.47, 27379.61, 0.00, 0.000, 0.000, 0.000, 13:23:11.186
107, 0.00, 23379.88, 16045.91, 5265.31, -8714.41, 7108.30, 27363.25, 0.00, 0.032, -0.026, 0.992, 13:23:11.186
108, 0.00, 23375.21, 16044.37, 5281.36, -9028.32, 7100.23, 27367.23, 0.00, 0.000, 0.000, 0.000, 13:23:11.187
109, 0.00, 23365.53, 16032.30, 5382.59, -9154.49, 7090.40, 27385.76, 0.00, 0.000, 0.000, 0.000, 13:23:11.187
110, 0.00, 23363.12, 16023.88, 5435.97, -8863.99, 7087.31, 27393.60, 0.00, 0.000, 0.000, 0.000, 13:23:11.187
111, 0.00, 23374.69, 16037.29, 5357.69, -8621.96, 7107.41, 27380.51, 0.00, 0.000, 0.000, 0.000, 13:23:11.187
112, 0.00, 23379.68, 16040.06, 5265.49, -8718.41, 7109.15, 27364.46, 0.00, 0.000, 0.000, 0.000, 13:23:11.187
113, 0.00, 23374.74, 16037.33, 5277.43, -9038.38, 7098.78, 27367.68, 0.00, 0.000, 0.000, 0.000, 13:23:11.188
114, 0.00, 23369.17, 16045.07, 5379.60, -9159.43, 7090.60, 27387.61, 0.00, 0.000, 0.000, 0.000, 13:23:11.188
115, 0.00, 23367.09, 16057.16, 5436.35, -8862.60, 7097.89, 27395.73, 0.00, 0.000, 0.000, 0.000, 13:23:11.188
116, 0.00, 23372.79, 16068.09, 5353.09, -8620.42, 7101.86, 27380.69, 0.00, 0.000, 0.000, 0.000, 13:23:11.188
117, 0.00, 23374.76, 16073.27, 5259.19, -8716.89, 7092.54, 27362.02, 0.00, 0.028, -0.028, 0.994, 13:23:11.188
118, 0.00, 23368.59, 16074.55, 5274.94, -9037.10, 7079.92, 27364.55, 0.00, 0.000, 0.000, 0.000, 13:23:11.188
119, 0.00, 23365.69, 16073.92, 5381.16, -9151.14, 7104.46, 27386.81, 0.00, 0.000, 0.000, 0.000, 13:23:11.188
120, 0.00, 23367.09, 16075.78, 5438.98, -8849.06, 7104.59, 27394.74, 0.00, 0.000, 0.000, 0.000, 13:23:11.189
121, 0.00, 23373.58, 16078.12, 5350.98, -8615.64, 7105.98, 27379.34, 0.00, 0.000, 0.000, 0.000, 13:23:11.189
122, 0.00, 23379.95, 16084.38, 5256.88, -8721.65, 7099.67, 27363.47, 0.00, 0.000, 0.000, 0.000, 13:23:11.190
123, 0.00, 23376.39, 16078.17, 5273.92, -9040.32, 7097.21, 27368.26, 0.00, 0.000, 0.000, 0.000, 13:23:11.190
124, 0.00, 23367.27, 16062.66, 5376.29, -9158.83, 7098.29, 27387.90, 0.00, 0.000, 0.000, 0.000, 13:23:11.190
125, 0.00, 23366.49, 16054.61, 5429.71, -8860.39, 7095.78, 27395.86, 0.00, 0.000, 0.000, 0.000, 13:23:11.190
126, 0.00, 23376.44, 16076.09, 5350.96, -8613.54, 7103.45, 27382.96, 0.00, 0.000, 0.000, 0.000, 13:23:11.190
127, 0.00, 23379.79, 16084.67, 5263.41, -8706.03, 7105.75, 27364.05, 0.00, 0.028, -0.030, 1.000, 13:23:11.191
128, 0.00, 23376.77, 16086.39, 5280.62, -9025.77, 7101.17, 27369.75, 0.00, 0.000, 0.000, 0.000, 13:23:11.191
129, 0.00, 23368.32, 16072.83, 5380.47, -9154.40, 7086.71, 27389.27, 0.00, 0.000, 0.000, 0.000, 13:23:11.191
130, 0.00, 23369.62, 16059.57, 5435.18, -8861.71, 7097.48, 27398.70, 0.00, 0.000, 0.000, 0.000, 13:23:11.191
131, 0.00, 23375.21, 16061.76, 5354.14, -8618.00, 7105.98, 27382.32, 0.00, 0.000, 0.000, 0.000, 13:23:11.191
132, 0.00, 23379.23, 16062.97, 5259.16, -8720.35, 7103.09, 27364.97, 0.00, 0.000, 0.000, 0.000, 13:23:11.191
133, 0.00, 23377.44, 16062.57, 5274.68, -9040.52, 7100.03, 27369.89, 0.00, 0.000, 0.000, 0.000, 13:23:11.192
134, 0.00, 23369.20, 16063.82, 5375.19, -9159.32, 7078.89, 27390.86, 0.00, 0.000, 0.000, 0.000, 13:23:11.193
135, 0.00, 23367.27, 16061.09, 5428.12, -8859.72, 7093.62, 27394.10, 0.00, 0.000, 0.000, 0.000, 13:23:11.193
136, 0.00, 23376.13, 16068.20, 5348.10, -8620.08, 7104.79, 27380.24, 0.00, 0.000, 0.000, 0.000, 13:23:11.193
137, 0.00, 23383.01, 16078.55, 5261.44, -8713.98, 7106.56, 27368.01, 0.00, 0.028, -0.030, 0.992, 13:23:11.193
138, 0.00, 23377.93, 16074.39, 5278.88, -9030.84, 7095.47, 27371.81, 0.00, 0.000, 0.000, 0.000, 13:23:11.193
139, 0.00, 23368.84, 16064.76, 5378.95, -9156.53, 7076.25, 27388.40, 0.00, 0.000, 0.000, 0.000, 13:23:11.193
140, 0.00, 23367.05, 16065.45, 5433.06, -8860.28, 7100.43, 27395.44, 0.00, 0.000, 0.000, 0.000, 13:23:11.193
141, 0.00, 23374.74, 16085.16, 5352.42, -8622.61, 7107.32, 27381.36, 0.00, 0.000, 0.000, 0.000, 13:23:11.193
142, 0.00, 23378.47, 16077.07, 5260.39, -8717.56, 7103.74, 27361.19, 0.00, 0.000, 0.000, 0.000, 13:23:11.194
143, 0.00, 23377.49, 16062.43, 5274.16, -9037.79, 7097.35, 27367.32, 0.00, 0.000, 0.000, 0.000, 13:23:11.194
144, 0.00, 23367.56, 16046.23, 5373.27, -9161.00, 7083.16, 27384.46, 0.00, 0.000, 0.000, 0.000, 13:23:11.194
145, 0.00, 23366.15, 16051.46, 5428.17, -8861.28, 7086.02, 27394.63, 0.00, 0.000, 0.000, 0.000, 13:23:11.194
146, 0.00, 23375.21, 16079.42, 5349.42, -8615.17, 7107.92, 27380.44, 0.00, 0.000, 0.000, 0.000, 13:23:11.194
147, 0.00, 23379.46, 16090.15, 5262.18, -8707.55, 7108.23, 27361.44, 0.00, 0.032, -0.030, 0.992, 13:23:11.194
148, 0.00, 23375.34, 16086.26, 5279.12, -9024.85, 7096.59, 27366.56, 0.00, 0.000, 0.000, 0.000, 13:23:11.195
149, 0.00, 23369.35, 16081.39, 5379.91, -9150.00, 7087.72, 27388.29, 0.00, 0.000, 0.000, 0.000, 13:23:11.195
150, 0.00, 23367.43, 16080.81, 5434.54, -8854.00, 7096.61, 27394.83, 0.00, 0.000, 0.000, 0.000, 13:23:11.196
151, 0.00, 23371.21, 16080.58, 5353.11, -8614.34, 7103.56, 27377.60, 0.00, 0.000, 0.000, 0.000, 13:23:11.196
152, 0.00, 23376.93, 16083.82, 5258.87, -8721.47, 7103.23, 27360.03, 0.00, 0.000, 0.000, 0.000, 13:23:11.196
153, 0.00, 23379.92, 16087.60, 5277.40, -9039.31, 7097.04, 27369.17, 0.00, 0.000, 0.000, 0.000, 13:23:11.196
154, 0.00, 23372.41, 16078.79, 5382.19, -9153.64, 7093.64, 27388.84, 0.00, 0.000, 0.000, 0.000, 13:23:11.197
155, 0.00, 23371.01, 16060.38, 5434.67, -8858.53, 7098.87, 27396.55, 0.00, 0.000, 0.000, 0.000, 13:23:11.197
156, 0.00, 23375.97, 16056.69, 5354.32, -8619.01, 7103.81, 27381.33, 0.00, 0.000, 0.000, 0.000, 13:23:11.197
157, 0.00, 23378.67, 16055.91, 5265.49, -8714.10, 7107.39, 27362.56, 0.00, 0.026, -0.028, 0.990, 13:23:11.197
158, 0.00, 23374.16, 16047.46, 5279.93, -9034.78, 7097.39, 27365.22, 0.00, 0.000, 0.000, 0.000, 13:23:11.197
159, 0.00, 23367.76, 16046.61, 5383.31, -9153.91, 7094.22, 27386.43, 0.00, 0.000, 0.000, 0.000, 13:23:11.197
160, 0.00, 23366.27, 16044.98, 5437.49, -8854.89, 7096.50, 27392.58, 0.00, 0.000, 0.000, 0.000, 13:23:11.197
161, 0.00, 23374.07, 16044.51, 5353.27, -8617.63, 7102.85, 27377.47, 0.00, 0.000, 0.000, 0.000, 13:23:11.197
162, 0.00, 23379.68, 16048.02, 5262.81, -8720.85, 7103.81, 27362.96, 0.00, 0.000, 0.000, 0.000, 13:23:11.197
163, 0.00, 23375.88, 16043.68, 5280.11, -9042.55, 7088.88, 27365.49, 0.00, 0.000, 0.000, 0.000, 13:23:11.197
164, 0.00, 23367.43, 16034.07, 5383.55, -9157.26, 7076.07, 27384.66, 0.00, 0.000, 0.000, 0.000, 13:23:11.199
165, 0.00, 23367.96, 16030.78, 5438.69, -8852.94, 7106.02, 27393.13, 0.00, 0.000, 0.000, 0.000, 13:23:11.199
166, 0.00, 23375.48, 16038.45, 5354.67, -8613.96, 7103.12, 27378.96, 0.00, 0.000, 0.000, 0.000, 13:23:11.200
167, 0.00, 23380.39, 16042.47, 5263.70, -8718.83, 7102.20, 27361.98, 0.00, 0.028, -0.030, 0.990, 13:23:11.200
168, 0.00, 23373.35, 16036.48, 5281.65, -9039.87, 7091.90, 27363.00, 0.00, 0.000, 0.000, 0.000, 13:23:11.200
169, 0.00, 23364.32, 16022.42, 5381.52, -9158.47, 7082.73, 27381.47, 0.00, 0.000, 0.000, 0.000, 13:23:11.200
170, 0.00, 23368.41, 16022.58, 5435.70, -8861.17, 7083.74, 27395.50, 0.00, 0.000, 0.000, 0.000, 13:23:11.200
171, 0.00, 23378.22, 16036.30, 5359.19, -8613.02, 7111.48, 27381.24, 0.00, 0.000, 0.000, 0.000, 13:23:11.200
172, 0.00, 23381.42, 16041.76, 5270.70, -8712.98, 7106.07, 27364.39, 0.00, 0.000, 0.000, 0.000, 13:23:11.200
173, 0.00, 23376.33, 16035.14, 5284.49, -9039.78, 7096.68, 27365.64, 0.00, 0.000, 0.000, 0.000, 13:23:11.200
174, 0.00, 23369.42, 16029.26, 5389.92, -9154.42, 7094.24, 27386.12, 0.00, 0.000, 0.000, 0.000, 13:23:11.201
175, 0.00, 23365.98, 16024.57, 5443.16, -8855.74, 7092.52, 27390.52, 0.00, 0.000, 0.000, 0.000, 13:23:11.201
176, 0.00, 23375.74, 16032.91, 5359.64, -8621.20, 7098.22, 27379.01, 0.00, 0.000, 0.000, 0.000, 13:23:11.201
177, 0.00, 23384.48, 16039.90, 5270.23, -8726.81, 7106.38, 27366.04, 0.00, 0.026, -0.032, 0.988, 13:23:11.201
178, 0.00, 23376.46, 16032.77, 5291.17, -9039.60, 7095.36, 27365.06, 0.00, 0.000, 0.000, 0.000, 13:23:11.201
179, 0.00, 23367.47, 16022.62, 5391.89, -9157.11, 7075.04, 27385.07, 0.00, 0.000, 0.000, 0.000, 13:23:11.201
180, 0.00, 23365.69, 16019.81, 5444.17, -8853.21, 7087.96, 27392.75, 0.00, 0.000, 0.000, 0.000, 13:23:11.201
181, 0.00, 23374.60, 16028.66, 5360.75, -8613.98, 7106.13, 27377.18, 0.00, 0.000, 0.000, 0.000, 13:23:11.202
182, 0.00, 23380.86, 16035.79, 5273.07, -8716.06, 7105.26, 27362.92, 0.00, 0.000, 0.000, 0.000, 13:23:11.202
183, 0.00, 23375.28, 16029.75, 5287.44, -9043.99, 7091.07, 27365.89, 0.00, 0.000, 0.000, 0.000, 13:23:11.202
184, 0.00, 23365.08, 16019.92, 5389.47, -9159.28, 7083.20, 27383.57, 0.00, 0.000, 0.000, 0.000, 13:23:11.202
185, 0.00, 23363.67, 16015.23, 5440.53, -8859.54, 7091.18, 27390.07, 0.00, 0.000, 0.000, 0.000, 13:23:11.202
186, 0.00, 23376.39, 16027.63, 5361.38, -8615.23, 7099.88, 27378.74, 0.00, 0.000, 0.000, 0.000, 13:23:11.202
187, 0.00, 23379.61, 16034.47, 5273.02, -8716.75, 7100.43, 27362.49, 0.00, 0.028, -0.038, 0.992, 13:23:11.202
188, 0.00, 23375.50, 16027.99, 5287.19, -9044.10, 7088.63, 27364.21, 0.00, 0.000, 0.000, 0.000, 13:23:11.203
189, 0.00, 23365.69, 16018.89, 5389.65, -9159.57, 7077.88, 27383.19, 0.00, 0.000, 0.000, 0.000, 13:23:11.203
190, 0.00, 23364.23, 16014.15, 5443.28, -8855.45, 7090.80, 27387.57, 0.00, 0.000, 0.000, 0.000, 13:23:11.203
191, 0.00, 23374.45, 16026.16, 5362.59, -8613.71, 7097.75, 27373.62, 0.00, 0.000, 0.000, 0.000, 13:23:11.203
192, 0.00, 23379.92, 16030.16, 5267.99, -8723.82, 7098.62, 27359.45, 0.00, 0.000, 0.000, 0.000, 13:23:11.203
193, 0.00, 23377.60, 16028.88, 5283.97, -9047.23, 7093.30, 27367.07, 0.00, 0.000, 0.000, 0.000, 13:23:11.657
194, 0.00, 23366.71, 16014.15, 5381.54, -9164.48, 7084.47, 27385.11, 0.00, 0.000, 0.000, 0.000, 13:23:11.657
195, 0.00, 23367.76, 16017.93, 5434.63, -8861.37, 7091.74, 27392.51, 0.00, 0.000, 0.000, 0.000, 13:23:11.657
196, 0.00, 23376.37, 16027.63, 5355.72, -8618.72, 7102.60, 27378.90, 0.00, 0.000, 0.000, 0.000, 13:23:11.657
197, 0.00, 23375.81, 16024.72, 5265.76, -8723.75, 7093.28, 27357.21, 0.00, 0.030, -0.032, 0.990, 13:23:11.658
198, 0.00, 23373.91, 16022.60, 5284.20, -9041.68, 7087.31, 27361.28, 0.00, 0.000, 0.000, 0.000, 13:23:11.658
199, 0.00, 23368.59, 16020.19, 5389.39, -9148.10, 7096.37, 27385.22, 0.00, 0.000, 0.000, 0.000, 13:23:11.658
200, 0.00, 23365.19, 16012.92, 5438.96, -8849.30, 7091.67, 27389.40, 0.00, 0.000, 0.000, 0.000, 13:23:11.658
201, 0.00, 23372.46, 16019.25, 5355.95, -8618.85, 7094.85, 27376.06, 0.00, 0.000, 0.000, 0.000, 13:23:11.658
202, 0.00, 23375.81, 16027.00, 5269.96, -8721.56, 7101.75, 27356.81, 0.00, 0.000, 0.000, 0.000, 13:23:11.659
203, 0.00, 23370.98, 16022.04, 5285.58, -9043.65, 7094.18, 27361.26, 0.00, 0.000, 0.000, 0.000, 13:23:11.659
204, 0.00, 23362.69, 16015.49, 5393.19, -9148.99, 7084.74, 27380.69, 0.00, 0.000, 0.000, 0.000, 13:23:11.659
205, 0.00, 23360.57, 16013.71, 5443.74, -8845.64, 7085.61, 27386.92, 0.00, 0.000, 0.000, 0.000, 13:23:11.659
206, 0.00, 23368.95, 16019.18, 5357.40, -8612.44, 7096.50, 27371.97, 0.00, 0.000, 0.000, 0.000, 13:23:11.660
207, 0.00, 23378.00, 16028.01, 5269.49, -8719.06, 7100.50, 27359.23, 0.00, 0.034, -0.032, 0.994, 13:23:11.660
208, 0.00, 23369.66, 16018.38, 5283.64, -9048.17, 7086.29, 27359.90, 0.00, 0.000, 0.000, 0.000, 13:23:11.660
209, 0.00, 23359.09, 16009.17, 5384.33, -9160.79, 7076.12, 27378.20, 0.00, 0.000, 0.000, 0.000, 13:23:11.660
210, 0.00, 23364.14, 16012.30, 5437.20, -8858.51, 7085.06, 27388.15, 0.00, 0.000, 0.000, 0.000, 13:23:11.661
211, 0.00, 23371.18, 16019.58, 5356.51, -8621.27, 7092.28, 27373.53, 0.00, 0.000, 0.000, 0.000, 13:23:11.661
212, 0.00, 23375.88, 16026.83, 5269.89, -8729.29, 7098.33, 27355.25, 0.00, 0.000, 0.000, 0.000, 13:23:11.661
213, 0.00, 23372.23, 16025.42, 5292.31, -9049.46, 7095.40, 27362.07, 0.00, 0.000, 0.000, 0.000, 13:23:11.661
214, 0.00, 23364.26, 16014.76, 5395.91, -9152.73, 7087.51, 27381.78, 0.00, 0.000, 0.000, 0.000, 13:23:11.662
215, 0.00, 23361.91, 16007.11, 5441.00, -8855.09, 7086.53, 27386.43, 0.00, 0.000, 0.000, 0.000, 13:23:11.662
216, 0.00, 23372.01, 16018.18, 5358.00, -8617.69, 7094.35, 27373.42, 0.00, 0.000, 0.000, 0.000, 13:23:11.662
217, 0.00, 23374.52, 16025.04, 5270.32, -8726.46, 7096.14, 27355.81, 0.00, 0.032, -0.032, 0.992, 13:23:11.662
218, 0.00, 23369.66, 16021.08, 5291.40, -9049.24, 7083.94, 27359.52, 0.00, 0.000, 0.000, 0.000, 13:23:11.663
219, 0.00, 23361.42, 16013.04, 5393.19, -9161.17, 7082.13, 27379.79, 0.00, 0.000, 0.000, 0.000, 13:23:11.663
220, 0.00, 23362.00, 16012.61, 5444.57, -8858.91, 7090.42, 27387.61, 0.00, 0.000, 0.000, 0.000, 13:23:11.663
221, 0.00, 23368.44, 16015.63, 5361.38, -8621.94, 7096.86, 27370.16, 0.00, 0.000, 0.000, 0.000, 13:23:11.663
222, 0.00, 23372.95, 16026.71, 5273.09, -8728.49, 7100.70, 27355.70, 0.00, 0.000, 0.000, 0.000, 13:23:11.664
223, 0.00, 23371.56, 16030.31, 5295.75, -9045.53, 7095.74, 27365.73, 0.00, 0.000, 0.000, 0.000, 13:23:11.664
224, 0.00, 23363.67, 16017.13, 5397.75, -9152.03, 7088.12, 27382.92, 0.00, 0.000, 0.000, 0.000, 13:23:11.665
225, 0.00, 23362.89, 16012.32, 5443.88, -8851.69, 7087.42, 27387.81, 0.00, 0.000, 0.000, 0.000, 13:23:11.665
226, 0.00, 23371.79, 16026.67, 5363.48, -8613.83, 7102.22, 27375.43, 0.00, 0.000, 0.000, 0.000, 13:23:11.665
227, 0.00, 23376.26, 16030.69, 5275.93, -8724.11, 7099.11, 27358.15, 0.00, 0.038, -0.032, 0.990, 13:23:11.666
228, 0.00, 23369.33, 16023.45, 5295.17, -9045.30, 7089.48, 27360.17, 0.00, 0.000, 0.000, 0.000, 13:23:11.667
229, 0.00, 23358.82, 16016.52, 5397.90, -9152.61, 7087.07, 27379.10, 0.00, 0.000, 0.000, 0.000, 13:23:11.667
230, 0.00, 23359.05, 16014.60, 5448.71, -8845.81, 7090.46, 27387.77, 0.00, 0.000, 0.000, 0.000, 13:23:11.667
231, 0.00, 23368.93, 16028.17, 5364.11, -8614.76, 7098.00, 27374.16, 0.00, 0.000, 0.000, 0.000, 13:23:11.667
232, 0.00, 23373.42, 16044.82, 5278.88, -8719.04, 7101.40, 27358.58, 0.00, 0.000, 0.000, 0.000, 13:23:11.667
233, 0.00, 23368.77, 16041.96, 5295.26, -9043.11, 7092.57, 27363.54, 0.00, 0.000, 0.000, 0.000, 13:23:11.667
234, 0.00, 23360.48, 16028.84, 5398.57, -9154.87, 7085.48, 27382.76, 0.00, 0.000, 0.000, 0.000, 13:23:11.668
235, 0.00, 23362.00, 16030.36, 5450.41, -8846.95, 7090.73, 27391.08, 0.00, 0.000, 0.000, 0.000, 13:23:11.668
236, 0.00, 23366.60, 16042.03, 5366.18, -8611.59, 7096.16, 27370.67, 0.00, 0.000, 0.000, 0.000, 13:23:11.668
237, 0.00, 23371.68, 16051.64, 5279.19, -8723.75, 7094.96, 27355.58, 0.00, 0.038, -0.030, 0.990, 13:23:11.668
238, 0.00, 23367.36, 16050.23, 5299.82, -9046.44, 7088.32, 27360.21, 0.00, 0.000, 0.000, 0.000, 13:23:11.668
239, 0.00, 23361.26, 16046.65, 5403.78, -9151.41, 7083.98, 27380.57, 0.00, 0.000, 0.000, 0.000, 13:23:11.669
240, 0.00, 23358.58, 16031.52, 5449.02, -8854.53, 7080.85, 27385.98, 0.00, 0.000, 0.000, 0.000, 13:23:11.669
241, 0.00, 23369.40, 16033.71, 5367.21, -8619.79, 7092.41, 27374.20, 0.00, 0.000, 0.000, 0.000, 13:23:11.669
242, 0.00, 23374.67, 16038.11, 5280.78, -8727.51, 7105.35, 27356.70, 0.00, 0.000, 0.000, 0.000, 13:23:11.669
243, 0.00, 23367.63, 16041.27, 5299.31, -9046.85, 7091.92, 27359.96, 0.00, 0.000, 0.000, 0.000, 13:23:11.669
244, 0.00, 23359.23, 16043.61, 5399.96, -9155.65, 7083.69, 27379.68, 0.00, 0.000, 0.000, 0.000, 13:23:11.669
245, 0.00, 23357.13, 16035.05, 5448.01, -8852.65, 7087.65, 27384.17, 0.00, 0.000, 0.000, 0.000, 13:23:11.669
246, 0.00, 23367.14, 16030.74, 5363.01, -8625.47, 7088.52, 27371.52, 0.00, 0.000, 0.000, 0.000, 13:23:11.670
247, 0.00, 23373.42, 16033.71, 5279.84, -8733.65, 7097.21, 27356.43, 0.00, 0.034, -0.032, 0.988, 13:23:11.670
248, 0.00, 23366.07, 16030.96, 5301.92, -9051.88, 7095.07, 27356.19, 0.00, 0.000, 0.000, 0.000, 13:23:11.670
249, 0.00, 23358.91, 16020.43, 5403.89, -9151.07, 7083.40, 27377.18, 0.00, 0.000, 0.000, 0.000, 13:23:11.670
250, 0.00, 23360.12, 16018.00, 5448.44, -8845.34, 7086.20, 27388.40, 0.00, 0.000, 0.000, 0.000, 13:23:11.670
251, 0.00, 23362.45, 16020.48, 5359.52, -8617.36, 7092.01, 27366.13, 0.00, 0.000, 0.000, 0.000, 13:23:11.671
252, 0.00, 23370.85, 16032.01, 5274.48, -8724.58, 7101.80, 27352.52, 0.00, 0.000, 0.000, 0.000, 13:23:11.671
253, 0.00, 23367.76, 16027.85, 5293.92, -9051.36, 7092.45, 27358.56, 0.00, 0.000, 0.000, 0.000, 13:23:11.671
254, 0.00, 23355.31, 16016.32, 5398.13, -9150.49, 7084.12, 27375.72, 0.00, 0.000, 0.000, 0.000, 13:23:11.671
255, 0.00, 23358.60, 16016.50, 5447.66, -8844.38, 7088.39, 27384.46, 0.00, 0.000, 0.000, 0.000, 13:23:11.672
0, 0.00, 23367.70, 16024.70, 5363.77, -8619.26, 7096.86, 27369.26, 0.00, 0.000, 0.000, 0.000, 13:23:11.672
1, 0.00, 23371.94, 16030.13, 5279.57, -8732.69, 7096.79, 27353.44, 0.00, 0.038, -0.034, 0.988, 13:23:11.672
2, 0.00, 23363.65, 16023.81, 5298.12, -9060.30, 7086.46, 27355.52, 0.00, 0.000, 0.000, 0.000, 13:23:11.672
3, 0.00, 23357.66, 16015.99, 5405.50, -9157.04, 7076.14, 27375.39, 0.00, 0.000, 0.000, 0.000, 13:23:11.673
4, 0.00, 23359.20, 16013.93, 5454.67, -8845.84, 7089.21, 27384.48, 0.00, 0.000, 0.000, 0.000, 13:23:11.673
5, 0.00, 23363.16, 16023.41, 5369.43, -8617.42, 7100.10, 27366.49, 0.00, 0.000, 0.000, 0.000, 13:23:11.673
6, 0.00, 23366.02, 16025.40, 5281.16, -8728.85, 7098.35, 27348.88, 0.00, 0.000, 0.000, 0.000, 13:23:11.673
7, 0.00, 23366.80, 16031.88, 5301.07, -9055.97, 7087.81, 27358.45, 0.00, 0.000, 0.000, 0.000, 13:23:11.673
8, 0.00, 23358.69, 16025.37, 5404.38, -9154.74, 7085.08, 27377.80, 0.00, 0.000, 0.000, 0.000, 13:23:11.674
9, 0.00, 23357.75, 16020.25, 5451.72, -8847.47, 7084.72, 27387.21, 0.00, 0.000, 0.000, 0.000, 13:23:11.674
10, 0.00, 23365.22, 16025.42, 5372.08, -8614.38, 7094.62, 27367.88, 0.00, 0.000, 0.000, 0.000, 13:23:11.674
11, 0.00, 23367.38, 16032.77, 5288.65, -8724.15, 7092.45, 27350.17, 0.00, 0.038, -0.032, 0.992, 13:23:11.674
12, 0.00, 23365.19, 16026.27, 5304.83, -9056.90, 7085.79, 27356.05, 0.00, 0.000, 0.000, 0.000, 13:23:11.674
13, 0.00, 23355.74, 16013.44, 5402.89, -9158.25, 7079.67, 27375.10, 0.00, 0.000, 0.000, 0.000, 13:23:11.675
14, 0.00, 23354.31, 16007.80, 5444.10, -8851.20, 7083.27, 27382.99, 0.00, 0.000, 0.000, 0.000, 13:23:11.675
15, 0.00, 23367.76, 16024.55, 5360.42, -8621.63, 7089.08, 27370.74, 0.00, 0.000, 0.000, 0.000, 13:23:11.675
16, 0.00, 23371.83, 16029.78, 5274.63, -8733.85, 7097.86, 27352.34, 0.00, 0.000, 0.000, 0.000, 13:23:11.675
17, 0.00, 23364.59, 16022.94, 5292.42, -9062.29, 7087.02, 27357.26, 0.00, 0.000, 0.000, 0.000, 13:23:11.676
18, 0.00, 23358.60, 16016.50, 5396.34, -9155.39, 7082.51, 27377.96, 0.00, 0.000, 0.000, 0.000, 13:23:11.677
19, 0.00, 23357.10, 16015.76, 5440.19, -8846.89, 7089.06, 27383.70, 0.00, 0.000, 0.000, 0.000, 13:23:11.677
20, 0.00, 23365.89, 16024.05, 5357.62, -8619.68, 7105.69, 27369.91, 0.00, 0.000, 0.000, 0.000, 13:23:11.677
21, 0.00, 23371.01, 16030.58, 5277.16, -8732.22, 7108.39, 27357.62, 0.00, 0.034, -0.036, 0.998, 13:23:11.677
22, 0.00, 23366.54, 16023.32, 5301.03, -9051.45, 7095.18, 27362.20, 0.00, 0.000, 0.000, 0.000, 13:23:11.677
23, 0.00, 23360.68, 16019.47, 5404.99, -9150.87, 7088.77, 27380.91, 0.00, 0.000, 0.000, 0.000, 13:23:11.677
24, 0.00, 23360.39, 16019.45, 5454.00, -8837.43, 7087.04, 27386.81, 0.00, 0.000, 0.000, 0.000, 13:23:11.677
25, 0.00, 23366.15, 16024.70, 5368.80, -8605.69, 7097.48, 27370.52, 0.00, 0.000, 0.000, 0.000, 13:23:11.677
26, 0.00, 23367.65, 16027.72, 5280.40, -8727.84, 7097.93, 27350.13, 0.00, 0.000, 0.000, 0.000, 13:23:11.678
27, 0.00, 23365.02, 16029.96, 5302.21, -9053.01, 7090.29, 27357.37, 0.00, 0.000, 0.000, 0.000, 13:23:11.678
28, 0.00, 23358.11, 16023.52, 5406.28, -9150.36, 7084.88, 27379.77, 0.00, 0.000, 0.000, 0.000, 13:23:11.680
29, 0.00, 23358.15, 16019.54, 5452.48, -8840.52, 7087.42, 27384.91, 0.00, 0.000, 0.000, 0.000, 13:23:11.680
30, 0.00, 23364.93, 16028.59, 5369.72, -8613.33, 7096.72, 27368.23, 0.00, 0.000, 0.000, 0.000, 13:23:11.681
31, 0.00, 23364.08, 16021.19, 5277.60, -8741.16, 7089.53, 27348.16, 0.00, 0.032, -0.036, 0.992, 13:23:11.681
32, 0.00, 23363.07, 16021.17, 5299.62, -9061.71, 7090.84, 27357.06, 0.00, 0.000, 0.000, 0.000, 13:23:11.681
33, 0.00, 23357.10, 16011.43, 5396.54, -9155.50, 7082.24, 27378.72, 0.00, 0.000, 0.000, 0.000, 13:23:11.682
34, 0.00, 23360.86, 16017.93, 5440.03, -8849.35, 7088.59, 27386.99, 0.00, 0.000, 0.000, 0.000, 13:23:11.682
35, 0.00, 23364.79, 16020.97, 5352.37, -8627.53, 7096.66, 27366.56, 0.00, 0.000, 0.000, 0.000, 13:23:11.683
36, 0.00, 23363.21, 16021.10, 5265.67, -8746.28, 7089.93, 27348.16, 0.00, 0.000, 0.000, 0.000, 13:23:11.683
37, 0.00, 23363.34, 16018.76, 5287.95, -9064.95, 7086.49, 27357.89, 0.00, 0.000, 0.000, 0.000, 13:23:11.683
38, 0.00, 23360.86, 16016.79, 5392.22, -9154.36, 7088.03, 27381.71, 0.00, 0.000, 0.000, 0.000, 13:23:11.683
39, 0.00, 23357.35, 16012.81, 5436.46, -8842.35, 7077.52, 27385.92, 0.00, 0.000, 0.000, 0.000, 13:23:11.684
40, 0.00, 23360.08, 16015.61, 5350.56, -8612.91, 7089.26, 27365.11, 0.00, 0.000, 0.000, 0.000, 13:23:11.684
41, 0.00, 23366.76, 16020.05, 5263.30, -8737.32, 7093.64, 27354.51, 0.00, 0.028, -0.046, 0.990, 13:23:11.684
42, 0.00, 23368.81, 16021.69, 5288.53, -9058.74, 7094.31, 27364.46, 0.00, 0.000, 0.000, 0.000, 13:23:11.684
43, 0.00, 23359.58, 16016.83, 5391.42, -9154.96, 7083.74, 27381.58, 0.00, 0.000, 0.000, 0.000, 13:23:11.689
44, 0.00, 23357.44, 16012.43, 5434.89, -8846.31, 7087.20, 27385.98, 0.00, 0.000, 0.000, 0.000, 13:23:11.689
45, 0.00, 23363.14, 16018.13, 5349.02, -8618.63, 7093.86, 27366.71, 0.00, 0.000, 0.000, 0.000, 13:23:11.689
46, 0.00, 23372.08, 16025.71, 5263.92, -8741.95, 7094.02, 27353.86, 0.00, 0.000, 0.000, 0.000, 13:23:11.689
47, 0.00, 23367.25, 16019.90, 5289.05, -9070.87, 7087.89, 27357.97, 0.00, 0.000, 0.000, 0.000, 13:23:11.689
48, 0.00, 23360.61, 16014.22, 5400.36, -9155.63, 7084.03, 27378.72, 0.00, 0.000, 0.000, 0.000, 13:23:11.689
49, 0.00, 23358.60, 16011.36, 5445.26, -8841.41, 7089.91, 27385.29, 0.00, 0.000, 0.000, 0.000, 13:23:11.689
50, 0.00, 23365.64, 16017.75, 5357.96, -8625.07, 7093.15, 27369.69, 0.00, 0.000, 0.000, 0.000, 13:23:11.690
51, 0.00, 23369.66, 16021.37, 5274.48, -8749.14, 7093.57, 27350.29, 0.00, 0.034, -0.042, 0.992, 13:23:11.690
52, 0.00, 23362.06, 16014.15, 5298.15, -9071.14, 7079.49, 27357.15, 0.00, 0.000, 0.000, 0.000, 13:23:11.690
53, 0.00, 23359.36, 16010.22, 5406.31, -9153.96, 7068.20, 27382.25, 0.00, 0.000, 0.000, 0.000, 13:23:11.690
54, 0.00, 23358.53, 16013.10, 5450.90, -8841.61, 7089.01, 27382.92, 0.00, 0.000, 0.000, 0.000, 13:23:11.691
55, 0.00, 23367.81, 16029.75, 5366.30, -8618.97, 7097.21, 27369.33, 0.00, 0.000, 0.000, 0.000, 13:23:11.691
56, 0.00, 23372.30, 16033.96, 5283.48, -8739.51, 7095.00, 27353.88, 0.00, 0.000, 0.000, 0.000, 13:23:11.691
57, 0.00, 23366.94, 16027.85, 5307.51, -9063.27, 7082.51, 27359.52, 0.00, 0.000, 0.000, 0.000, 13:23:11.691
58, 0.00, 23359.00, 16023.61, 5411.98, -9149.64, 7080.25, 27378.14, 0.00, 0.000, 0.000, 0.000, 13:23:12.137
59, 0.00, 23357.44, 16017.33, 5453.49, -8841.17, 7081.57, 27382.67, 0.00, 0.000, 0.000, 0.000, 13:23:12.137
60, 0.00, 23365.24, 16022.65, 5366.74, -8623.10, 7091.56, 27367.32, 0.00, 0.000, 0.000, 0.000, 13:23:12.137
61, 0.00, 23371.23, 16024.68, 5282.70, -8744.92, 7091.22, 27354.42, 0.00, 0.030, -0.036, 0.994, 13:23:12.137
62, 0.00, 23367.07, 16022.80, 5306.04, -9072.75, 7082.35, 27359.47, 0.00, 0.000, 0.000, 0.000, 13:23:12.137
63, 0.00, 23358.40, 16020.86, 5414.46, -9154.51, 7085.91, 27378.07, 0.00, 0.000, 0.000, 0.000, 13:23:12.137
64, 0.00, 23357.48, 16018.06, 5451.93, -8839.76, 7084.59, 27382.65, 0.00, 0.000, 0.000, 0.000, 13:23:12.137
65, 0.00, 23366.54, 16029.87, 5360.02, -8618.07, 7092.36, 27369.73, 0.00, 0.000, 0.000, 0.000, 13:23:12.138
66, 0.00, 23373.29, 16030.98, 5272.98, -8746.66, 7094.29, 27355.36, 0.00, 0.000, 0.000, 0.000, 13:23:12.138
67, 0.00, 23366.33, 16025.80, 5298.06, -9067.52, 7085.19, 27360.75, 0.00, 0.000, 0.000, 0.000, 13:23:12.138
