%OpenBCI Raw EEG Data
%
%Sample Rate = 250.0 Hz
%First Column = SampleIndex
%Last Column = Timestamp 
%Other Columns = EEG data in microvolts followed by Accel Data (in G) interleaved with Aux Data
0, 0.00, 0.00, 0.00, 0.00, 0.00, 0.00, 0.00, 0.00, 0.030, -0.028, 0.996, 13:13:45.603
1, 0.00, 27417.86, 15974.70, 9423.92, -3188.90, 13625.78, 31806.55, 0.00, 0.000, 0.000, 0.000, 13:13:46.082
2, 0.00, 27425.21, 15984.76, 9386.46, -3102.42, 13633.42, 31803.54, 0.00, 0.000, 0.000, 0.000, 13:13:46.082
3, 0.00, 27431.54, 15992.94, 9319.38, -3177.30, 13640.80, 31792.79, 0.00, 0.000, 0.000, 0.000, 13:13:46.082
4, 0.00, 27429.23, 15992.20, 9311.33, -3321.72, 13635.19, 31790.01, 0.00, 0.000, 0.000, 0.000, 13:13:46.083
5, 0.00, 27423.09, 15987.42, 9376.91, -3347.53, 13628.75, 31801.14, 0.00, 0.000, 0.000, 0.000, 13:13:46.083
6, 0.00, 27420.92, 15986.77, 9436.86, -3180.07, 13630.27, 31812.41, 0.00, 0.000, 0.000, 0.000, 13:13:46.083
7, 0.00, 27426.24, 15989.21, 9390.21, -3100.12, 13636.89, 31807.07, 0.00, 0.000, 0.000, 0.000, 13:13:46.083
8, 0.00, 27431.45, 15993.34, 9316.79, -3181.79, 13639.10, 31793.21, 0.00, 0.036, -0.034, 0.992, 13:13:46.084
9, 0.00, 27429.61, 15992.36, 9307.69, -3326.12, 13632.95, 31789.41, 0.00, 0.000, 0.000, 0.000, 13:13:46.084
10, 0.00, 27422.86, 15985.86, 9376.69, -3345.09, 13627.19, 31799.74, 0.00, 0.000, 0.000, 0.000, 13:13:46.084
11, 0.00, 27420.13, 15981.99, 9435.72, -3178.28, 13628.60, 31808.79, 0.00, 0.000, 0.000, 0.000, 13:13:46.084
12, 0.00, 27425.21, 15986.46, 9388.11, -3098.47, 13634.79, 31802.60, 0.00, 0.000, 0.000, 0.000, 13:13:46.085
13, 0.00, 27427.02, 15988.38, 9311.20, -3182.82, 13635.52, 31787.55, 0.00, 0.000, 0.000, 0.000, 13:13:46.085
14, 0.00, 27427.24, 15987.82, 9305.34, -3323.73, 13631.99, 31787.49, 0.00, 0.000, 0.000, 0.000, 13:13:46.085
15, 0.00, 27423.04, 15980.04, 9370.32, -3347.33, 13625.94, 31800.61, 0.00, 0.000, 0.000, 0.000, 13:13:46.085
16, 0.00, 27419.00, 15974.63, 9423.03, -3184.59, 13626.14, 31808.83, 0.00, 0.000, 0.000, 0.000, 13:13:46.086
17, 0.00, 27423.64, 15983.93, 9378.99, -3106.09, 13633.76, 31803.31, 0.00, 0.000, 0.000, 0.000, 13:13:46.086
18, 0.00, 27427.56, 15991.80, 9311.69, -3188.63, 13636.67, 31788.47, 0.00, 0.032, -0.028, 0.994, 13:13:46.086
19, 0.00, 27427.91, 15991.78, 9310.62, -3326.48, 13632.73, 31787.71, 0.00, 0.000, 0.000, 0.000, 13:13:46.086
20, 0.00, 27421.83, 15984.87, 9374.14, -3351.11, 13623.39, 31799.18, 0.00, 0.000, 0.000, 0.000, 13:13:46.086
21, 0.00, 27419.71, 15980.51, 9430.04, -3185.59, 13625.73, 31809.41, 0.00, 0.000, 0.000, 0.000, 13:13:46.087
22, 0.00, 27427.33, 15985.14, 9384.31, -3102.76, 13635.46, 31805.88, 0.00, 0.000, 0.000, 0.000, 13:13:46.087
23, 0.00, 27431.80, 15990.71, 9312.61, -3185.21, 13639.06, 31792.94, 0.00, 0.000, 0.000, 0.000, 13:13:46.087
24, 0.00, 27428.52, 15989.81, 9308.07, -3331.44, 13633.67, 31790.10, 0.00, 0.000, 0.000, 0.000, 13:13:46.087
25, 0.00, 27421.88, 15981.09, 9374.61, -3347.62, 13623.19, 31800.36, 0.00, 0.000, 0.000, 0.000, 13:13:46.088
26, 0.00, 27420.00, 15978.46, 9430.04, -3181.26, 13623.34, 31809.35, 0.00, 0.000, 0.000, 0.000, 13:13:46.088
27, 0.00, 27426.17, 15989.28, 9387.42, -3105.42, 13634.41, 31804.43, 0.00, 0.000, 0.000, 0.000, 13:13:46.088
28, 0.00, 27429.99, 15990.95, 9315.25, -3188.41, 13638.65, 31790.19, 0.00, 0.032, -0.028, 1.002, 13:13:46.088
29, 0.00, 27427.49, 15984.60, 9306.04, -3331.10, 13631.95, 31786.24, 0.00, 0.000, 0.000, 0.000, 13:13:46.089
30, 0.00, 27422.42, 15978.88, 9372.51, -3347.67, 13624.82, 31798.66, 0.00, 0.000, 0.000, 0.000, 13:13:46.090
31, 0.00, 27420.74, 15976.47, 9428.14, -3180.52, 13625.96, 31808.45, 0.00, 0.000, 0.000, 0.000, 13:13:46.092
32, 0.00, 27426.26, 15984.60, 9381.21, -3107.03, 13635.37, 31802.91, 0.00, 0.000, 0.000, 0.000, 13:13:46.092
33, 0.00, 27431.78, 15991.53, 9314.24, -3189.01, 13639.70, 31791.51, 0.00, 0.000, 0.000, 0.000, 13:13:46.092
34, 0.00, 27428.18, 15989.28, 9312.21, -3328.60, 13634.59, 31787.98, 0.00, 0.000, 0.000, 0.000, 13:13:46.092
35, 0.00, 27419.80, 15979.87, 9379.62, -3341.38, 13626.58, 31797.03, 0.00, 0.000, 0.000, 0.000, 13:13:46.093
36, 0.00, 27420.76, 15978.50, 9432.93, -3175.07, 13629.60, 31809.35, 0.00, 0.000, 0.000, 0.000, 13:13:46.093
37, 0.00, 27426.91, 15985.92, 9385.36, -3102.58, 13637.42, 31804.27, 0.00, 0.000, 0.000, 0.000, 13:13:46.093
38, 0.00, 27429.37, 15989.16, 9312.61, -3192.37, 13636.04, 31788.31, 0.00, 0.036, -0.032, 1.000, 13:13:46.093
39, 0.00, 27427.85, 15986.88, 9311.71, -3328.93, 13632.08, 31786.75, 0.00, 0.000, 0.000, 0.000, 13:13:46.093
40, 0.00, 27421.97, 15981.03, 9379.55, -3342.08, 13628.28, 31799.54, 0.00, 0.000, 0.000, 0.000, 13:13:46.094
41, 0.00, 27418.59, 15975.42, 9427.72, -3177.99, 13627.21, 31807.25, 0.00, 0.000, 0.000, 0.000, 13:13:46.094
42, 0.00, 27423.09, 15981.00, 9374.52, -3111.36, 13633.33, 31800.41, 0.00, 0.000, 0.000, 0.000, 13:13:46.094
43, 0.00, 27428.23, 15990.01, 9312.18, -3194.73, 13636.96, 31788.34, 0.00, 0.000, 0.000, 0.000, 13:13:46.094
44, 0.00, 27425.43, 15988.00, 9313.19, -3333.00, 13631.26, 31786.82, 0.00, 0.000, 0.000, 0.000, 13:13:46.094
45, 0.00, 27419.96, 15980.80, 9383.24, -3343.08, 13622.85, 31799.56, 0.00, 0.000, 0.000, 0.000, 13:13:46.095
46, 0.00, 27420.45, 15977.18, 9434.31, -3174.66, 13627.03, 31811.85, 0.00, 0.000, 0.000, 0.000, 13:13:46.095
47, 0.00, 27423.09, 15984.36, 9382.77, -3103.43, 13634.43, 31801.79, 0.00, 0.000, 0.000, 0.000, 13:13:46.095
48, 0.00, 27426.13, 15987.55, 9309.43, -3195.54, 13634.14, 31785.72, 0.00, 0.034, -0.036, 0.994, 13:13:46.095
49, 0.00, 27425.54, 15983.75, 9309.66, -3336.36, 13627.28, 31784.72, 0.00, 0.000, 0.000, 0.000, 13:13:46.096
50, 0.00, 27420.65, 15981.79, 9383.35, -3344.51, 13621.69, 31797.66, 0.00, 0.000, 0.000, 0.000, 13:13:46.096
51, 0.00, 27415.40, 15975.91, 9430.65, -3177.75, 13620.88, 31803.94, 0.00, 0.000, 0.000, 0.000, 13:13:46.096
52, 0.00, 27421.90, 15983.82, 9380.69, -3108.81, 13629.24, 31798.44, 0.00, 0.000, 0.000, 0.000, 13:13:46.096
53, 0.00, 27429.79, 15991.02, 9313.50, -3196.05, 13637.87, 31789.16, 0.00, 0.000, 0.000, 0.000, 13:13:46.096
54, 0.00, 27426.19, 15987.00, 9312.25, -3334.88, 13629.74, 31786.77, 0.00, 0.000, 0.000, 0.000, 13:13:46.097
55, 0.00, 27419.13, 15977.76, 9378.48, -3346.03, 13620.88, 31797.39, 0.00, 0.000, 0.000, 0.000, 13:13:46.097
56, 0.00, 27417.32, 15974.81, 9430.71, -3176.61, 13622.45, 31805.37, 0.00, 0.000, 0.000, 0.000, 13:13:46.097
57, 0.00, 27424.76, 15983.20, 9380.94, -3109.55, 13633.00, 31801.39, 0.00, 0.000, 0.000, 0.000, 13:13:46.097
58, 0.00, 27431.18, 15989.79, 9312.92, -3198.07, 13637.45, 31790.84, 0.00, 0.034, -0.036, 0.992, 13:13:46.097
59, 0.00, 27429.57, 15986.82, 9312.03, -3337.76, 13631.46, 31789.83, 0.00, 0.000, 0.000, 0.000, 13:13:46.098
60, 0.00, 27421.52, 15977.45, 9380.00, -3343.75, 13623.46, 31799.96, 0.00, 0.000, 0.000, 0.000, 13:13:46.098
61, 0.00, 27418.79, 15976.71, 9432.53, -3172.20, 13625.65, 31807.49, 0.00, 0.000, 0.000, 0.000, 13:13:46.098
62, 0.00, 27423.58, 15984.47, 9382.59, -3109.71, 13633.89, 31800.56, 0.00, 0.000, 0.000, 0.000, 13:13:46.098
63, 0.00, 27427.78, 15990.01, 9313.44, -3199.74, 13639.68, 31788.78, 0.00, 0.000, 0.000, 0.000, 13:13:46.099
64, 0.00, 27426.97, 15990.50, 9316.23, -3334.03, 13635.37, 31789.46, 0.00, 0.000, 0.000, 0.000, 13:13:46.099
65, 0.00, 27421.14, 15981.34, 9384.85, -3338.37, 13628.44, 31802.22, 0.00, 0.000, 0.000, 0.000, 13:13:46.099
66, 0.00, 27417.28, 15976.33, 9437.04, -3165.70, 13627.70, 31808.79, 0.00, 0.000, 0.000, 0.000, 13:13:46.100
67, 0.00, 27421.21, 15981.12, 9381.09, -3106.58, 13632.82, 31800.25, 0.00, 0.000, 0.000, 0.000, 13:13:46.100
68, 0.00, 27426.28, 15985.10, 9308.74, -3199.88, 13636.24, 31788.16, 0.00, 0.038, -0.036, 0.990, 13:13:46.100
69, 0.00, 27424.36, 15985.70, 9315.40, -3334.37, 13632.87, 31788.25, 0.00, 0.000, 0.000, 0.000, 13:13:46.100
70, 0.00, 27418.30, 15979.11, 9386.46, -3338.88, 13627.88, 31800.65, 0.00, 0.000, 0.000, 0.000, 13:13:46.100
71, 0.00, 27417.05, 15976.78, 9435.63, -3168.11, 13629.20, 31808.21, 0.00, 0.000, 0.000, 0.000, 13:13:46.100
72, 0.00, 27422.48, 15984.20, 9381.61, -3108.88, 13636.24, 31800.41, 0.00, 0.000, 0.000, 0.000, 13:13:46.101
73, 0.00, 27425.99, 15988.05, 9311.09, -3204.99, 13638.86, 31789.43, 0.00, 0.000, 0.000, 0.000, 13:13:46.101
74, 0.00, 27423.78, 15984.27, 9314.02, -3337.14, 13632.78, 31788.94, 0.00, 0.000, 0.000, 0.000, 13:13:46.102
75, 0.00, 27420.74, 15982.35, 9387.91, -3339.24, 13627.32, 31801.68, 0.00, 0.000, 0.000, 0.000, 13:13:46.103
76, 0.00, 27420.63, 15981.65, 9438.85, -3166.95, 13630.38, 31811.43, 0.00, 0.000, 0.000, 0.000, 13:13:46.103
77, 0.00, 27423.67, 15983.06, 9379.04, -3108.32, 13634.43, 31801.46, 0.00, 0.032, -0.038, 0.990, 13:13:46.104
78, 0.00, 27428.45, 15985.70, 9305.50, -3206.40, 13637.16, 31788.56, 0.00, 0.000, 0.000, 0.000, 13:13:46.104
79, 0.00, 27426.46, 15988.83, 9317.35, -3339.84, 13633.56, 31787.89, 0.00, 0.000, 0.000, 0.000, 13:13:46.104
80, 0.00, 27420.29, 15982.93, 9392.38, -3333.09, 13628.15, 31799.49, 0.00, 0.000, 0.000, 0.000, 13:13:46.104
81, 0.00, 27419.44, 15980.51, 9437.22, -3162.97, 13630.34, 31807.94, 0.00, 0.000, 0.000, 0.000, 13:13:46.105
82, 0.00, 27423.22, 15985.05, 9378.48, -3106.87, 13632.75, 31799.18, 0.00, 0.000, 0.000, 0.000, 13:13:46.105
83, 0.00, 27427.47, 15993.88, 9312.92, -3202.60, 13637.49, 31787.44, 0.00, 0.000, 0.000, 0.000, 13:13:46.105
84, 0.00, 27424.27, 15991.69, 9316.97, -3342.95, 13633.85, 31786.08, 0.00, 0.000, 0.000, 0.000, 13:13:46.105
85, 0.00, 27419.04, 15982.50, 9389.54, -3334.79, 13628.35, 31799.27, 0.00, 0.000, 0.000, 0.000, 13:13:46.106
86, 0.00, 27417.61, 15980.02, 9433.08, -3162.59, 13631.08, 31808.28, 0.00, 0.000, 0.000, 0.000, 13:13:46.106
87, 0.00, 27424.27, 15987.06, 9377.07, -3107.05, 13639.86, 31801.81, 0.00, 0.030, -0.036, 0.992, 13:13:46.106
88, 0.00, 27429.37, 15993.59, 9311.31, -3201.15, 13644.71, 31789.50, 0.00, 0.000, 0.000, 0.000, 13:13:46.106
89, 0.00, 27424.67, 15991.13, 9319.25, -3334.72, 13636.93, 31786.68, 0.00, 0.000, 0.000, 0.000, 13:13:46.107
90, 0.00, 27417.90, 15982.59, 9387.82, -3332.20, 13629.94, 31797.93, 0.00, 0.000, 0.000, 0.000, 13:13:46.107
91, 0.00, 27415.49, 15979.84, 9432.53, -3162.03, 13631.26, 31805.14, 0.00, 0.000, 0.000, 0.000, 13:13:46.107
92, 0.00, 27421.52, 15987.44, 9376.44, -3107.70, 13638.56, 31797.95, 0.00, 0.000, 0.000, 0.000, 13:13:46.107
93, 0.00, 27425.30, 15991.71, 9310.26, -3202.42, 13641.74, 31785.30, 0.00, 0.000, 0.000, 0.000, 13:13:46.108
94, 0.00, 27422.19, 15989.79, 9318.75, -3339.08, 13632.17, 31784.56, 0.00, 0.000, 0.000, 0.000, 13:13:46.108
95, 0.00, 27413.81, 15979.17, 9388.00, -3335.55, 13624.35, 31794.10, 0.00, 0.000, 0.000, 0.000, 13:13:46.108
96, 0.00, 27413.21, 15977.81, 9432.50, -3161.32, 13630.18, 31802.57, 0.00, 0.000, 0.000, 0.000, 13:13:46.108
97, 0.00, 27420.40, 15987.35, 9376.53, -3105.69, 13638.90, 31797.48, 0.00, 0.026, -0.036, 0.992, 13:13:46.109
98, 0.00, 27423.87, 15992.16, 9310.31, -3206.11, 13640.00, 31784.87, 0.00, 0.000, 0.000, 0.000, 13:13:46.109
99, 0.00, 27419.29, 15986.53, 9315.22, -3342.52, 13631.59, 31782.57, 0.00, 0.000, 0.000, 0.000, 13:13:46.109
100, 0.00, 27413.34, 15983.91, 9389.63, -3337.54, 13624.30, 31795.36, 0.00, 0.000, 0.000, 0.000, 13:13:46.109
101, 0.00, 27415.02, 15982.35, 9436.03, -3164.02, 13628.89, 31805.73, 0.00, 0.000, 0.000, 0.000, 13:13:46.110
102, 0.00, 27419.91, 15983.87, 9376.36, -3109.53, 13633.98, 31795.94, 0.00, 0.000, 0.000, 0.000, 13:13:46.110
103, 0.00, 27424.52, 15989.48, 9308.27, -3211.30, 13636.55, 31783.91, 0.00, 0.000, 0.000, 0.000, 13:13:46.110
104, 0.00, 27423.67, 15988.07, 9315.83, -3345.99, 13631.61, 31785.77, 0.00, 0.000, 0.000, 0.000, 13:13:46.110
105, 0.00, 27417.54, 15980.40, 9387.44, -3337.88, 13623.54, 31797.41, 0.00, 0.000, 0.000, 0.000, 13:13:46.111
106, 0.00, 27416.60, 15979.40, 9434.04, -3160.02, 13625.65, 31804.56, 0.00, 0.000, 0.000, 0.000, 13:13:46.111
107, 0.00, 27421.07, 15985.65, 9374.68, -3107.54, 13635.17, 31795.65, 0.00, 0.032, -0.034, 0.986, 13:13:46.111
108, 0.00, 27425.12, 15988.81, 9305.25, -3211.12, 13636.20, 31783.62, 0.00, 0.000, 0.000, 0.000, 13:13:46.111
109, 0.00, 27421.88, 15987.93, 9316.41, -3345.65, 13629.42, 31784.47, 0.00, 0.000, 0.000, 0.000, 13:13:46.112
110, 0.00, 27416.18, 15982.46, 9393.75, -3331.17, 13626.96, 31797.93, 0.00, 0.000, 0.000, 0.000, 13:13:46.112
111, 0.00, 27415.93, 15977.54, 9433.62, -3158.50, 13628.39, 31806.46, 0.00, 0.000, 0.000, 0.000, 13:13:46.112
112, 0.00, 27423.78, 15984.38, 9373.09, -3113.62, 13636.22, 31800.92, 0.00, 0.000, 0.000, 0.000, 13:13:46.112
113, 0.00, 27428.70, 15988.22, 9310.57, -3209.96, 13639.01, 31789.88, 0.00, 0.000, 0.000, 0.000, 13:13:46.113
114, 0.00, 27428.25, 15986.26, 9319.89, -3345.70, 13634.29, 31790.95, 0.00, 0.000, 0.000, 0.000, 13:13:46.113
115, 0.00, 27421.43, 15980.29, 9396.96, -3329.05, 13627.39, 31803.13, 0.00, 0.000, 0.000, 0.000, 13:13:46.113
116, 0.00, 27419.62, 15978.21, 9436.37, -3158.59, 13629.85, 31810.55, 0.00, 0.000, 0.000, 0.000, 13:13:46.113
117, 0.00, 27426.19, 15985.16, 9375.68, -3109.78, 13638.94, 31802.98, 0.00, 0.034, -0.032, 0.994, 13:13:46.114
118, 0.00, 27430.42, 15990.73, 9311.07, -3213.89, 13639.64, 31791.13, 0.00, 0.000, 0.000, 0.000, 13:13:46.114
119, 0.00, 27424.99, 15982.46, 9318.24, -3349.68, 13629.27, 31788.58, 0.00, 0.000, 0.000, 0.000, 13:13:46.114
120, 0.00, 27421.19, 15976.49, 9392.16, -3333.70, 13625.15, 31802.55, 0.00, 0.000, 0.000, 0.000, 13:13:46.114
121, 0.00, 27420.27, 15974.75, 9435.63, -3158.64, 13626.99, 31810.17, 0.00, 0.000, 0.000, 0.000, 13:13:46.560
122, 0.00, 27427.45, 15982.70, 9374.97, -3114.80, 13635.14, 31803.38, 0.00, 0.000, 0.000, 0.000, 13:13:46.560
123, 0.00, 27430.28, 15985.39, 9308.90, -3217.76, 13639.17, 31790.13, 0.00, 0.000, 0.000, 0.000, 13:13:46.560
124, 0.00, 27425.08, 15978.61, 9317.59, -3347.89, 13630.38, 31788.72, 0.00, 0.000, 0.000, 0.000, 13:13:46.560
125, 0.00, 27419.64, 15972.15, 9391.22, -3331.53, 13625.02, 31801.68, 0.00, 0.000, 0.000, 0.000, 13:13:46.561
126, 0.00, 27420.13, 15973.81, 9435.14, -3155.55, 13629.85, 31809.62, 0.00, 0.000, 0.000, 0.000, 13:13:46.561
127, 0.00, 27424.63, 15977.34, 9369.61, -3117.22, 13634.52, 31800.00, 0.00, 0.026, -0.032, 0.996, 13:13:46.561
128, 0.00, 27426.37, 15977.99, 9296.85, -3229.02, 13634.50, 31784.94, 0.00, 0.000, 0.000, 0.000, 13:13:46.561
129, 0.00, 27423.31, 15976.53, 9313.30, -3353.34, 13627.61, 31785.34, 0.00, 0.000, 0.000, 0.000, 13:13:46.561
130, 0.00, 27419.17, 15974.21, 9394.75, -3329.43, 13622.52, 31800.47, 0.00, 0.000, 0.000, 0.000, 13:13:46.561
131, 0.00, 27418.79, 15974.25, 9435.23, -3157.18, 13625.18, 31808.30, 0.00, 0.000, 0.000, 0.000, 13:13:46.561
132, 0.00, 27425.41, 15981.07, 9371.33, -3116.59, 13633.65, 31800.74, 0.00, 0.000, 0.000, 0.000, 13:13:46.562
133, 0.00, 27427.78, 15984.58, 9303.15, -3225.89, 13634.81, 31787.29, 0.00, 0.000, 0.000, 0.000, 13:13:46.562
134, 0.00, 27425.32, 15985.23, 9318.17, -3354.04, 13627.19, 31789.66, 0.00, 0.000, 0.000, 0.000, 13:13:46.562
135, 0.00, 27419.58, 15975.86, 9393.30, -3333.07, 13623.54, 31802.46, 0.00, 0.000, 0.000, 0.000, 13:13:46.562
136, 0.00, 27418.30, 15972.53, 9431.59, -3159.06, 13627.28, 31808.39, 0.00, 0.000, 0.000, 0.000, 13:13:46.563
137, 0.00, 27423.94, 15979.19, 9368.04, -3118.07, 13635.06, 31799.18, 0.00, 0.030, -0.036, 0.998, 13:13:46.563
138, 0.00, 27427.91, 15983.15, 9300.67, -3228.69, 13635.10, 31787.22, 0.00, 0.000, 0.000, 0.000, 13:13:46.563
139, 0.00, 27423.82, 15981.41, 9313.88, -3359.60, 13627.57, 31787.64, 0.00, 0.000, 0.000, 0.000, 13:13:46.563
140, 0.00, 27418.68, 15974.70, 9387.82, -3334.68, 13623.57, 31801.81, 0.00, 0.000, 0.000, 0.000, 13:13:46.563
141, 0.00, 27418.48, 15972.85, 9425.69, -3157.25, 13627.79, 31809.57, 0.00, 0.000, 0.000, 0.000, 13:13:46.563
142, 0.00, 27423.71, 15982.64, 9368.04, -3116.19, 13634.41, 31799.13, 0.00, 0.000, 0.000, 0.000, 13:13:46.563
143, 0.00, 27426.28, 15988.02, 9307.49, -3224.06, 13636.69, 31785.77, 0.00, 0.000, 0.000, 0.000, 13:13:46.563
144, 0.00, 27421.54, 15983.60, 9322.17, -3354.06, 13629.58, 31784.47, 0.00, 0.000, 0.000, 0.000, 13:13:46.563
145, 0.00, 27417.39, 15975.86, 9396.92, -3329.23, 13622.52, 31798.28, 0.00, 0.000, 0.000, 0.000, 13:13:46.564
146, 0.00, 27415.20, 15972.73, 9434.07, -3154.66, 13621.80, 31803.94, 0.00, 0.000, 0.000, 0.000, 13:13:46.564
147, 0.00, 27423.89, 15980.60, 9371.75, -3116.30, 13636.17, 31796.94, 0.00, 0.028, -0.038, 0.992, 13:13:46.564
148, 0.00, 27425.50, 15983.84, 9305.21, -3227.28, 13638.41, 31783.82, 0.00, 0.000, 0.000, 0.000, 13:13:46.564
149, 0.00, 27421.52, 15983.60, 9322.08, -3354.15, 13633.36, 31785.25, 0.00, 0.000, 0.000, 0.000, 13:13:46.564
150, 0.00, 27416.20, 15980.51, 9402.95, -3322.01, 13630.85, 31798.84, 0.00, 0.000, 0.000, 0.000, 13:13:46.564
151, 0.00, 27416.00, 15973.23, 9434.80, -3148.82, 13630.70, 31805.28, 0.00, 0.000, 0.000, 0.000, 13:13:46.566
152, 0.00, 27422.10, 15977.76, 9364.44, -3117.26, 13635.30, 31795.73, 0.00, 0.000, 0.000, 0.000, 13:13:46.566
153, 0.00, 27427.45, 15987.58, 9307.02, -3225.62, 13637.63, 31784.36, 0.00, 0.000, 0.000, 0.000, 13:13:46.566
154, 0.00, 27422.33, 15985.16, 9324.68, -3355.22, 13630.90, 31785.48, 0.00, 0.000, 0.000, 0.000, 13:13:46.566
155, 0.00, 27416.34, 15980.04, 9402.06, -3322.97, 13627.43, 31798.62, 0.00, 0.000, 0.000, 0.000, 13:13:46.566
156, 0.00, 27417.34, 15978.30, 9436.37, -3147.37, 13630.25, 31805.28, 0.00, 0.000, 0.000, 0.000, 13:13:46.566
157, 0.00, 27424.58, 15983.91, 9371.21, -3112.26, 13637.22, 31797.88, 0.00, 0.030, -0.030, 0.994, 13:13:46.567
158, 0.00, 27424.76, 15984.20, 9304.20, -3226.21, 13635.08, 31783.31, 0.00, 0.000, 0.000, 0.000, 13:13:46.567
159, 0.00, 27423.29, 15983.58, 9322.42, -3352.34, 13632.24, 31786.39, 0.00, 0.000, 0.000, 0.000, 13:13:46.567
160, 0.00, 27417.56, 15979.22, 9402.53, -3321.47, 13627.41, 31799.58, 0.00, 0.000, 0.000, 0.000, 13:13:46.567
161, 0.00, 27416.38, 15975.89, 9435.92, -3148.96, 13630.07, 31804.45, 0.00, 0.000, 0.000, 0.000, 13:13:46.567
162, 0.00, 27420.63, 15980.02, 9367.86, -3118.87, 13635.95, 31792.99, 0.00, 0.000, 0.000, 0.000, 13:13:46.568
163, 0.00, 27424.79, 15985.72, 9307.24, -3231.50, 13637.04, 31782.86, 0.00, 0.000, 0.000, 0.000, 13:13:46.568
164, 0.00, 27420.70, 15981.14, 9326.29, -3355.44, 13630.72, 31784.52, 0.00, 0.000, 0.000, 0.000, 13:13:46.568
165, 0.00, 27413.50, 15973.88, 9403.40, -3317.71, 13626.99, 31797.46, 0.00, 0.000, 0.000, 0.000, 13:13:46.568
166, 0.00, 27414.53, 15974.08, 9432.53, -3149.72, 13632.55, 31805.21, 0.00, 0.000, 0.000, 0.000, 13:13:46.568
167, 0.00, 27421.63, 15982.86, 9366.83, -3118.02, 13640.40, 31796.43, 0.00, 0.028, -0.028, 0.992, 13:13:46.568
168, 0.00, 27422.66, 15983.42, 9307.06, -3229.80, 13639.08, 31781.79, 0.00, 0.000, 0.000, 0.000, 13:13:46.568
169, 0.00, 27419.26, 15979.75, 9324.79, -3357.95, 13630.99, 31783.87, 0.00, 0.000, 0.000, 0.000, 13:13:46.569
170, 0.00, 27414.75, 15974.21, 9403.29, -3321.87, 13623.70, 31797.66, 0.00, 0.000, 0.000, 0.000, 13:13:46.569
171, 0.00, 27414.55, 15972.67, 9435.03, -3149.23, 13628.10, 31803.31, 0.00, 0.000, 0.000, 0.000, 13:13:46.569
172, 0.00, 27420.81, 15978.12, 9366.92, -3122.18, 13636.26, 31794.04, 0.00, 0.000, 0.000, 0.000, 13:13:46.569
173, 0.00, 27422.77, 15980.69, 9304.09, -3236.67, 13635.95, 31781.45, 0.00, 0.000, 0.000, 0.000, 13:13:46.569
174, 0.00, 27417.59, 15976.71, 9324.10, -3360.18, 13628.24, 31782.19, 0.00, 0.000, 0.000, 0.000, 13:13:46.570
175, 0.00, 27413.30, 15972.80, 9402.57, -3322.79, 13625.15, 31796.50, 0.00, 0.000, 0.000, 0.000, 13:13:46.570
176, 0.00, 27411.62, 15971.55, 9433.60, -3151.06, 13627.95, 31801.35, 0.00, 0.000, 0.000, 0.000, 13:13:46.570
177, 0.00, 27417.01, 15977.45, 9366.07, -3122.67, 13635.90, 31791.64, 0.00, 0.026, -0.034, 0.996, 13:13:46.570
178, 0.00, 27420.16, 15982.75, 9308.47, -3235.91, 13636.55, 31778.84, 0.00, 0.000, 0.000, 0.000, 13:13:46.571
179, 0.00, 27415.11, 15977.34, 9328.61, -3358.26, 13626.61, 31779.31, 0.00, 0.000, 0.000, 0.000, 13:13:46.571
180, 0.00, 27410.79, 15969.61, 9400.94, -3324.26, 13621.17, 31793.90, 0.00, 0.000, 0.000, 0.000, 13:13:46.571
181, 0.00, 27414.86, 15972.18, 9436.97, -3146.92, 13628.66, 31803.31, 0.00, 0.000, 0.000, 0.000, 13:13:46.572
182, 0.00, 27422.33, 15979.62, 9369.67, -3119.34, 13637.04, 31795.78, 0.00, 0.000, 0.000, 0.000, 13:13:46.572
183, 0.00, 27426.57, 15985.16, 9310.35, -3237.90, 13640.58, 31785.39, 0.00, 0.000, 0.000, 0.000, 13:13:46.572
184, 0.00, 27423.06, 15979.78, 9334.11, -3355.06, 13633.85, 31788.34, 0.00, 0.000, 0.000, 0.000, 13:13:46.573
185, 0.00, 27415.08, 15969.90, 9406.26, -3315.61, 13626.23, 31800.07, 0.00, 0.000, 0.000, 0.000, 13:13:46.573
186, 0.00, 27415.38, 15970.19, 9435.21, -3144.24, 13630.90, 31805.73, 0.00, 0.000, 0.000, 0.000, 13:13:46.573
187, 0.00, 27422.10, 15979.26, 9369.20, -3120.66, 13636.73, 31795.94, 0.00, 0.034, -0.036, 0.990, 13:13:46.573
188, 0.00, 27424.83, 15983.13, 9306.89, -3242.01, 13636.53, 31784.58, 0.00, 0.000, 0.000, 0.000, 13:13:46.573
189, 0.00, 27420.13, 15976.42, 9327.94, -3361.90, 13629.51, 31786.06, 0.00, 0.000, 0.000, 0.000, 13:13:46.573
190, 0.00, 27411.93, 15967.82, 9403.24, -3320.62, 13622.31, 31794.97, 0.00, 0.000, 0.000, 0.000, 13:13:46.574
191, 0.00, 27415.38, 15968.93, 9432.12, -3150.12, 13626.70, 31803.78, 0.00, 0.000, 0.000, 0.000, 13:13:46.574
192, 0.00, 27421.83, 15975.06, 9362.34, -3126.92, 13633.85, 31793.66, 0.00, 0.000, 0.000, 0.000, 13:13:46.574
193, 0.00, 27423.94, 15978.88, 9304.67, -3241.00, 13635.86, 31781.30, 0.00, 0.000, 0.000, 0.000, 13:13:46.574
194, 0.00, 27421.52, 15976.98, 9327.70, -3362.02, 13631.50, 31786.39, 0.00, 0.000, 0.000, 0.000, 13:13:46.574
195, 0.00, 27413.27, 15968.44, 9404.56, -3317.51, 13622.63, 31797.19, 0.00, 0.000, 0.000, 0.000, 13:13:46.575
196, 0.00, 27413.21, 15966.14, 9428.61, -3148.56, 13624.64, 31803.27, 0.00, 0.000, 0.000, 0.000, 13:13:46.575
197, 0.00, 27418.79, 15972.58, 9359.10, -3126.87, 13633.36, 31792.58, 0.00, 0.034, -0.036, 0.988, 13:13:46.575
198, 0.00, 27422.86, 15980.40, 9303.00, -3248.87, 13633.92, 31780.96, 0.00, 0.000, 0.000, 0.000, 13:13:46.575
199, 0.00, 27418.17, 15976.47, 9330.98, -3366.17, 13624.64, 31781.92, 0.00, 0.000, 0.000, 0.000, 13:13:46.575
200, 0.00, 27411.22, 15967.66, 9405.81, -3321.63, 13617.96, 31793.99, 0.00, 0.000, 0.000, 0.000, 13:13:46.575
201, 0.00, 27411.69, 15967.95, 9432.35, -3152.18, 13623.63, 31799.65, 0.00, 0.000, 0.000, 0.000, 13:13:46.576
202, 0.00, 27418.08, 15973.79, 9361.31, -3133.27, 13631.75, 31789.83, 0.00, 0.000, 0.000, 0.000, 13:13:46.576
203, 0.00, 27422.19, 15978.28, 9304.03, -3251.20, 13633.13, 31780.11, 0.00, 0.000, 0.000, 0.000, 13:13:46.576
204, 0.00, 27417.14, 15974.37, 9329.19, -3371.83, 13625.71, 31782.37, 0.00, 0.000, 0.000, 0.000, 13:13:46.576
205, 0.00, 27411.73, 15967.55, 9408.45, -3320.31, 13620.84, 31795.94, 0.00, 0.000, 0.000, 0.000, 13:13:46.576
206, 0.00, 27412.25, 15967.73, 9435.14, -3148.67, 13625.15, 31801.59, 0.00, 0.000, 0.000, 0.000, 13:13:46.576
207, 0.00, 27419.51, 15976.62, 9363.84, -3128.62, 13632.24, 31792.72, 0.00, 0.034, -0.028, 0.990, 13:13:46.576
208, 0.00, 27421.25, 15975.13, 9299.46, -3255.17, 13629.62, 31779.55, 0.00, 0.000, 0.000, 0.000, 13:13:46.577
209, 0.00, 27415.33, 15968.96, 9321.42, -3375.76, 13619.79, 31780.78, 0.00, 0.000, 0.000, 0.000, 13:13:46.577
210, 0.00, 27411.02, 15966.83, 9405.61, -3320.82, 13620.37, 31795.98, 0.00, 0.000, 0.000, 0.000, 13:13:46.577
211, 0.00, 27413.54, 15966.43, 9432.64, -3145.70, 13628.28, 31803.20, 0.00, 0.000, 0.000, 0.000, 13:13:46.577
212, 0.00, 27419.58, 15973.45, 9362.88, -3128.31, 13634.36, 31792.49, 0.00, 0.000, 0.000, 0.000, 13:13:46.579
213, 0.00, 27422.26, 15978.17, 9308.63, -3248.20, 13635.08, 31781.52, 0.00, 0.000, 0.000, 0.000, 13:13:46.579
214, 0.00, 27417.56, 15973.74, 9332.97, -3366.89, 13626.83, 31782.97, 0.00, 0.000, 0.000, 0.000, 13:13:46.579
215, 0.00, 27411.64, 15966.28, 9407.31, -3316.42, 13622.63, 31795.42, 0.00, 0.000, 0.000, 0.000, 13:13:46.579
216, 0.00, 27413.68, 15966.36, 9430.09, -3145.40, 13628.19, 31801.57, 0.00, 0.000, 0.000, 0.000, 13:13:46.580
217, 0.00, 27419.24, 15972.60, 9358.43, -3129.18, 13634.52, 31790.33, 0.00, 0.030, -0.026, 0.994, 13:13:46.580
218, 0.00, 27421.05, 15974.70, 9300.76, -3250.75, 13633.47, 31779.02, 0.00, 0.000, 0.000, 0.000, 13:13:46.580
219, 0.00, 27419.55, 15976.60, 9333.89, -3366.55, 13628.17, 31785.19, 0.00, 0.000, 0.000, 0.000, 13:13:46.580
220, 0.00, 27412.09, 15968.80, 9411.92, -3316.17, 13622.11, 31797.68, 0.00, 0.000, 0.000, 0.000, 13:13:46.580
221, 0.00, 27413.81, 15966.90, 9434.29, -3145.11, 13626.41, 31803.89, 0.00, 0.000, 0.000, 0.000, 13:13:46.580
222, 0.00, 27421.99, 15974.19, 9360.80, -3135.21, 13632.42, 31794.44, 0.00, 0.000, 0.000, 0.000, 13:13:46.580
223, 0.00, 27423.76, 15977.96, 9305.43, -3258.30, 13632.71, 31782.48, 0.00, 0.000, 0.000, 0.000, 13:13:46.581
224, 0.00, 27419.17, 15972.51, 9332.12, -3373.46, 13626.94, 31784.54, 0.00, 0.000, 0.000, 0.000, 13:13:46.581
225, 0.00, 27412.58, 15967.30, 9409.57, -3315.30, 13622.14, 31796.85, 0.00, 0.000, 0.000, 0.000, 13:13:46.581
226, 0.00, 27413.05, 15964.82, 9430.63, -3143.44, 13625.15, 31801.53, 0.00, 0.000, 0.000, 0.000, 13:13:46.581
227, 0.00, 27419.64, 15967.71, 9358.88, -3129.00, 13632.15, 31790.30, 0.00, 0.026, -0.028, 0.992, 13:13:46.581
228, 0.00, 27422.93, 15973.27, 9301.30, -3257.36, 13633.54, 31779.98, 0.00, 0.000, 0.000, 0.000, 13:13:46.581
229, 0.00, 27416.16, 15967.66, 9326.62, -3373.97, 13624.30, 31781.14, 0.00, 0.000, 0.000, 0.000, 13:13:46.581
230, 0.00, 27410.28, 15963.64, 9410.31, -3315.12, 13618.54, 31793.66, 0.00, 0.000, 0.000, 0.000, 13:13:46.582
231, 0.00, 27412.09, 15963.91, 9432.01, -3146.70, 13624.08, 31800.03, 0.00, 0.000, 0.000, 0.000, 13:13:46.582
232, 0.00, 27416.34, 15967.59, 9357.89, -3134.68, 13630.83, 31788.85, 0.00, 0.000, 0.000, 0.000, 13:13:46.582
233, 0.00, 27423.18, 15975.95, 9306.71, -3259.06, 13634.47, 31781.65, 0.00, 0.000, 0.000, 0.000, 13:13:46.582
234, 0.00, 27417.25, 15970.57, 9334.56, -3374.62, 13624.55, 31784.04, 0.00, 0.000, 0.000, 0.000, 13:13:46.582
235, 0.00, 27410.57, 15964.08, 9414.93, -3313.56, 13616.82, 31796.94, 0.00, 0.000, 0.000, 0.000, 13:13:46.582
236, 0.00, 27413.12, 15964.82, 9433.96, -3144.73, 13625.06, 31802.20, 0.00, 0.000, 0.000, 0.000, 13:13:46.582
237, 0.00, 27418.39, 15973.56, 9364.69, -3133.13, 13633.89, 31790.79, 0.00, 0.034, -0.028, 0.994, 13:13:46.582
238, 0.00, 27420.47, 15976.29, 9308.92, -3258.91, 13631.79, 31779.78, 0.00, 0.000, 0.000, 0.000, 13:13:46.583
239, 0.00, 27418.12, 15971.48, 9336.41, -3372.86, 13623.99, 31785.41, 0.00, 0.000, 0.000, 0.000, 13:13:46.583
240, 0.00, 27413.43, 15966.14, 9414.29, -3310.36, 13621.09, 31799.47, 0.00, 0.000, 0.000, 0.000, 13:13:46.583
241, 0.00, 27414.48, 15967.66, 9433.46, -3144.47, 13625.65, 31803.16, 0.00, 0.000, 0.000, 0.000, 13:13:47.041
242, 0.00, 27421.48, 15973.52, 9362.61, -3133.09, 13632.35, 31793.01, 0.00, 0.000, 0.000, 0.000, 13:13:47.041
243, 0.00, 27423.42, 15976.20, 9306.75, -3261.28, 13633.98, 31782.23, 0.00, 0.000, 0.000, 0.000, 13:13:47.042
244, 0.00, 27418.19, 15972.47, 9337.31, -3370.82, 13627.05, 31785.77, 0.00, 0.000, 0.000, 0.000, 13:13:47.042
245, 0.00, 27412.42, 15965.72, 9414.40, -3306.49, 13620.84, 31798.39, 0.00, 0.000, 0.000, 0.000, 13:13:47.042
246, 0.00, 27411.24, 15961.63, 9427.09, -3146.28, 13623.08, 31799.94, 0.00, 0.000, 0.000, 0.000, 13:13:47.042
247, 0.00, 27417.72, 15970.41, 9358.41, -3133.74, 13631.34, 31790.21, 0.00, 0.036, -0.034, 1.000, 13:13:47.042
248, 0.00, 27420.74, 15974.46, 9302.97, -3261.92, 13633.71, 31780.96, 0.00, 0.000, 0.000, 0.000, 13:13:47.043
249, 0.00, 27414.93, 15969.61, 9332.25, -3374.87, 13625.20, 31783.82, 0.00, 0.000, 0.000, 0.000, 13:13:47.043
250, 0.00, 27409.79, 15963.10, 9407.13, -3311.84, 13618.74, 31797.17, 0.00, 0.000, 0.000, 0.000, 13:13:47.043
251, 0.00, 27411.64, 15966.83, 9429.22, -3144.26, 13623.57, 31801.01, 0.00, 0.000, 0.000, 0.000, 13:13:47.043
252, 0.00, 27417.79, 15973.32, 9358.65, -3136.87, 13632.75, 31789.28, 0.00, 0.000, 0.000, 0.000, 13:13:47.043
253, 0.00, 27420.58, 15975.75, 9305.23, -3266.24, 13630.23, 31779.17, 0.00, 0.000, 0.000, 0.000, 13:13:47.044
254, 0.00, 27417.16, 15971.24, 9338.38, -3378.38, 13621.78, 31783.78, 0.00, 0.000, 0.000, 0.000, 13:13:47.044
255, 0.00, 27409.74, 15964.40, 9417.66, -3309.76, 13617.15, 31795.15, 0.00, 0.000, 0.000, 0.000, 13:13:47.044
0, 0.00, 27412.47, 15964.53, 9434.69, -3143.15, 13622.52, 31800.05, 0.00, 0.000, 0.000, 0.000, 13:13:47.044
1, 0.00, 27420.36, 15969.94, 9360.49, -3136.89, 13630.43, 31790.46, 0.00, 0.036, -0.032, 0.996, 13:13:47.044
2, 0.00, 27420.78, 15970.88, 9302.33, -3268.63, 13628.60, 31779.06, 0.00, 0.000, 0.000, 0.000, 13:13:47.045
3, 0.00, 27415.71, 15967.28, 9335.05, -3381.22, 13621.42, 31782.50, 0.00, 0.000, 0.000, 0.000, 13:13:47.045
4, 0.00, 27412.98, 15963.57, 9417.95, -3304.64, 13620.28, 31798.98, 0.00, 0.000, 0.000, 0.000, 13:13:47.045
5, 0.00, 27416.04, 15965.60, 9434.56, -3139.88, 13627.72, 31804.94, 0.00, 0.000, 0.000, 0.000, 13:13:47.045
6, 0.00, 27420.87, 15969.72, 9359.08, -3137.78, 13635.08, 31792.99, 0.00, 0.000, 0.000, 0.000, 13:13:47.045
7, 0.00, 27422.77, 15970.61, 9303.38, -3268.96, 13631.81, 31781.63, 0.00, 0.000, 0.000, 0.000, 13:13:47.046
8, 0.00, 27417.30, 15968.09, 9338.71, -3374.47, 13624.28, 31784.65, 0.00, 0.000, 0.000, 0.000, 13:13:47.046
9, 0.00, 27412.87, 15965.65, 9420.28, -3303.83, 13621.87, 31798.84, 0.00, 0.000, 0.000, 0.000, 13:13:47.046
10, 0.00, 27415.29, 15963.57, 9433.40, -3139.30, 13627.50, 31802.89, 0.00, 0.000, 0.000, 0.000, 13:13:47.046
11, 0.00, 27422.82, 15971.30, 9359.21, -3136.26, 13634.27, 31793.57, 0.00, 0.030, -0.036, 0.996, 13:13:47.046
12, 0.00, 27422.55, 15971.91, 9302.66, -3269.95, 13630.14, 31782.37, 0.00, 0.000, 0.000, 0.000, 13:13:47.047
13, 0.00, 27417.14, 15968.55, 9337.60, -3378.24, 13624.06, 31785.28, 0.00, 0.000, 0.000, 0.000, 13:13:47.047
14, 0.00, 27412.63, 15964.08, 9418.15, -3305.40, 13621.38, 31798.73, 0.00, 0.000, 0.000, 0.000, 13:13:47.047
15, 0.00, 27414.57, 15964.08, 9432.19, -3140.62, 13625.33, 31803.20, 0.00, 0.000, 0.000, 0.000, 13:13:47.047
16, 0.00, 27422.64, 15972.73, 9361.87, -3136.96, 13633.96, 31794.15, 0.00, 0.000, 0.000, 0.000, 13:13:47.048
17, 0.00, 27421.43, 15973.67, 9307.47, -3273.21, 13630.52, 31780.11, 0.00, 0.000, 0.000, 0.000, 13:13:47.048
18, 0.00, 27417.72, 15968.17, 9340.21, -3379.45, 13623.48, 31785.48, 0.00, 0.000, 0.000, 0.000, 13:13:47.048
19, 0.00, 27413.83, 15961.72, 9414.62, -3307.30, 13620.73, 31799.33, 0.00, 0.000, 0.000, 0.000, 13:13:47.048
20, 0.00, 27412.36, 15961.72, 9424.30, -3146.95, 13623.30, 31799.56, 0.00, 0.000, 0.000, 0.000, 13:13:47.049
21, 0.00, 27419.82, 15971.24, 9357.42, -3141.07, 13631.08, 31789.34, 0.00, 0.024, -0.034, 0.994, 13:13:47.049
22, 0.00, 27421.63, 15972.96, 9305.10, -3274.17, 13630.00, 31779.80, 0.00, 0.000, 0.000, 0.000, 13:13:47.049
23, 0.00, 27415.96, 15966.21, 9335.61, -3381.84, 13622.25, 31782.97, 0.00, 0.000, 0.000, 0.000, 13:13:47.049
24, 0.00, 27413.81, 15960.89, 9416.07, -3303.32, 13618.20, 31798.75, 0.00, 0.000, 0.000, 0.000, 13:13:47.050
25, 0.00, 27415.17, 15963.53, 9429.58, -3141.36, 13624.46, 31800.76, 0.00, 0.000, 0.000, 0.000, 13:13:47.050
26, 0.00, 27419.85, 15971.28, 9358.52, -3137.56, 13634.59, 31789.14, 0.00, 0.000, 0.000, 0.000, 13:13:47.050
27, 0.00, 27422.42, 15972.60, 9304.79, -3272.18, 13635.44, 31781.50, 0.00, 0.000, 0.000, 0.000, 13:13:47.050
28, 0.00, 27417.54, 15967.73, 9335.88, -3381.75, 13626.96, 31785.56, 0.00, 0.000, 0.000, 0.000, 13:13:47.050
29, 0.00, 27411.13, 15962.63, 9415.14, -3298.42, 13624.06, 31796.74, 0.00, 0.000, 0.000, 0.000, 13:13:47.051
30, 0.00, 27411.26, 15966.43, 9429.87, -3135.57, 13629.94, 31798.95, 0.00, 0.000, 0.000, 0.000, 13:13:47.051
31, 0.00, 27419.09, 15973.14, 9357.65, -3135.93, 13637.16, 31789.46, 0.00, 0.028, -0.032, 0.992, 13:13:47.051
32, 0.00, 27421.10, 15971.55, 9300.90, -3276.68, 13633.51, 31778.46, 0.00, 0.000, 0.000, 0.000, 13:13:47.051
33, 0.00, 27414.91, 15965.87, 9332.28, -3384.43, 13625.69, 31782.30, 0.00, 0.000, 0.000, 0.000, 13:13:47.052
34, 0.00, 27409.43, 15965.58, 9419.56, -3298.87, 13623.57, 31795.29, 0.00, 0.000, 0.000, 0.000, 13:13:47.052
35, 0.00, 27411.75, 15967.39, 9432.53, -3136.46, 13627.32, 31799.42, 0.00, 0.000, 0.000, 0.000, 13:13:47.052
36, 0.00, 27419.78, 15976.67, 9360.53, -3140.44, 13633.83, 31789.34, 0.00, 0.000, 0.000, 0.000, 13:13:47.052
37, 0.00, 27421.37, 15975.06, 9307.96, -3276.81, 13632.75, 31779.29, 0.00, 0.000, 0.000, 0.000, 13:13:47.052
38, 0.00, 27415.22, 15967.26, 9342.83, -3379.09, 13625.18, 31783.04, 0.00, 0.000, 0.000, 0.000, 13:13:47.053
39, 0.00, 27411.31, 15963.97, 9423.88, -3295.34, 13623.66, 31799.11, 0.00, 0.000, 0.000, 0.000, 13:13:47.053
40, 0.00, 27414.21, 15964.53, 9431.52, -3137.49, 13628.44, 31803.65, 0.00, 0.000, 0.000, 0.000, 13:13:47.053
41, 0.00, 27421.66, 15970.86, 9357.45, -3141.69, 13634.70, 31791.31, 0.00, 0.030, -0.034, 0.988, 13:13:47.054
42, 0.00, 27422.24, 15971.68, 9307.65, -3278.38, 13631.52, 31778.03, 0.00, 0.000, 0.000, 0.000, 13:13:47.054
43, 0.00, 27417.99, 15965.69, 9343.10, -3381.48, 13623.95, 31784.38, 0.00, 0.000, 0.000, 0.000, 13:13:47.055
44, 0.00, 27411.69, 15957.54, 9416.88, -3301.24, 13618.94, 31797.14, 0.00, 0.000, 0.000, 0.000, 13:13:47.055
45, 0.00, 27412.69, 15958.56, 9423.70, -3141.00, 13624.08, 31799.56, 0.00, 0.000, 0.000, 0.000, 13:13:47.055
46, 0.00, 27420.34, 15969.05, 9352.01, -3146.23, 13633.65, 31790.06, 0.00, 0.000, 0.000, 0.000, 13:13:47.056
47, 0.00, 27420.20, 15972.96, 9305.77, -3280.65, 13632.89, 31780.00, 0.00, 0.000, 0.000, 0.000, 13:13:47.057
48, 0.00, 27412.47, 15965.31, 9342.47, -3380.59, 13624.15, 31782.73, 0.00, 0.000, 0.000, 0.000, 13:13:47.057
49, 0.00, 27407.84, 15960.11, 9418.60, -3296.86, 13621.87, 31797.12, 0.00, 0.000, 0.000, 0.000, 13:13:47.057
50, 0.00, 27412.25, 15964.40, 9427.25, -3138.39, 13628.89, 31800.88, 0.00, 0.000, 0.000, 0.000, 13:13:47.057
51, 0.00, 27417.01, 15969.00, 9352.06, -3146.95, 13633.92, 31787.49, 0.00, 0.032, -0.030, 0.992, 13:13:47.058
52, 0.00, 27419.64, 15971.80, 9301.86, -3287.96, 13633.36, 31778.70, 0.00, 0.000, 0.000, 0.000, 13:13:47.058
53, 0.00, 27415.22, 15967.33, 9342.34, -3385.82, 13623.90, 31785.10, 0.00, 0.000, 0.000, 0.000, 13:13:47.058
54, 0.00, 27407.22, 15959.68, 9419.38, -3296.93, 13619.48, 31795.87, 0.00, 0.000, 0.000, 0.000, 13:13:47.058
55, 0.00, 27409.25, 15961.02, 9425.31, -3135.97, 13625.02, 31796.96, 0.00, 0.000, 0.000, 0.000, 13:13:47.058
56, 0.00, 27416.96, 15971.08, 9352.64, -3145.20, 13632.44, 31786.17, 0.00, 0.000, 0.000, 0.000, 13:13:47.059
57, 0.00, 27415.89, 15972.02, 9307.36, -3285.35, 13629.65, 31776.04, 0.00, 0.000, 0.000, 0.000, 13:13:47.059
58, 0.00, 27410.30, 15962.56, 9344.95, -3383.70, 13620.88, 31781.12, 0.00, 0.000, 0.000, 0.000, 13:13:47.059
59, 0.00, 27407.51, 15957.02, 9419.34, -3296.93, 13618.96, 31796.54, 0.00, 0.000, 0.000, 0.000, 13:13:47.059
60, 0.00, 27411.78, 15961.13, 9423.81, -3139.28, 13625.65, 31800.68, 0.00, 0.000, 0.000, 0.000, 13:13:47.059
61, 0.00, 27417.21, 15967.44, 9349.04, -3148.73, 13632.42, 31788.07, 0.00, 0.028, -0.032, 0.992, 13:13:47.060
62, 0.00, 27418.41, 15967.39, 9298.73, -3290.22, 13629.29, 31777.45, 0.00, 0.000, 0.000, 0.000, 13:13:47.060
63, 0.00, 27413.01, 15966.70, 9344.12, -3386.69, 13622.67, 31783.40, 0.00, 0.000, 0.000, 0.000, 13:13:47.060
64, 0.00, 27406.70, 15962.77, 9426.49, -3287.99, 13623.79, 31797.30, 0.00, 0.000, 0.000, 0.000, 13:13:47.060
65, 0.00, 27409.81, 15963.95, 9427.27, -3134.56, 13630.83, 31801.19, 0.00, 0.000, 0.000, 0.000, 13:13:47.060
66, 0.00, 27416.29, 15969.16, 9349.80, -3149.79, 13635.97, 31788.58, 0.00, 0.000, 0.000, 0.000, 13:13:47.061
67, 0.00, 27417.28, 15970.03, 9303.80, -3288.14, 13633.16, 31777.32, 0.00, 0.000, 0.000, 0.000, 13:13:47.061
68, 0.00, 27408.65, 15960.84, 9339.92, -3386.47, 13623.68, 31780.09, 0.00, 0.000, 0.000, 0.000, 13:13:47.061
69, 0.00, 27404.53, 15953.02, 9415.18, -3292.50, 13620.79, 31794.89, 0.00, 0.000, 0.000, 0.000, 13:13:47.061
70, 0.00, 27410.86, 15958.18, 9421.60, -3135.15, 13627.48, 31800.90, 0.00, 0.000, 0.000, 0.000, 13:13:47.061
71, 0.00, 27419.53, 15968.44, 9348.84, -3151.80, 13634.41, 31790.06, 0.00, 0.028, -0.036, 0.994, 13:13:47.061
72, 0.00, 27418.79, 15968.04, 9302.33, -3290.36, 13631.61, 31779.20, 0.00, 0.000, 0.000, 0.000, 13:13:47.062
73, 0.00, 27411.37, 15961.96, 9341.31, -3387.70, 13621.47, 31783.60, 0.00, 0.000, 0.000, 0.000, 13:13:47.062
74, 0.00, 27407.35, 15958.00, 9421.30, -3293.13, 13618.38, 31797.08, 0.00, 0.000, 0.000, 0.000, 13:13:47.062
75, 0.00, 27411.15, 15960.35, 9421.21, -3139.44, 13624.84, 31799.76, 0.00, 0.000, 0.000, 0.000, 13:13:47.062
76, 0.00, 27418.12, 15971.97, 9349.24, -3152.27, 13631.95, 31789.28, 0.00, 0.000, 0.000, 0.000, 13:13:47.064
77, 0.00, 27416.52, 15969.29, 9302.30, -3293.66, 13629.24, 31777.56, 0.00, 0.000, 0.000, 0.000, 13:13:47.065
78, 0.00, 27409.27, 15960.08, 9340.82, -3389.37, 13620.50, 31781.54, 0.00, 0.000, 0.000, 0.000, 13:13:47.065
79, 0.00, 27404.71, 15955.75, 9418.11, -3291.45, 13618.87, 31795.98, 0.00, 0.000, 0.000, 0.000, 13:13:47.065
80, 0.00, 27407.44, 15959.59, 9419.65, -3137.51, 13622.76, 31797.52, 0.00, 0.000, 0.000, 0.000, 13:13:47.065
81, 0.00, 27415.84, 15967.10, 9346.36, -3153.34, 13631.90, 31786.71, 0.00, 0.036, -0.032, 0.998, 13:13:47.065
82, 0.00, 27413.99, 15964.62, 9300.07, -3294.92, 13628.86, 31774.84, 0.00, 0.000, 0.000, 0.000, 13:13:47.066
83, 0.00, 27410.97, 15959.35, 9339.61, -3389.91, 13621.47, 31782.82, 0.00, 0.000, 0.000, 0.000, 13:13:47.066
84, 0.00, 27406.81, 15953.13, 9414.20, -3294.22, 13618.54, 31796.32, 0.00, 0.000, 0.000, 0.000, 13:13:47.066
85, 0.00, 27408.65, 15955.03, 9414.87, -3142.19, 13624.91, 31796.92, 0.00, 0.000, 0.000, 0.000, 13:13:47.066
86, 0.00, 27414.12, 15964.08, 9342.09, -3156.00, 13633.18, 31784.27, 0.00, 0.000, 0.000, 0.000, 13:13:47.066
87, 0.00, 27414.48, 15966.03, 9301.34, -3292.28, 13631.14, 31775.15, 0.00, 0.000, 0.000, 0.000, 13:13:47.067
88, 0.00, 27408.56, 15961.25, 9343.59, -3388.30, 13623.90, 31781.27, 0.00, 0.000, 0.000, 0.000, 13:13:47.067
89, 0.00, 27403.71, 15956.26, 9422.33, -3286.94, 13621.42, 31795.24, 0.00, 0.000, 0.000, 0.000, 13:13:47.067
90, 0.00, 27408.11, 15960.02, 9421.08, -3135.32, 13628.35, 31799.51, 0.00, 0.000, 0.000, 0.000, 13:13:47.067
91, 0.00, 27413.86, 15966.19, 9346.90, -3154.26, 13632.62, 31784.36, 0.00, 0.030, -0.034, 0.998, 13:13:47.067
92, 0.00, 27413.99, 15967.95, 9303.11, -3298.27, 13629.56, 31773.00, 0.00, 0.000, 0.000, 0.000, 13:13:47.068
93, 0.00, 27409.47, 15964.82, 9349.09, -3387.59, 13622.70, 31781.41, 0.00, 0.000, 0.000, 0.000, 13:13:47.068
94, 0.00, 27403.06, 15957.67, 9424.72, -3287.09, 13620.24, 31794.30, 0.00, 0.000, 0.000, 0.000, 13:13:47.068
95, 0.00, 27407.06, 15959.44, 9420.79, -3138.43, 13627.01, 31797.46, 0.00, 0.000, 0.000, 0.000, 13:13:47.068
96, 0.00, 27414.66, 15967.28, 9347.07, -3157.88, 13634.32, 31785.21, 0.00, 0.000, 0.000, 0.000, 13:13:47.068
97, 0.00, 27414.44, 15968.82, 9302.97, -3299.12, 13632.02, 31774.08, 0.00, 0.000, 0.000, 0.000, 13:13:47.068
98, 0.00, 27407.91, 15965.20, 9347.48, -3387.59, 13621.78, 31779.57, 0.00, 0.000, 0.000, 0.000, 13:13:47.069
99, 0.00, 27403.10, 15956.80, 9424.81, -3285.13, 13617.17, 31792.76, 0.00, 0.000, 0.000, 0.000, 13:13:47.069
100, 0.00, 27404.49, 15958.61, 9419.79, -3138.16, 13625.31, 31793.10, 0.00, 0.000, 0.000, 0.000, 13:13:47.069
101, 0.00, 27412.60, 15965.63, 9344.12, -3158.12, 13632.44, 31783.13, 0.00, 0.036, -0.034, 1.004, 13:13:47.069
102, 0.00, 27412.40, 15966.07, 9302.88, -3302.18, 13628.15, 31772.51, 0.00, 0.000, 0.000, 0.000, 13:13:47.069
103, 0.00, 27406.59, 15957.51, 9344.53, -3392.93, 13619.72, 31780.00, 0.00, 0.000, 0.000, 0.000, 13:13:47.070
104, 0.00, 27400.98, 15952.06, 9421.33, -3285.01, 13617.51, 31792.96, 0.00, 0.000, 0.000, 0.000, 13:13:47.070
105, 0.00, 27405.94, 15960.20, 9426.47, -3134.45, 13625.76, 31795.56, 0.00, 0.000, 0.000, 0.000, 13:13:47.520
106, 0.00, 27409.76, 15963.35, 9346.00, -3160.58, 13630.54, 31779.80, 0.00, 0.000, 0.000, 0.000, 13:13:47.521
107, 0.00, 27412.58, 15967.82, 9307.74, -3301.02, 13630.23, 31774.50, 0.00, 0.000, 0.000, 0.000, 13:13:47.521
108, 0.00, 27407.89, 15962.52, 9352.06, -3390.69, 13622.87, 31783.11, 0.00, 0.000, 0.000, 0.000, 13:13:47.521
109, 0.00, 27401.32, 15954.65, 9427.14, -3282.44, 13619.39, 31792.92, 0.00, 0.000, 0.000, 0.000, 13:13:47.521
110, 0.00, 27403.37, 15956.42, 9419.11, -3138.83, 13623.66, 31792.74, 0.00, 0.000, 0.000, 0.000, 13:13:47.521
111, 0.00, 27410.37, 15965.69, 9348.37, -3161.36, 13629.27, 31778.21, 0.00, 0.038, -0.030, 1.000, 13:13:47.522
112, 0.00, 27411.46, 15965.18, 9304.07, -3307.81, 13627.88, 31771.28, 0.00, 0.000, 0.000, 0.000, 13:13:47.522
113, 0.00, 27405.21, 15961.29, 9353.36, -3390.40, 13620.10, 31780.67, 0.00, 0.000, 0.000, 0.000, 13:13:47.522
114, 0.00, 27401.52, 15957.87, 9431.41, -3279.98, 13620.66, 31792.92, 0.00, 0.000, 0.000, 0.000, 13:13:47.522
115, 0.00, 27403.86, 15953.80, 9413.97, -3138.43, 13623.97, 31789.63, 0.00, 0.000, 0.000, 0.000, 13:13:47.522
116, 0.00, 27409.41, 15962.70, 9338.40, -3167.33, 13627.88, 31778.66, 0.00, 0.000, 0.000, 0.000, 13:13:47.522
117, 0.00, 27412.04, 15971.51, 9312.27, -3304.75, 13631.19, 31771.57, 0.00, 0.000, 0.000, 0.000, 13:13:47.522
118, 0.00, 27407.84, 15970.37, 9366.61, -3383.85, 13625.56, 31783.93, 0.00, 0.000, 0.000, 0.000, 13:13:47.523
119, 0.00, 27401.58, 15958.36, 9440.08, -3273.30, 13621.58, 31793.10, 0.00, 0.000, 0.000, 0.000, 13:13:47.523
120, 0.00, 27404.96, 15958.70, 9426.36, -3134.47, 13624.35, 31790.28, 0.00, 0.000, 0.000, 0.000, 13:13:47.523
121, 0.00, 27410.35, 15964.98, 9347.86, -3162.10, 13631.97, 31777.79, 0.00, 0.036, -0.032, 0.998, 13:13:47.523
122, 0.00, 27410.08, 15966.83, 9308.72, -3303.95, 13631.01, 31769.20, 0.00, 0.000, 0.000, 0.000, 13:13:47.523
123, 0.00, 27401.88, 15960.20, 9357.96, -3385.64, 13619.95, 31773.52, 0.00, 0.000, 0.000, 0.000, 13:13:47.523
124, 0.00, 27399.62, 15954.07, 9434.49, -3271.24, 13617.73, 31788.27, 0.00, 0.000, 0.000, 0.000, 13:13:47.523
125, 0.00, 27404.45, 15956.44, 9423.65, -3131.39, 13624.19, 31790.71, 0.00, 0.000, 0.000, 0.000, 13:13:47.523
126, 0.00, 27410.30, 15963.24, 9345.93, -3165.30, 13629.40, 31778.35, 0.00, 0.000, 0.000, 0.000, 13:13:47.524
127, 0.00, 27412.54, 15964.96, 9308.67, -3309.22, 13626.32, 31772.11, 0.00, 0.000, 0.000, 0.000, 13:13:47.524
128, 0.00, 27406.48, 15957.54, 9352.44, -3394.76, 13616.97, 31779.44, 0.00, 0.000, 0.000, 0.000, 13:13:47.524
129, 0.00, 27402.34, 15953.94, 9429.93, -3280.34, 13614.31, 31791.44, 0.00, 0.000, 0.000, 0.000, 13:13:47.524
130, 0.00, 27405.58, 15956.66, 9421.46, -3137.47, 13622.18, 31790.51, 0.00, 0.000, 0.000, 0.000, 13:13:47.524
131, 0.00, 27411.13, 15963.93, 9348.24, -3167.15, 13631.52, 31778.95, 0.00, 0.032, -0.030, 1.008, 13:13:47.524
132, 0.00, 27411.53, 15964.78, 9311.18, -3311.68, 13629.29, 31771.73, 0.00, 0.000, 0.000, 0.000, 13:13:47.524
133, 0.00, 27404.78, 15956.42, 9355.95, -3392.44, 13619.74, 31777.59, 0.00, 0.000, 0.000, 0.000, 13:13:47.524
134, 0.00, 27400.35, 15951.17, 9431.12, -3273.99, 13617.62, 31790.06, 0.00, 0.000, 0.000, 0.000, 13:13:47.524
135, 0.00, 27404.71, 15954.50, 9420.25, -3135.06, 13624.37, 31790.24, 0.00, 0.000, 0.000, 0.000, 13:13:47.525
136, 0.00, 27410.30, 15961.94, 9344.35, -3165.72, 13630.83, 31777.16, 0.00, 0.000, 0.000, 0.000, 13:13:47.525
137, 0.00, 27410.86, 15966.70, 9312.59, -3308.68, 13627.30, 31768.91, 0.00, 0.000, 0.000, 0.000, 13:13:47.525
138, 0.00, 27402.75, 15959.44, 9361.83, -3390.29, 13618.38, 31774.30, 0.00, 0.000, 0.000, 0.000, 13:13:47.525
139, 0.00, 27397.61, 15949.85, 9434.83, -3275.18, 13614.80, 31786.33, 0.00, 0.000, 0.000, 0.000, 13:13:47.525
140, 0.00, 27403.19, 15953.80, 9421.73, -3138.27, 13623.30, 31788.78, 0.00, 0.000, 0.000, 0.000, 13:13:47.525
141, 0.00, 27410.41, 15961.60, 9347.43, -3169.03, 13629.85, 31777.12, 0.00, 0.032, -0.032, 1.002, 13:13:47.526
142, 0.00, 27412.00, 15962.92, 9313.14, -3312.57, 13628.24, 31771.66, 0.00, 0.000, 0.000, 0.000, 13:13:47.526
143, 0.00, 27405.54, 15956.82, 9363.19, -3388.77, 13619.43, 31778.32, 0.00, 0.000, 0.000, 0.000, 13:13:47.526
144, 0.00, 27403.33, 15953.96, 9438.16, -3273.39, 13617.80, 31791.15, 0.00, 0.000, 0.000, 0.000, 13:13:47.526
145, 0.00, 27406.88, 15955.64, 9423.76, -3138.97, 13621.17, 31791.87, 0.00, 0.000, 0.000, 0.000, 13:13:47.527
146, 0.00, 27412.76, 15959.91, 9345.38, -3171.11, 13624.93, 31779.24, 0.00, 0.000, 0.000, 0.000, 13:13:47.527
147, 0.00, 27412.83, 15959.30, 9305.95, -3319.32, 13620.06, 31771.55, 0.00, 0.000, 0.000, 0.000, 13:13:47.527
148, 0.00, 27407.24, 15956.64, 9360.37, -3398.16, 13612.79, 31780.34, 0.00, 0.000, 0.000, 0.000, 13:13:47.527
149, 0.00, 27402.81, 15953.36, 9442.81, -3272.23, 13615.16, 31792.79, 0.00, 0.000, 0.000, 0.000, 13:13:47.527
150, 0.00, 27406.72, 15955.88, 9427.70, -3137.54, 13621.51, 31792.70, 0.00, 0.038, -0.028, 0.988, 13:13:47.527
151, 0.00, 27414.01, 15963.46, 9349.31, -3175.04, 13628.62, 31780.96, 0.00, 0.000, 0.000, 0.000, 13:13:47.527
152, 0.00, 27413.10, 15964.06, 9315.00, -3319.30, 13624.95, 31772.80, 0.00, 0.000, 0.000, 0.000, 13:13:47.527
153, 0.00, 27408.00, 15958.74, 9368.60, -3392.30, 13618.22, 31780.92, 0.00, 0.000, 0.000, 0.000, 13:13:47.528
154, 0.00, 27404.53, 15954.85, 9443.50, -3268.16, 13619.74, 31794.55, 0.00, 0.000, 0.000, 0.000, 13:13:47.528
155, 0.00, 27406.14, 15956.44, 9425.78, -3135.73, 13626.32, 31790.91, 0.00, 0.000, 0.000, 0.000, 13:13:47.528
156, 0.00, 27411.60, 15963.44, 9354.61, -3166.37, 13631.81, 31778.68, 0.00, 0.000, 0.000, 0.000, 13:13:47.528
157, 0.00, 27413.01, 15965.43, 9321.75, -3313.40, 13629.11, 31773.47, 0.00, 0.000, 0.000, 0.000, 13:13:47.528
158, 0.00, 27406.57, 15958.43, 9370.25, -3392.59, 13619.23, 31779.89, 0.00, 0.000, 0.000, 0.000, 13:13:47.528
159, 0.00, 27401.23, 15950.99, 9441.20, -3275.00, 13616.19, 31791.40, 0.00, 0.000, 0.000, 0.000, 13:13:47.528
160, 0.00, 27404.04, 15953.74, 9424.48, -3142.59, 13622.40, 31791.02, 0.00, 0.034, -0.028, 0.984, 13:13:47.528
161, 0.00, 27409.79, 15960.33, 9347.57, -3181.10, 13628.30, 31777.76, 0.00, 0.000, 0.000, 0.000, 13:13:47.528
162, 0.00, 27408.92, 15962.54, 9316.45, -3329.11, 13624.82, 31770.46, 0.00, 0.000, 0.000, 0.000, 13:13:47.528
163, 0.00, 27403.69, 15956.53, 9369.20, -3399.72, 13617.33, 31778.55, 0.00, 0.000, 0.000, 0.000, 13:13:47.528
164, 0.00, 27401.76, 15953.51, 9444.35, -3275.02, 13617.53, 31792.88, 0.00, 0.000, 0.000, 0.000, 13:13:47.528
165, 0.00, 27406.39, 15957.02, 9426.98, -3145.29, 13623.81, 31794.62, 0.00, 0.000, 0.000, 0.000, 13:13:47.529
166, 0.00, 27410.46, 15961.11, 9350.92, -3183.47, 13625.27, 31780.38, 0.00, 0.000, 0.000, 0.000, 13:13:47.529
167, 0.00, 27412.56, 15960.98, 9315.92, -3333.38, 13624.15, 31774.95, 0.00, 0.000, 0.000, 0.000, 13:13:47.529
168, 0.00, 27405.99, 15953.89, 9367.66, -3404.64, 13616.64, 31781.41, 0.00, 0.000, 0.000, 0.000, 13:13:47.529
169, 0.00, 27400.80, 15949.09, 9444.93, -3275.92, 13615.25, 31793.23, 0.00, 0.000, 0.000, 0.000, 13:13:47.529
170, 0.00, 27408.18, 15954.32, 9428.48, -3145.83, 13624.59, 31795.91, 0.00, 0.028, -0.032, 0.986, 13:13:47.530
171, 0.00, 27411.31, 15958.32, 9349.22, -3189.66, 13627.32, 31780.25, 0.00, 0.000, 0.000, 0.000, 13:13:47.530
172, 0.00, 27410.35, 15960.31, 9317.91, -3336.20, 13624.66, 31772.69, 0.00, 0.000, 0.000, 0.000, 13:13:47.530
173, 0.00, 27405.38, 15955.64, 9374.86, -3401.42, 13618.60, 31782.06, 0.00, 0.000, 0.000, 0.000, 13:13:47.530
174, 0.00, 27399.42, 15948.82, 9444.24, -3276.18, 13615.77, 31792.85, 0.00, 0.000, 0.000, 0.000, 13:13:47.530
175, 0.00, 27403.04, 15954.25, 9426.36, -3147.80, 13624.50, 31792.29, 0.00, 0.000, 0.000, 0.000, 13:13:47.530
176, 0.00, 27407.80, 15959.12, 9348.86, -3186.67, 13630.83, 31777.65, 0.00, 0.000, 0.000, 0.000, 13:13:47.530
177, 0.00, 27411.08, 15960.93, 9316.43, -3337.58, 13628.01, 31772.31, 0.00, 0.000, 0.000, 0.000, 13:13:47.530
178, 0.00, 27405.09, 15955.21, 9370.88, -3410.32, 13618.45, 31780.74, 0.00, 0.000, 0.000, 0.000, 13:13:47.531
179, 0.00, 27400.85, 15951.28, 9447.52, -3276.16, 13616.30, 31792.03, 0.00, 0.000, 0.000, 0.000, 13:13:47.531
180, 0.00, 27399.91, 15955.32, 9430.89, -3150.86, 13622.11, 31786.55, 0.00, 0.032, -0.032, 0.986, 13:13:47.531
181, 0.00, 27408.89, 15959.68, 9355.21, -3190.85, 13628.95, 31776.20, 0.00, 0.000, 0.000, 0.000, 13:13:47.531
182, 0.00, 27409.52, 15961.80, 9325.13, -3336.67, 13626.50, 31769.83, 0.00, 0.000, 0.000, 0.000, 13:13:47.531
183, 0.00, 27401.20, 15954.03, 9375.24, -3408.17, 13615.48, 31778.17, 0.00, 0.000, 0.000, 0.000, 13:13:47.531
184, 0.00, 27400.53, 15949.15, 9444.59, -3278.15, 13615.32, 31791.44, 0.00, 0.000, 0.000, 0.000, 13:13:47.531
185, 0.00, 27404.11, 15954.81, 9426.16, -3155.26, 13622.36, 31788.09, 0.00, 0.000, 0.000, 0.000, 13:13:47.531
186, 0.00, 27409.45, 15962.25, 9353.24, -3198.00, 13626.72, 31775.89, 0.00, 0.000, 0.000, 0.000, 13:13:47.531
187, 0.00, 27408.13, 15962.36, 9324.50, -3341.68, 13624.68, 31769.40, 0.00, 0.000, 0.000, 0.000, 13:13:47.532
188, 0.00, 27402.63, 15955.21, 9375.86, -3409.16, 13616.82, 31777.47, 0.00, 0.000, 0.000, 0.000, 13:13:47.532
189, 0.00, 27397.45, 15947.25, 9445.15, -3274.24, 13614.51, 31788.85, 0.00, 0.000, 0.000, 0.000, 13:13:47.533
190, 0.00, 27403.10, 15952.98, 9424.95, -3150.86, 13622.90, 31791.02, 0.00, 0.026, -0.036, 0.990, 13:13:47.533
191, 0.00, 27407.89, 15960.22, 9352.19, -3195.11, 13628.69, 31778.10, 0.00, 0.000, 0.000, 0.000, 13:13:47.533
192, 0.00, 27408.18, 15961.16, 9326.38, -3343.91, 13623.28, 31771.91, 0.00, 0.000, 0.000, 0.000, 13:13:47.533
193, 0.00, 27404.15, 15954.76, 9381.32, -3409.85, 13614.42, 31781.34, 0.00, 0.000, 0.000, 0.000, 13:13:47.533
194, 0.00, 27400.29, 15949.67, 9451.57, -3275.72, 13614.22, 31792.76, 0.00, 0.000, 0.000, 0.000, 13:13:47.533
195, 0.00, 27405.79, 15952.75, 9427.65, -3153.97, 13621.89, 31792.14, 0.00, 0.000, 0.000, 0.000, 13:13:47.533
196, 0.00, 27411.02, 15957.42, 9347.48, -3203.92, 13626.92, 31779.82, 0.00, 0.000, 0.000, 0.000, 13:13:47.535
197, 0.00, 27410.23, 15959.84, 9321.86, -3351.44, 13622.74, 31773.18, 0.00, 0.000, 0.000, 0.000, 13:13:47.535
198, 0.00, 27403.08, 15954.65, 9382.21, -3412.69, 13612.99, 31780.67, 0.00, 0.000, 0.000, 0.000, 13:13:47.535
199, 0.00, 27402.34, 15949.71, 9453.40, -3277.68, 13613.37, 31794.04, 0.00, 0.000, 0.000, 0.000, 13:13:47.536
200, 0.00, 27407.22, 15955.86, 9431.47, -3154.21, 13623.57, 31793.88, 0.00, 0.028, -0.032, 0.992, 13:13:47.536
201, 0.00, 27408.80, 15963.41, 9355.25, -3201.82, 13629.45, 31779.35, 0.00, 0.000, 0.000, 0.000, 13:13:47.537
202, 0.00, 27409.61, 15960.33, 9324.43, -3353.03, 13625.18, 31773.58, 0.00, 0.000, 0.000, 0.000, 13:13:47.537
203, 0.00, 27403.91, 15951.21, 9378.90, -3414.05, 13617.67, 31780.13, 0.00, 0.000, 0.000, 0.000, 13:13:47.538
204, 0.00, 27400.44, 15948.55, 9451.43, -3273.79, 13616.64, 31791.51, 0.00, 0.000, 0.000, 0.000, 13:13:47.538
205, 0.00, 27404.78, 15952.15, 9424.19, -3153.85, 13623.46, 31789.77, 0.00, 0.000, 0.000, 0.000, 13:13:47.538
206, 0.00, 27409.92, 15957.09, 9344.95, -3205.55, 13628.42, 31776.76, 0.00, 0.000, 0.000, 0.000, 13:13:47.538
207, 0.00, 27409.12, 15959.84, 9323.56, -3350.62, 13624.26, 31769.83, 0.00, 0.000, 0.000, 0.000, 13:13:47.538
208, 0.00, 27403.60, 15955.48, 9382.90, -3409.36, 13617.75, 31779.15, 0.00, 0.000, 0.000, 0.000, 13:13:47.538
209, 0.00, 27399.73, 15950.52, 9451.39, -3270.55, 13618.29, 31790.95, 0.00, 0.000, 0.000, 0.000, 13:13:47.539
210, 0.00, 27406.50, 15955.77, 9425.57, -3151.06, 13625.31, 31789.83, 0.00, 0.032, -0.032, 0.988, 13:13:47.539
211, 0.00, 27412.25, 15961.45, 9347.75, -3204.44, 13629.85, 31777.16, 0.00, 0.000, 0.000, 0.000, 13:13:47.540
212, 0.00, 27409.34, 15960.04, 9322.04, -3355.98, 13623.79, 31768.15, 0.00, 0.000, 0.000, 0.000, 13:13:47.540
213, 0.00, 27405.63, 15955.26, 9381.50, -3409.98, 13618.74, 31780.60, 0.00, 0.000, 0.000, 0.000, 13:13:47.540
214, 0.00, 27402.86, 15951.77, 9451.32, -3267.69, 13617.55, 31791.64, 0.00, 0.000, 0.000, 0.000, 13:13:47.540
215, 0.00, 27406.99, 15953.56, 9418.67, -3161.92, 13621.60, 31789.70, 0.00, 0.000, 0.000, 0.000, 13:13:47.540
216, 0.00, 27411.98, 15959.50, 9344.21, -3213.04, 13627.08, 31776.51, 0.00, 0.000, 0.000, 0.000, 13:13:47.540
217, 0.00, 27409.76, 15960.73, 9325.17, -3359.06, 13623.72, 31769.45, 0.00, 0.000, 0.000, 0.000, 13:13:47.540
218, 0.00, 27402.77, 15952.57, 9382.10, -3415.61, 13613.96, 31778.90, 0.00, 0.000, 0.000, 0.000, 13:13:47.540
219, 0.00, 27401.07, 15949.85, 9454.09, -3271.04, 13616.64, 31792.40, 0.00, 0.000, 0.000, 0.000, 13:13:47.540
220, 0.00, 27405.72, 15957.04, 9424.79, -3160.89, 13625.60, 31792.96, 0.00, 0.028, -0.030, 0.988, 13:13:47.540
221, 0.00, 27410.21, 15959.77, 9350.65, -3209.84, 13629.31, 31778.05, 0.00, 0.000, 0.000, 0.000, 13:13:47.541
222, 0.00, 27410.75, 15956.46, 9324.43, -3356.05, 13625.71, 31771.95, 0.00, 0.000, 0.000, 0.000, 13:13:47.541
223, 0.00, 27404.33, 15949.42, 9378.99, -3412.82, 13617.78, 31781.23, 0.00, 0.000, 0.000, 0.000, 13:13:47.541
224, 0.00, 27400.87, 15945.96, 9450.74, -3267.76, 13617.26, 31794.08, 0.00, 0.000, 0.000, 0.000, 13:13:47.541
225, 0.00, 27406.84, 15951.39, 9423.61, -3155.28, 13625.89, 31792.40, 0.00, 0.000, 0.000, 0.000, 13:13:48.003
226, 0.00, 27409.90, 15956.44, 9348.42, -3210.09, 13628.13, 31777.27, 0.00, 0.000, 0.000, 0.000, 13:13:48.003
227, 0.00, 27410.35, 15957.47, 9325.24, -3360.36, 13624.26, 31774.48, 0.00, 0.000, 0.000, 0.000, 13:13:48.003
228, 0.00, 27405.00, 15949.40, 9382.79, -3413.13, 13616.64, 31783.38, 0.00, 0.000, 0.000, 0.000, 13:13:48.003
229, 0.00, 27399.46, 15944.37, 9448.24, -3272.54, 13615.10, 31791.31, 0.00, 0.000, 0.000, 0.000, 13:13:48.004
230, 0.00, 27405.27, 15950.27, 9418.71, -3161.48, 13622.52, 31790.01, 0.00, 0.032, -0.030, 0.988, 13:13:48.004
231, 0.00, 27411.49, 15955.68, 9342.85, -3218.96, 13626.83, 31778.26, 0.00, 0.000, 0.000, 0.000, 13:13:48.004
232, 0.00, 27409.05, 15957.00, 9322.55, -3365.86, 13623.92, 31770.68, 0.00, 0.000, 0.000, 0.000, 13:13:48.004
233, 0.00, 27400.98, 15951.28, 9385.12, -3417.49, 13615.48, 31777.54, 0.00, 0.000, 0.000, 0.000, 13:13:48.004
234, 0.00, 27399.13, 15944.30, 9451.68, -3269.81, 13613.89, 31791.18, 0.00, 0.000, 0.000, 0.000, 13:13:48.005
235, 0.00, 27403.04, 15947.66, 9419.83, -3160.67, 13620.84, 31788.16, 0.00, 0.000, 0.000, 0.000, 13:13:48.005
236, 0.00, 27407.82, 15955.39, 9342.72, -3221.24, 13627.32, 31772.94, 0.00, 0.000, 0.000, 0.000, 13:13:48.006
237, 0.00, 27407.28, 15957.96, 9322.31, -3363.78, 13624.82, 31766.81, 0.00, 0.000, 0.000, 0.000, 13:13:48.006
238, 0.00, 27403.17, 15950.12, 9384.45, -3413.02, 13619.50, 31778.66, 0.00, 0.000, 0.000, 0.000, 13:13:48.006
239, 0.00, 27398.12, 15944.46, 9451.01, -3266.73, 13617.98, 31790.48, 0.00, 0.000, 0.000, 0.000, 13:13:48.006
240, 0.00, 27400.91, 15948.28, 9415.29, -3162.06, 13622.52, 31785.54, 0.00, 0.034, -0.026, 0.988, 13:13:48.006
241, 0.00, 27405.54, 15952.98, 9338.58, -3220.66, 13626.65, 31769.90, 0.00, 0.000, 0.000, 0.000, 13:13:48.006
242, 0.00, 27405.88, 15953.85, 9318.62, -3366.57, 13622.52, 31767.06, 0.00, 0.000, 0.000, 0.000, 13:13:48.007
243, 0.00, 27400.33, 15949.31, 9380.67, -3416.29, 13615.14, 31777.90, 0.00, 0.000, 0.000, 0.000, 13:13:48.007
244, 0.00, 27399.06, 15945.04, 9446.36, -3269.99, 13616.35, 31790.66, 0.00, 0.000, 0.000, 0.000, 13:13:48.007
245, 0.00, 27401.38, 15945.78, 9410.08, -3166.08, 13619.36, 31785.86, 0.00, 0.000, 0.000, 0.000, 13:13:48.007
246, 0.00, 27405.79, 15951.72, 9334.49, -3226.76, 13620.28, 31773.76, 0.00, 0.000, 0.000, 0.000, 13:13:48.007
247, 0.00, 27407.53, 15951.68, 9315.96, -3372.72, 13617.55, 31768.96, 0.00, 0.000, 0.000, 0.000, 13:13:48.008
248, 0.00, 27401.65, 15945.87, 9375.13, -3425.74, 13611.27, 31779.71, 0.00, 0.000, 0.000, 0.000, 13:13:48.008
249, 0.00, 27400.80, 15944.01, 9447.63, -3271.24, 13612.75, 31792.40, 0.00, 0.000, 0.000, 0.000, 13:13:48.008
250, 0.00, 27407.04, 15950.07, 9415.09, -3162.15, 13622.63, 31788.83, 0.00, 0.038, -0.034, 0.990, 13:13:48.009
251, 0.00, 27411.66, 15957.33, 9337.15, -3226.68, 13626.14, 31774.21, 0.00, 0.000, 0.000, 0.000, 13:13:48.009
252, 0.00, 27408.22, 15956.84, 9321.10, -3372.83, 13619.83, 31766.72, 0.00, 0.000, 0.000, 0.000, 13:13:48.009
253, 0.00, 27401.70, 15952.75, 9386.68, -3418.30, 13613.96, 31778.12, 0.00, 0.000, 0.000, 0.000, 13:13:48.009
254, 0.00, 27395.46, 15948.77, 9453.76, -3265.28, 13613.33, 31787.80, 0.00, 0.000, 0.000, 0.000, 13:13:48.009
255, 0.00, 27399.08, 15947.48, 9415.27, -3163.96, 13616.79, 31781.63, 0.00, 0.000, 0.000, 0.000, 13:13:48.009
0, 0.00, 27404.62, 15949.65, 9336.30, -3228.93, 13621.80, 31768.38, 0.00, 0.000, 0.000, 0.000, 13:13:48.011
1, 0.00, 27407.44, 15951.39, 9317.06, -3375.47, 13622.23, 31768.60, 0.00, 0.000, 0.000, 0.000, 13:13:48.011
2, 0.00, 27402.90, 15948.75, 9384.63, -3418.39, 13617.26, 31780.51, 0.00, 0.000, 0.000, 0.000, 13:13:48.011
3, 0.00, 27398.30, 15943.19, 9452.89, -3262.73, 13616.37, 31789.77, 0.00, 0.000, 0.000, 0.000, 13:13:48.011
4, 0.00, 27403.55, 15946.61, 9412.90, -3165.41, 13621.87, 31785.05, 0.00, 0.038, -0.036, 0.996, 13:13:48.012
5, 0.00, 27407.15, 15950.58, 9332.21, -3233.81, 13623.63, 31770.14, 0.00, 0.000, 0.000, 0.000, 13:13:48.012
6, 0.00, 27407.66, 15950.52, 9314.22, -3375.18, 13620.77, 31768.71, 0.00, 0.000, 0.000, 0.000, 13:13:48.012
7, 0.00, 27401.81, 15947.59, 9381.23, -3418.95, 13615.43, 31779.26, 0.00, 0.000, 0.000, 0.000, 13:13:48.012
8, 0.00, 27399.01, 15943.59, 9449.16, -3265.34, 13614.78, 31790.37, 0.00, 0.000, 0.000, 0.000, 13:13:48.012
9, 0.00, 27403.13, 15947.05, 9410.53, -3167.49, 13620.06, 31787.15, 0.00, 0.000, 0.000, 0.000, 13:13:48.013
10, 0.00, 27407.22, 15953.89, 9338.02, -3229.40, 13623.86, 31774.39, 0.00, 0.000, 0.000, 0.000, 13:13:48.013
11, 0.00, 27406.84, 15953.40, 9321.10, -3378.85, 13618.27, 31770.41, 0.00, 0.000, 0.000, 0.000, 13:13:48.013
12, 0.00, 27399.71, 15943.57, 9379.98, -3422.43, 13609.73, 31778.84, 0.00, 0.000, 0.000, 0.000, 13:13:48.013
13, 0.00, 27399.28, 15942.63, 9445.71, -3266.89, 13614.42, 31792.05, 0.00, 0.000, 0.000, 0.000, 13:13:48.013
14, 0.00, 27405.09, 15950.09, 9412.81, -3164.27, 13623.08, 31787.96, 0.00, 0.036, -0.038, 1.002, 13:13:48.014
15, 0.00, 27408.22, 15954.41, 9338.13, -3228.02, 13625.87, 31773.41, 0.00, 0.000, 0.000, 0.000, 13:13:48.014
16, 0.00, 27406.72, 15950.96, 9316.43, -3380.10, 13621.91, 31769.61, 0.00, 0.000, 0.000, 0.000, 13:13:48.014
17, 0.00, 27400.82, 15944.39, 9379.71, -3420.60, 13614.20, 31780.58, 0.00, 0.000, 0.000, 0.000, 13:13:48.014
18, 0.00, 27398.72, 15944.79, 9447.79, -3266.04, 13615.65, 31792.92, 0.00, 0.000, 0.000, 0.000, 13:13:48.014
19, 0.00, 27404.89, 15947.68, 9411.38, -3168.83, 13620.42, 31788.61, 0.00, 0.000, 0.000, 0.000, 13:13:48.014
20, 0.00, 27407.75, 15948.95, 9333.86, -3236.91, 13624.50, 31773.88, 0.00, 0.000, 0.000, 0.000, 13:13:48.015
21, 0.00, 27405.94, 15949.22, 9319.54, -3379.61, 13619.10, 31769.61, 0.00, 0.000, 0.000, 0.000, 13:13:48.015
22, 0.00, 27399.64, 15943.30, 9381.61, -3423.08, 13609.46, 31779.17, 0.00, 0.000, 0.000, 0.000, 13:13:48.015
23, 0.00, 27397.63, 15939.83, 9445.09, -3266.93, 13612.17, 31791.69, 0.00, 0.000, 0.000, 0.000, 13:13:48.015
24, 0.00, 27401.07, 15944.30, 9405.73, -3168.85, 13620.73, 31788.16, 0.00, 0.030, -0.030, 0.996, 13:13:48.015
25, 0.00, 27407.98, 15954.18, 9336.79, -3234.92, 13626.14, 31775.08, 0.00, 0.000, 0.000, 0.000, 13:13:48.016
26, 0.00, 27406.17, 15954.03, 9323.90, -3382.42, 13620.91, 31770.72, 0.00, 0.000, 0.000, 0.000, 13:13:48.016
27, 0.00, 27399.08, 15946.85, 9386.70, -3424.44, 13611.36, 31780.25, 0.00, 0.000, 0.000, 0.000, 13:13:48.016
28, 0.00, 27396.17, 15941.13, 9448.06, -3268.99, 13610.45, 31791.49, 0.00, 0.000, 0.000, 0.000, 13:13:48.016
29, 0.00, 27401.90, 15944.93, 9406.93, -3173.41, 13616.91, 31786.73, 0.00, 0.000, 0.000, 0.000, 13:13:48.016
30, 0.00, 27408.11, 15951.81, 9332.28, -3242.12, 13622.25, 31774.86, 0.00, 0.000, 0.000, 0.000, 13:13:48.017
31, 0.00, 27405.23, 15950.32, 9322.24, -3388.52, 13616.66, 31770.05, 0.00, 0.000, 0.000, 0.000, 13:13:48.017
32, 0.00, 27400.91, 15944.88, 9387.42, -3424.31, 13610.71, 31782.14, 0.00, 0.000, 0.000, 0.000, 13:13:48.017
33, 0.00, 27397.72, 15942.14, 9449.76, -3265.30, 13611.38, 31792.18, 0.00, 0.000, 0.000, 0.000, 13:13:48.018
34, 0.00, 27401.05, 15943.23, 9406.22, -3170.33, 13614.96, 31783.89, 0.00, 0.030, -0.034, 0.992, 13:13:48.018
35, 0.00, 27407.53, 15948.35, 9329.80, -3241.00, 13618.56, 31771.66, 0.00, 0.000, 0.000, 0.000, 13:13:48.018
36, 0.00, 27405.27, 15954.74, 9323.54, -3387.54, 13619.79, 31769.29, 0.00, 0.000, 0.000, 0.000, 13:13:48.018
37, 0.00, 27398.23, 15944.75, 9389.74, -3420.40, 13610.29, 31778.44, 0.00, 0.000, 0.000, 0.000, 13:13:48.018
38, 0.00, 27395.88, 15937.58, 9447.66, -3266.80, 13608.46, 31789.01, 0.00, 0.000, 0.000, 0.000, 13:13:48.019
39, 0.00, 27402.34, 15942.07, 9403.74, -3175.49, 13615.83, 31787.40, 0.00, 0.000, 0.000, 0.000, 13:13:48.019
40, 0.00, 27406.81, 15948.08, 9331.76, -3244.60, 13621.85, 31774.37, 0.00, 0.000, 0.000, 0.000, 13:13:48.019
41, 0.00, 27405.43, 15948.33, 9321.30, -3387.43, 13618.31, 31770.97, 0.00, 0.000, 0.000, 0.000, 13:13:48.019
42, 0.00, 27400.13, 15944.17, 9387.71, -3422.03, 13610.25, 31782.26, 0.00, 0.000, 0.000, 0.000, 13:13:48.019
43, 0.00, 27396.89, 15940.71, 9452.19, -3259.71, 13610.07, 31792.09, 0.00, 0.000, 0.000, 0.000, 13:13:48.020
44, 0.00, 27403.46, 15944.48, 9406.58, -3174.06, 13617.26, 31789.63, 0.00, 0.036, -0.028, 0.990, 13:13:48.020
45, 0.00, 27408.49, 15948.19, 9332.72, -3246.68, 13621.02, 31775.22, 0.00, 0.000, 0.000, 0.000, 13:13:48.020
46, 0.00, 27405.50, 15945.91, 9319.81, -3390.11, 13615.65, 31770.05, 0.00, 0.000, 0.000, 0.000, 13:13:48.020
47, 0.00, 27400.98, 15943.90, 9387.71, -3423.39, 13610.67, 31782.12, 0.00, 0.000, 0.000, 0.000, 13:13:48.021
48, 0.00, 27399.13, 15938.94, 9449.74, -3258.03, 13612.57, 31794.04, 0.00, 0.000, 0.000, 0.000, 13:13:48.021
49, 0.00, 27405.14, 15940.44, 9399.15, -3172.20, 13619.45, 31790.82, 0.00, 0.000, 0.000, 0.000, 13:13:48.021
50, 0.00, 27406.95, 15947.08, 9329.73, -3248.16, 13621.40, 31773.56, 0.00, 0.000, 0.000, 0.000, 13:13:48.021
51, 0.00, 27405.27, 15949.40, 9325.10, -3392.30, 13617.42, 31771.37, 0.00, 0.000, 0.000, 0.000, 13:13:48.021
52, 0.00, 27399.86, 15942.92, 9390.10, -3420.44, 13613.13, 31783.11, 0.00, 0.000, 0.000, 0.000, 13:13:48.022
53, 0.00, 27396.98, 15940.35, 9451.01, -3258.24, 13614.45, 31793.86, 0.00, 0.000, 0.000, 0.000, 13:13:48.022
54, 0.00, 27402.88, 15945.78, 9407.60, -3171.04, 13621.33, 31788.40, 0.00, 0.030, -0.034, 0.992, 13:13:48.023
55, 0.00, 27406.88, 15954.92, 9337.20, -3244.78, 13625.71, 31774.52, 0.00, 0.000, 0.000, 0.000, 13:13:48.023
56, 0.00, 27405.74, 15951.95, 9326.73, -3394.07, 13619.34, 31770.79, 0.00, 0.000, 0.000, 0.000, 13:13:48.023
57, 0.00, 27397.61, 15942.25, 9389.52, -3425.65, 13609.46, 31779.78, 0.00, 0.000, 0.000, 0.000, 13:13:48.023
58, 0.00, 27393.04, 15937.60, 9449.20, -3259.24, 13609.66, 31787.60, 0.00, 0.000, 0.000, 0.000, 13:13:48.023
59, 0.00, 27399.39, 15944.15, 9404.88, -3175.78, 13618.05, 31783.58, 0.00, 0.000, 0.000, 0.000, 13:13:48.023
60, 0.00, 27401.47, 15949.40, 9332.10, -3252.42, 13621.04, 31767.51, 0.00, 0.000, 0.000, 0.000, 13:13:48.027
61, 0.00, 27401.29, 15948.06, 9323.11, -3397.82, 13615.32, 31764.78, 0.00, 0.000, 0.000, 0.000, 13:13:48.027
62, 0.00, 27394.95, 15940.50, 9386.39, -3428.11, 13608.93, 31776.24, 0.00, 0.000, 0.000, 0.000, 13:13:48.028
63, 0.00, 27389.42, 15935.63, 9445.33, -3261.59, 13608.23, 31784.58, 0.00, 0.000, 0.000, 0.000, 13:13:48.028
64, 0.00, 27398.90, 15946.14, 9406.17, -3175.47, 13620.71, 31784.09, 0.00, 0.028, -0.040, 0.990, 13:13:48.028
65, 0.00, 27403.24, 15949.78, 9334.78, -3251.71, 13624.75, 31770.08, 0.00, 0.000, 0.000, 0.000, 13:13:48.029
66, 0.00, 27399.06, 15945.76, 9323.76, -3400.71, 13615.34, 31764.58, 0.00, 0.000, 0.000, 0.000, 13:13:48.029
67, 0.00, 27395.64, 15939.32, 9389.77, -3426.16, 13609.15, 31779.13, 0.00, 0.000, 0.000, 0.000, 13:13:48.029
68, 0.00, 27393.80, 15935.32, 9449.76, -3258.01, 13611.83, 31789.61, 0.00, 0.000, 0.000, 0.000, 13:13:48.029
69, 0.00, 27398.46, 15941.80, 9403.16, -3177.99, 13619.14, 31783.78, 0.00, 0.000, 0.000, 0.000, 13:13:48.029
70, 0.00, 27402.75, 15947.23, 9333.28, -3256.94, 13621.13, 31769.61, 0.00, 0.000, 0.000, 0.000, 13:13:48.030
71, 0.00, 27397.81, 15943.23, 9326.40, -3403.54, 13613.96, 31764.71, 0.00, 0.000, 0.000, 0.000, 13:13:48.030
72, 0.00, 27394.68, 15939.83, 9394.64, -3424.26, 13610.49, 31779.33, 0.00, 0.000, 0.000, 0.000, 13:13:48.030
73, 0.00, 27395.24, 15941.67, 9452.89, -3258.53, 13614.29, 31791.80, 0.00, 0.000, 0.000, 0.000, 13:13:48.030
74, 0.00, 27397.92, 15941.04, 9403.36, -3178.44, 13617.33, 31782.77, 0.00, 0.032, -0.032, 0.988, 13:13:48.030
75, 0.00, 27400.98, 15943.63, 9327.41, -3262.24, 13617.20, 31766.21, 0.00, 0.000, 0.000, 0.000, 13:13:48.031
76, 0.00, 27401.43, 15944.35, 9322.44, -3405.33, 13612.39, 31765.63, 0.00, 0.000, 0.000, 0.000, 13:13:48.031
77, 0.00, 27397.25, 15941.67, 9394.97, -3425.43, 13606.56, 31779.91, 0.00, 0.000, 0.000, 0.000, 13:13:48.031
78, 0.00, 27395.33, 15936.75, 9450.07, -3259.55, 13607.47, 31787.20, 0.00, 0.000, 0.000, 0.000, 13:13:48.031
79, 0.00, 27399.08, 15941.53, 9401.57, -3180.81, 13614.51, 31781.47, 0.00, 0.000, 0.000, 0.000, 13:13:48.031
80, 0.00, 27403.46, 15945.31, 9326.29, -3265.50, 13614.89, 31767.39, 0.00, 0.000, 0.000, 0.000, 13:13:48.032
81, 0.00, 27401.09, 15942.81, 9318.29, -3411.93, 13607.43, 31762.74, 0.00, 0.000, 0.000, 0.000, 13:13:48.032
82, 0.00, 27397.20, 15938.40, 9388.81, -3429.14, 13600.66, 31776.83, 0.00, 0.000, 0.000, 0.000, 13:13:48.033
83, 0.00, 27394.83, 15934.89, 9445.65, -3258.64, 13605.53, 31786.48, 0.00, 0.000, 0.000, 0.000, 13:13:48.033
84, 0.00, 27397.74, 15940.21, 9396.96, -3181.73, 13612.59, 31778.14, 0.00, 0.030, -0.036, 0.992, 13:13:48.033
85, 0.00, 27403.21, 15948.95, 9329.30, -3263.71, 13616.21, 31766.25, 0.00, 0.000, 0.000, 0.000, 13:13:48.033
86, 0.00, 27400.53, 15946.76, 9322.51, -3410.03, 13612.32, 31764.31, 0.00, 0.000, 0.000, 0.000, 13:13:48.033
87, 0.00, 27394.21, 15940.53, 9392.00, -3423.64, 13605.82, 31778.57, 0.00, 0.000, 0.000, 0.000, 13:13:48.033
88, 0.00, 27394.50, 15940.73, 9449.71, -3255.53, 13609.35, 31787.46, 0.00, 0.000, 0.000, 0.000, 13:13:48.033
89, 0.00, 27398.46, 15945.87, 9398.71, -3183.18, 13616.39, 31778.21, 0.00, 0.000, 0.000, 0.000, 13:13:48.034
90, 0.00, 27400.91, 15951.10, 9327.23, -3266.98, 13617.93, 31764.42, 0.00, 0.000, 0.000, 0.000, 13:13:48.483
91, 0.00, 27394.59, 15944.91, 9324.99, -3407.99, 13610.85, 31760.15, 0.00, 0.000, 0.000, 0.000, 13:13:48.484
92, 0.00, 27391.48, 15936.57, 9391.38, -3423.48, 13605.26, 31774.41, 0.00, 0.000, 0.000, 0.000, 13:13:48.484
93, 0.00, 27390.68, 15936.28, 9444.04, -3257.90, 13607.34, 31785.39, 0.00, 0.000, 0.000, 0.000, 13:13:48.484
94, 0.00, 27396.49, 15942.02, 9395.09, -3183.09, 13613.53, 31780.45, 0.00, 0.032, -0.036, 0.992, 13:13:48.484
95, 0.00, 27400.64, 15947.28, 9324.30, -3269.90, 13614.20, 31766.34, 0.00, 0.000, 0.000, 0.000, 13:13:48.485
96, 0.00, 27398.54, 15945.42, 9325.33, -3411.68, 13609.71, 31764.76, 0.00, 0.000, 0.000, 0.000, 13:13:48.485
97, 0.00, 27391.97, 15937.49, 9393.37, -3426.66, 13603.47, 31774.17, 0.00, 0.000, 0.000, 0.000, 13:13:48.485
98, 0.00, 27392.51, 15934.63, 9445.78, -3256.07, 13606.69, 31785.54, 0.00, 0.000, 0.000, 0.000, 13:13:48.486
99, 0.00, 27398.21, 15939.18, 9392.56, -3186.67, 13612.64, 31778.10, 0.00, 0.000, 0.000, 0.000, 13:13:48.488
100, 0.00, 27400.29, 15943.41, 9322.46, -3272.99, 13613.49, 31762.39, 0.00, 0.000, 0.000, 0.000, 13:13:48.488
101, 0.00, 27397.43, 15938.92, 9319.20, -3415.32, 13608.03, 31759.82, 0.00, 0.000, 0.000, 0.000, 13:13:48.489
102, 0.00, 27393.74, 15933.69, 9390.68, -3425.61, 13603.18, 31773.99, 0.00, 0.000, 0.000, 0.000, 13:13:48.489
103, 0.00, 27393.72, 15935.65, 9447.05, -3257.34, 13606.04, 31786.15, 0.00, 0.000, 0.000, 0.000, 13:13:48.489
104, 0.00, 27397.74, 15944.21, 9398.64, -3187.07, 13612.84, 31778.50, 0.00, 0.028, -0.038, 0.990, 13:13:48.490
105, 0.00, 27402.50, 15949.96, 9328.88, -3271.85, 13617.24, 31765.25, 0.00, 0.000, 0.000, 0.000, 13:13:48.490
106, 0.00, 27398.39, 15946.11, 9327.25, -3410.12, 13612.95, 31761.74, 0.00, 0.000, 0.000, 0.000, 13:13:48.490
107, 0.00, 27391.41, 15943.77, 9398.04, -3421.18, 13605.66, 31773.65, 0.00, 0.000, 0.000, 0.000, 13:13:48.490
108, 0.00, 27391.57, 15942.74, 9452.24, -3249.59, 13609.40, 31783.13, 0.00, 0.000, 0.000, 0.000, 13:13:48.490
109, 0.00, 27395.35, 15942.29, 9395.31, -3185.39, 13615.92, 31774.66, 0.00, 0.000, 0.000, 0.000, 13:13:48.491
110, 0.00, 27403.39, 15950.56, 9332.75, -3268.36, 13621.40, 31766.14, 0.00, 0.000, 0.000, 0.000, 13:13:48.491
111, 0.00, 27400.35, 15946.87, 9332.93, -3409.09, 13613.96, 31764.71, 0.00, 0.000, 0.000, 0.000, 13:13:48.491
112, 0.00, 27393.85, 15938.69, 9399.06, -3422.68, 13606.27, 31776.78, 0.00, 0.000, 0.000, 0.000, 13:13:48.491
113, 0.00, 27393.45, 15937.60, 9449.85, -3252.78, 13609.78, 31786.59, 0.00, 0.000, 0.000, 0.000, 13:13:48.492
114, 0.00, 27398.05, 15942.34, 9397.77, -3184.03, 13616.08, 31778.50, 0.00, 0.030, -0.036, 0.992, 13:13:48.492
115, 0.00, 27402.30, 15945.38, 9327.90, -3274.35, 13618.22, 31765.40, 0.00, 0.000, 0.000, 0.000, 13:13:48.492
116, 0.00, 27400.89, 15943.39, 9327.87, -3415.32, 13612.75, 31764.94, 0.00, 0.000, 0.000, 0.000, 13:13:48.492
117, 0.00, 27394.43, 15937.40, 9399.33, -3420.84, 13606.53, 31775.95, 0.00, 0.000, 0.000, 0.000, 13:13:48.492
118, 0.00, 27390.07, 15932.30, 9448.04, -3249.70, 13605.75, 31782.26, 0.00, 0.000, 0.000, 0.000, 13:13:48.493
119, 0.00, 27396.22, 15938.56, 9395.64, -3185.93, 13612.12, 31774.75, 0.00, 0.000, 0.000, 0.000, 13:13:48.493
120, 0.00, 27402.68, 15945.38, 9328.01, -3278.17, 13617.40, 31764.11, 0.00, 0.000, 0.000, 0.000, 13:13:48.495
121, 0.00, 27400.29, 15943.70, 9329.28, -3417.13, 13610.11, 31764.20, 0.00, 0.000, 0.000, 0.000, 13:13:48.495
122, 0.00, 27394.43, 15938.65, 9400.65, -3423.10, 13603.52, 31775.87, 0.00, 0.000, 0.000, 0.000, 13:13:48.496
123, 0.00, 27391.66, 15935.00, 9450.85, -3249.97, 13605.60, 31783.87, 0.00, 0.000, 0.000, 0.000, 13:13:48.496
124, 0.00, 27397.22, 15939.14, 9392.61, -3188.45, 13612.64, 31777.63, 0.00, 0.028, -0.032, 0.990, 13:13:48.496
125, 0.00, 27401.52, 15945.64, 9326.91, -3277.68, 13616.39, 31765.05, 0.00, 0.000, 0.000, 0.000, 13:13:48.496
126, 0.00, 27398.72, 15943.30, 9329.93, -3419.53, 13610.67, 31763.77, 0.00, 0.000, 0.000, 0.000, 13:13:48.497
127, 0.00, 27393.00, 15937.20, 9399.74, -3422.54, 13605.48, 31776.11, 0.00, 0.000, 0.000, 0.000, 13:13:48.497
128, 0.00, 27390.56, 15936.12, 9449.02, -3247.31, 13607.38, 31783.73, 0.00, 0.000, 0.000, 0.000, 13:13:48.497
129, 0.00, 27395.39, 15940.91, 9395.71, -3188.28, 13612.91, 31775.64, 0.00, 0.000, 0.000, 0.000, 13:13:48.497
130, 0.00, 27401.07, 15948.42, 9333.78, -3282.17, 13617.42, 31765.34, 0.00, 0.000, 0.000, 0.000, 13:13:48.497
131, 0.00, 27398.95, 15944.48, 9337.42, -3417.34, 13611.23, 31765.36, 0.00, 0.000, 0.000, 0.000, 13:13:48.498
132, 0.00, 27392.93, 15938.69, 9408.32, -3416.55, 13606.00, 31775.66, 0.00, 0.000, 0.000, 0.000, 13:13:48.498
133, 0.00, 27393.00, 15935.76, 9453.98, -3247.80, 13608.21, 31785.23, 0.00, 0.000, 0.000, 0.000, 13:13:48.498
134, 0.00, 27396.29, 15939.92, 9395.64, -3188.05, 13614.47, 31779.55, 0.00, 0.028, -0.036, 0.988, 13:13:48.498
135, 0.00, 27400.44, 15943.66, 9325.01, -3284.12, 13615.83, 31767.26, 0.00, 0.000, 0.000, 0.000, 13:13:48.499
136, 0.00, 27399.42, 15939.81, 9327.58, -3421.20, 13610.04, 31764.69, 0.00, 0.000, 0.000, 0.000, 13:13:48.499
137, 0.00, 27391.97, 15933.04, 9399.78, -3420.13, 13602.56, 31776.15, 0.00, 0.000, 0.000, 0.000, 13:13:48.499
138, 0.00, 27390.52, 15931.32, 9448.37, -3247.02, 13603.29, 31784.65, 0.00, 0.000, 0.000, 0.000, 13:13:48.499
139, 0.00, 27399.15, 15937.53, 9393.19, -3187.02, 13612.84, 31779.57, 0.00, 0.000, 0.000, 0.000, 13:13:48.499
140, 0.00, 27405.27, 15945.40, 9327.99, -3284.86, 13618.78, 31768.33, 0.00, 0.000, 0.000, 0.000, 13:13:48.500
141, 0.00, 27400.53, 15940.68, 9332.39, -3422.32, 13613.20, 31766.16, 0.00, 0.000, 0.000, 0.000, 13:13:48.500
142, 0.00, 27392.49, 15933.24, 9403.11, -3416.04, 13606.49, 31777.65, 0.00, 0.000, 0.000, 0.000, 13:13:48.500
143, 0.00, 27392.84, 15933.57, 9449.11, -3243.51, 13609.26, 31787.04, 0.00, 0.000, 0.000, 0.000, 13:13:48.500
144, 0.00, 27399.48, 15938.87, 9387.20, -3190.53, 13616.19, 31779.53, 0.00, 0.032, -0.036, 0.988, 13:13:48.501
145, 0.00, 27401.58, 15943.68, 9321.42, -3285.28, 13617.31, 31766.95, 0.00, 0.000, 0.000, 0.000, 13:13:48.501
146, 0.00, 27397.25, 15940.10, 9327.05, -3422.59, 13609.78, 31764.89, 0.00, 0.000, 0.000, 0.000, 13:13:48.501
147, 0.00, 27391.23, 15935.61, 9398.91, -3418.12, 13605.19, 31777.61, 0.00, 0.000, 0.000, 0.000, 13:13:48.501
148, 0.00, 27390.14, 15932.28, 9446.99, -3243.82, 13606.53, 31785.95, 0.00, 0.000, 0.000, 0.000, 13:13:48.501
149, 0.00, 27396.33, 15937.51, 9389.86, -3188.05, 13614.02, 31777.92, 0.00, 0.000, 0.000, 0.000, 13:13:48.502
150, 0.00, 27398.95, 15942.69, 9321.48, -3288.14, 13615.83, 31764.04, 0.00, 0.000, 0.000, 0.000, 13:13:48.504
151, 0.00, 27394.28, 15938.09, 9327.36, -3425.61, 13607.56, 31763.15, 0.00, 0.000, 0.000, 0.000, 13:13:48.504
152, 0.00, 27392.96, 15932.95, 9399.94, -3418.74, 13602.71, 31779.11, 0.00, 0.000, 0.000, 0.000, 13:13:48.504
153, 0.00, 27391.17, 15933.08, 9445.65, -3244.91, 13605.46, 31786.44, 0.00, 0.000, 0.000, 0.000, 13:13:48.505
154, 0.00, 27396.69, 15943.74, 9391.04, -3190.42, 13613.46, 31778.68, 0.00, 0.028, -0.034, 0.994, 13:13:48.505
155, 0.00, 27398.21, 15944.37, 9322.08, -3291.00, 13614.78, 31762.92, 0.00, 0.000, 0.000, 0.000, 13:13:48.506
156, 0.00, 27393.87, 15938.09, 9326.13, -3427.98, 13606.83, 31761.63, 0.00, 0.000, 0.000, 0.000, 13:13:48.506
157, 0.00, 27390.10, 15934.13, 9402.13, -3417.38, 13602.06, 31776.38, 0.00, 0.000, 0.000, 0.000, 13:13:48.506
158, 0.00, 27390.83, 15934.69, 9447.95, -3243.26, 13606.65, 31785.39, 0.00, 0.000, 0.000, 0.000, 13:13:48.506
159, 0.00, 27396.60, 15940.15, 9387.64, -3189.75, 13616.21, 31776.83, 0.00, 0.000, 0.000, 0.000, 13:13:48.507
160, 0.00, 27397.94, 15941.17, 9318.75, -3290.87, 13616.15, 31761.78, 0.00, 0.000, 0.000, 0.000, 13:13:48.507
161, 0.00, 27396.29, 15938.02, 9327.03, -3427.51, 13609.24, 31764.22, 0.00, 0.000, 0.000, 0.000, 13:13:48.507
162, 0.00, 27391.30, 15932.32, 9397.99, -3420.69, 13602.98, 31777.03, 0.00, 0.000, 0.000, 0.000, 13:13:48.508
163, 0.00, 27389.98, 15933.69, 9445.60, -3241.43, 13606.71, 31784.87, 0.00, 0.000, 0.000, 0.000, 13:13:48.508
164, 0.00, 27396.73, 15941.69, 9388.07, -3188.66, 13615.10, 31777.72, 0.00, 0.030, -0.038, 0.990, 13:13:48.508
165, 0.00, 27399.42, 15943.97, 9320.14, -3290.89, 13614.36, 31764.91, 0.00, 0.000, 0.000, 0.000, 13:13:48.509
166, 0.00, 27394.10, 15937.89, 9327.45, -3429.07, 13606.89, 31761.94, 0.00, 0.000, 0.000, 0.000, 13:13:48.509
167, 0.00, 27389.54, 15931.05, 9398.53, -3419.19, 13602.76, 31775.73, 0.00, 0.000, 0.000, 0.000, 13:13:48.509
168, 0.00, 27389.94, 15934.18, 9445.60, -3238.81, 13607.88, 31785.34, 0.00, 0.000, 0.000, 0.000, 13:13:48.510
169, 0.00, 27397.54, 15942.16, 9387.15, -3187.76, 13616.44, 31779.51, 0.00, 0.000, 0.000, 0.000, 13:13:48.510
170, 0.00, 27401.52, 15941.71, 9317.91, -3296.10, 13615.52, 31765.00, 0.00, 0.000, 0.000, 0.000, 13:13:48.510
171, 0.00, 27397.78, 15939.68, 9327.85, -3429.72, 13608.41, 31763.13, 0.00, 0.000, 0.000, 0.000, 13:13:48.510
172, 0.00, 27390.72, 15934.51, 9403.18, -3413.22, 13601.66, 31774.99, 0.00, 0.000, 0.000, 0.000, 13:13:48.511
173, 0.00, 27387.86, 15932.41, 9443.70, -3237.81, 13605.37, 31780.94, 0.00, 0.000, 0.000, 0.000, 13:13:48.511
174, 0.00, 27393.07, 15938.38, 9381.85, -3193.21, 13612.06, 31772.58, 0.00, 0.026, -0.038, 0.992, 13:13:48.511
175, 0.00, 27400.18, 15945.38, 9319.07, -3297.58, 13615.48, 31764.98, 0.00, 0.000, 0.000, 0.000, 13:13:48.511
176, 0.00, 27394.28, 15938.83, 9327.47, -3432.65, 13607.76, 31763.97, 0.00, 0.000, 0.000, 0.000, 13:13:48.511
177, 0.00, 27385.94, 15926.38, 9394.48, -3416.62, 13599.94, 31774.10, 0.00, 0.000, 0.000, 0.000, 13:13:48.512
178, 0.00, 27387.68, 15929.15, 9439.81, -3236.71, 13606.02, 31783.55, 0.00, 0.000, 0.000, 0.000, 13:13:48.512
179, 0.00, 27395.93, 15938.80, 9381.94, -3191.31, 13614.47, 31776.80, 0.00, 0.000, 0.000, 0.000, 13:13:48.512
180, 0.00, 27399.51, 15942.29, 9317.24, -3298.69, 13614.87, 31764.42, 0.00, 0.000, 0.000, 0.000, 13:13:48.512
181, 0.00, 27396.15, 15938.16, 9329.82, -3430.21, 13608.88, 31764.49, 0.00, 0.000, 0.000, 0.000, 13:13:48.514
182, 0.00, 27388.33, 15930.42, 9404.90, -3411.86, 13602.13, 31776.20, 0.00, 0.000, 0.000, 0.000, 13:13:48.514
183, 0.00, 27386.43, 15925.04, 9439.23, -3240.24, 13603.23, 31782.08, 0.00, 0.000, 0.000, 0.000, 13:13:48.514
184, 0.00, 27396.58, 15934.09, 9383.80, -3191.61, 13611.56, 31776.60, 0.00, 0.030, -0.042, 0.994, 13:13:48.514
185, 0.00, 27401.52, 15939.10, 9322.02, -3299.61, 13613.93, 31766.88, 0.00, 0.000, 0.000, 0.000, 13:13:48.515
186, 0.00, 27395.44, 15936.21, 9335.97, -3433.47, 13605.08, 31765.65, 0.00, 0.000, 0.000, 0.000, 13:13:48.515
187, 0.00, 27391.93, 15933.06, 9413.37, -3410.34, 13601.55, 31781.07, 0.00, 0.000, 0.000, 0.000, 13:13:48.515
188, 0.00, 27393.27, 15933.51, 9449.62, -3237.54, 13608.99, 31789.23, 0.00, 0.000, 0.000, 0.000, 13:13:48.515
189, 0.00, 27398.05, 15941.44, 9388.85, -3194.82, 13615.90, 31779.66, 0.00, 0.000, 0.000, 0.000, 13:13:48.515
190, 0.00, 27398.79, 15940.35, 9323.38, -3304.30, 13613.46, 31764.46, 0.00, 0.000, 0.000, 0.000, 13:13:48.515
191, 0.00, 27395.17, 15937.73, 9338.42, -3435.17, 13606.42, 31765.36, 0.00, 0.000, 0.000, 0.000, 13:13:48.515
192, 0.00, 27388.15, 15932.46, 9415.05, -3411.48, 13600.95, 31777.03, 0.00, 0.000, 0.000, 0.000, 13:13:48.515
193, 0.00, 27389.56, 15932.12, 9453.29, -3236.51, 13605.13, 31785.90, 0.00, 0.000, 0.000, 0.000, 13:13:48.516
194, 0.00, 27395.68, 15938.20, 9390.53, -3195.43, 13613.37, 31777.74, 0.00, 0.028, -0.034, 0.994, 13:13:48.516
195, 0.00, 27396.15, 15940.77, 9328.81, -3301.51, 13615.03, 31763.08, 0.00, 0.000, 0.000, 0.000, 13:13:48.516
196, 0.00, 27393.04, 15936.55, 9342.16, -3431.46, 13608.10, 31762.74, 0.00, 0.000, 0.000, 0.000, 13:13:48.516
197, 0.00, 27387.23, 15928.39, 9413.75, -3409.00, 13601.21, 31775.26, 0.00, 0.000, 0.000, 0.000, 13:13:48.516
198, 0.00, 27386.14, 15926.58, 9449.11, -3237.56, 13602.71, 31780.96, 0.00, 0.000, 0.000, 0.000, 13:13:48.516
199, 0.00, 27394.59, 15934.56, 9389.48, -3194.94, 13611.50, 31773.61, 0.00, 0.000, 0.000, 0.000, 13:13:48.516
200, 0.00, 27399.64, 15939.43, 9326.00, -3308.39, 13611.38, 31763.08, 0.00, 0.000, 0.000, 0.000, 13:13:48.516
201, 0.00, 27392.73, 15935.52, 9342.43, -3438.75, 13599.61, 31761.38, 0.00, 0.000, 0.000, 0.000, 13:13:48.517
202, 0.00, 27386.76, 15930.45, 9422.89, -3406.23, 13597.71, 31774.30, 0.00, 0.000, 0.000, 0.000, 13:13:48.517
203, 0.00, 27388.69, 15930.24, 9456.93, -3233.63, 13602.56, 31782.64, 0.00, 0.000, 0.000, 0.000, 13:13:48.517
204, 0.00, 27395.33, 15941.00, 9391.02, -3203.99, 13612.01, 31774.93, 0.00, 0.024, -0.034, 0.994, 13:13:48.517
205, 0.00, 27395.79, 15943.68, 9330.74, -3312.77, 13611.34, 31760.89, 0.00, 0.000, 0.000, 0.000, 13:13:48.517
206, 0.00, 27395.37, 15943.50, 9351.46, -3438.10, 13607.07, 31764.98, 0.00, 0.000, 0.000, 0.000, 13:13:48.517
207, 0.00, 27389.67, 15936.39, 9426.62, -3406.20, 13602.85, 31778.50, 0.00, 0.000, 0.000, 0.000, 13:13:48.517
208, 0.00, 27387.57, 15928.39, 9454.25, -3235.41, 13603.63, 31782.62, 0.00, 0.000, 0.000, 0.000, 13:13:48.517
209, 0.00, 27393.25, 15935.65, 9391.26, -3197.19, 13611.00, 31771.93, 0.00, 0.000, 0.000, 0.000, 13:13:48.518
210, 0.00, 27398.21, 15940.86, 9332.05, -3306.58, 13613.75, 31762.41, 0.00, 0.000, 0.000, 0.000, 13:13:48.963
211, 0.00, 27394.54, 15936.79, 9348.71, -3437.68, 13607.05, 31764.13, 0.00, 0.000, 0.000, 0.000, 13:13:48.963
212, 0.00, 27390.03, 15930.04, 9422.06, -3407.19, 13602.73, 31776.94, 0.00, 0.000, 0.000, 0.000, 13:13:48.963
213, 0.00, 27389.58, 15927.99, 9453.31, -3233.34, 13604.52, 31782.97, 0.00, 0.000, 0.000, 0.000, 13:13:48.965
214, 0.00, 27394.72, 15933.06, 9387.93, -3197.84, 13611.12, 31774.41, 0.00, 0.032, -0.034, 1.004, 13:13:48.965
215, 0.00, 27398.46, 15939.52, 9328.84, -3311.95, 13612.57, 31764.00, 0.00, 0.000, 0.000, 0.000, 13:13:48.965
216, 0.00, 27392.71, 15935.74, 9347.07, -3442.06, 13602.87, 31764.06, 0.00, 0.000, 0.000, 0.000, 13:13:48.965
217, 0.00, 27385.40, 15929.15, 9422.85, -3410.29, 13593.46, 31774.28, 0.00, 0.000, 0.000, 0.000, 13:13:48.966
218, 0.00, 27386.27, 15928.77, 9456.84, -3234.57, 13600.03, 31781.36, 0.00, 0.000, 0.000, 0.000, 13:13:48.966
219, 0.00, 27392.69, 15936.75, 9391.62, -3205.46, 13611.23, 31773.03, 0.00, 0.000, 0.000, 0.000, 13:13:48.966
220, 0.00, 27395.84, 15938.60, 9332.03, -3318.09, 13611.18, 31761.63, 0.00, 0.000, 0.000, 0.000, 13:13:48.966
221, 0.00, 27392.67, 15933.06, 9348.80, -3445.05, 13601.91, 31764.94, 0.00, 0.000, 0.000, 0.000, 13:13:48.966
222, 0.00, 27385.80, 15925.19, 9422.31, -3409.89, 13596.23, 31776.89, 0.00, 0.000, 0.000, 0.000, 13:13:48.966
223, 0.00, 27388.66, 15925.37, 9453.02, -3235.15, 13601.66, 31784.20, 0.00, 0.000, 0.000, 0.000, 13:13:48.966
224, 0.00, 27398.34, 15935.12, 9388.36, -3202.76, 13610.45, 31777.96, 0.00, 0.034, -0.030, 0.996, 13:13:48.966
225, 0.00, 27401.58, 15936.03, 9326.40, -3319.06, 13612.06, 31766.66, 0.00, 0.000, 0.000, 0.000, 13:13:48.966
226, 0.00, 27398.07, 15932.32, 9347.97, -3441.48, 13605.80, 31767.53, 0.00, 0.000, 0.000, 0.000, 13:13:48.966
227, 0.00, 27391.48, 15928.05, 9425.28, -3404.46, 13600.41, 31780.67, 0.00, 0.000, 0.000, 0.000, 13:13:48.966
228, 0.00, 27387.73, 15925.19, 9456.75, -3228.64, 13600.90, 31782.28, 0.00, 0.000, 0.000, 0.000, 13:13:48.968
229, 0.00, 27393.87, 15933.64, 9391.58, -3200.37, 13607.99, 31772.94, 0.00, 0.000, 0.000, 0.000, 13:13:48.968
230, 0.00, 27399.24, 15937.22, 9330.51, -3317.31, 13610.60, 31763.04, 0.00, 0.000, 0.000, 0.000, 13:13:48.969
231, 0.00, 27396.13, 15931.72, 9344.97, -3445.50, 13603.96, 31765.72, 0.00, 0.000, 0.000, 0.000, 13:13:48.969
232, 0.00, 27389.94, 15929.77, 9425.15, -3405.60, 13599.94, 31778.79, 0.00, 0.000, 0.000, 0.000, 13:13:48.969
233, 0.00, 27388.96, 15930.11, 9457.22, -3230.97, 13604.52, 31783.42, 0.00, 0.000, 0.000, 0.000, 13:13:48.969
234, 0.00, 27397.83, 15938.31, 9390.55, -3203.43, 13614.56, 31777.03, 0.00, 0.038, -0.034, 0.992, 13:13:48.969
235, 0.00, 27399.35, 15939.72, 9330.91, -3319.32, 13614.71, 31766.28, 0.00, 0.000, 0.000, 0.000, 13:13:48.969
236, 0.00, 27394.77, 15937.55, 9355.43, -3441.36, 13607.27, 31767.53, 0.00, 0.000, 0.000, 0.000, 13:13:48.969
237, 0.00, 27393.00, 15937.20, 9436.66, -3396.46, 13606.49, 31782.41, 0.00, 0.000, 0.000, 0.000, 13:13:48.969
238, 0.00, 27392.62, 15936.75, 9463.10, -3224.40, 13609.73, 31790.01, 0.00, 0.000, 0.000, 0.000, 13:13:48.969
239, 0.00, 27395.62, 15940.91, 9392.52, -3200.17, 13613.49, 31775.95, 0.00, 0.000, 0.000, 0.000, 13:13:48.970
240, 0.00, 27399.26, 15942.83, 9330.67, -3323.64, 13612.68, 31762.68, 0.00, 0.000, 0.000, 0.000, 13:13:48.970
241, 0.00, 27394.36, 15938.22, 9350.47, -3448.02, 13606.38, 31765.31, 0.00, 0.000, 0.000, 0.000, 13:13:48.970
242, 0.00, 27389.11, 15933.40, 9428.46, -3400.50, 13602.62, 31779.13, 0.00, 0.000, 0.000, 0.000, 13:13:48.970
243, 0.00, 27389.45, 15928.81, 9453.25, -3229.42, 13605.31, 31783.64, 0.00, 0.036, -0.030, 0.992, 13:13:48.970
244, 0.00, 27393.63, 15935.88, 9387.38, -3202.56, 13611.18, 31773.09, 0.00, 0.000, 0.000, 0.000, 13:13:48.970
245, 0.00, 27395.46, 15939.43, 9329.39, -3324.37, 13611.05, 31758.61, 0.00, 0.000, 0.000, 0.000, 13:13:48.970
246, 0.00, 27390.86, 15935.27, 9352.84, -3444.65, 13605.37, 31760.89, 0.00, 0.000, 0.000, 0.000, 13:13:48.970
247, 0.00, 27386.38, 15929.17, 9427.94, -3396.21, 13603.45, 31777.83, 0.00, 0.000, 0.000, 0.000, 13:13:48.970
248, 0.00, 27385.54, 15929.62, 9453.56, -3225.60, 13606.04, 31781.59, 0.00, 0.000, 0.000, 0.000, 13:13:48.971
249, 0.00, 27389.80, 15936.10, 9387.11, -3203.99, 13610.63, 31769.52, 0.00, 0.000, 0.000, 0.000, 13:13:48.971
250, 0.00, 27396.98, 15942.69, 9333.26, -3323.95, 13612.06, 31759.84, 0.00, 0.000, 0.000, 0.000, 13:13:48.971
251, 0.00, 27392.71, 15937.51, 9355.57, -3445.99, 13603.34, 31763.82, 0.00, 0.000, 0.000, 0.000, 13:13:48.971
252, 0.00, 27386.32, 15930.38, 9429.96, -3400.06, 13597.42, 31777.23, 0.00, 0.000, 0.000, 0.000, 13:13:48.971
253, 0.00, 27386.05, 15930.98, 9457.74, -3227.50, 13601.51, 31781.05, 0.00, 0.034, -0.034, 0.992, 13:13:48.971
254, 0.00, 27392.60, 15937.67, 9389.65, -3205.69, 13609.53, 31770.59, 0.00, 0.000, 0.000, 0.000, 13:13:48.972
255, 0.00, 27395.66, 15938.76, 9328.57, -3330.90, 13608.48, 31758.88, 0.00, 0.000, 0.000, 0.000, 13:13:48.973
0, 0.00, 27391.46, 15933.73, 9352.39, -3450.22, 13602.53, 31761.89, 0.00, 0.000, 0.000, 0.000, 13:13:48.973
1, 0.00, 27384.26, 15924.86, 9425.51, -3402.09, 13598.06, 31773.81, 0.00, 0.000, 0.000, 0.000, 13:13:48.973
2, 0.00, 27387.90, 15926.67, 9450.43, -3227.57, 13605.48, 31782.73, 0.00, 0.000, 0.000, 0.000, 13:13:48.973
3, 0.00, 27395.59, 15932.95, 9382.12, -3207.74, 13610.96, 31773.07, 0.00, 0.000, 0.000, 0.000, 13:13:48.973
4, 0.00, 27398.07, 15937.20, 9328.95, -3328.38, 13608.19, 31763.01, 0.00, 0.000, 0.000, 0.000, 13:13:48.973
5, 0.00, 27394.16, 15931.41, 9353.51, -3451.31, 13600.81, 31768.38, 0.00, 0.000, 0.000, 0.000, 13:13:48.973
6, 0.00, 27389.67, 15924.79, 9427.07, -3402.09, 13598.35, 31781.14, 0.00, 0.000, 0.000, 0.000, 13:13:48.974
7, 0.00, 27388.93, 15925.24, 9450.61, -3229.07, 13601.91, 31782.82, 0.00, 0.036, -0.036, 0.988, 13:13:48.974
8, 0.00, 27395.71, 15934.29, 9382.19, -3208.84, 13611.76, 31773.47, 0.00, 0.000, 0.000, 0.000, 13:13:48.974
9, 0.00, 27396.31, 15932.95, 9322.31, -3333.78, 13611.23, 31761.69, 0.00, 0.000, 0.000, 0.000, 13:13:48.974
10, 0.00, 27390.97, 15930.56, 9353.13, -3449.41, 13604.30, 31763.35, 0.00, 0.000, 0.000, 0.000, 13:13:48.974
11, 0.00, 27387.53, 15929.77, 9434.54, -3392.97, 13603.07, 31778.46, 0.00, 0.000, 0.000, 0.000, 13:13:48.974
12, 0.00, 27388.06, 15931.94, 9457.65, -3221.53, 13607.94, 31784.09, 0.00, 0.000, 0.000, 0.000, 13:13:48.974
13, 0.00, 27396.33, 15940.35, 9389.54, -3205.98, 13614.69, 31774.84, 0.00, 0.000, 0.000, 0.000, 13:13:48.974
14, 0.00, 27397.45, 15942.52, 9334.00, -3332.51, 13613.13, 31762.99, 0.00, 0.000, 0.000, 0.000, 13:13:48.974
15, 0.00, 27392.60, 15937.22, 9362.21, -3447.11, 13604.21, 31764.91, 0.00, 0.000, 0.000, 0.000, 13:13:48.975
16, 0.00, 27386.50, 15929.57, 9434.13, -3393.08, 13597.21, 31778.12, 0.00, 0.000, 0.000, 0.000, 13:13:48.975
17, 0.00, 27385.89, 15928.57, 9451.95, -3225.80, 13599.61, 31781.59, 0.00, 0.034, -0.036, 0.986, 13:13:48.975
18, 0.00, 27391.97, 15937.15, 9384.47, -3210.58, 13610.49, 31771.55, 0.00, 0.000, 0.000, 0.000, 13:13:48.975
19, 0.00, 27395.30, 15939.25, 9327.11, -3336.71, 13612.35, 31764.60, 0.00, 0.000, 0.000, 0.000, 13:13:48.976
20, 0.00, 27390.97, 15932.84, 9354.45, -3451.58, 13602.62, 31769.47, 0.00, 0.000, 0.000, 0.000, 13:13:48.976
21, 0.00, 27386.83, 15929.57, 9433.96, -3391.01, 13599.05, 31779.64, 0.00, 0.000, 0.000, 0.000, 13:13:48.977
22, 0.00, 27385.71, 15930.51, 9453.29, -3221.53, 13603.47, 31782.48, 0.00, 0.000, 0.000, 0.000, 13:13:48.977
23, 0.00, 27391.59, 15938.20, 9383.17, -3211.50, 13613.37, 31771.30, 0.00, 0.000, 0.000, 0.000, 13:13:48.977
24, 0.00, 27395.50, 15941.98, 9333.64, -3335.91, 13613.51, 31762.25, 0.00, 0.000, 0.000, 0.000, 13:13:48.977
25, 0.00, 27392.35, 15936.75, 9361.38, -3450.15, 13607.47, 31769.45, 0.00, 0.000, 0.000, 0.000, 13:13:48.977
26, 0.00, 27387.12, 15930.83, 9437.76, -3387.34, 13604.79, 31781.94, 0.00, 0.000, 0.000, 0.000, 13:13:48.977
27, 0.00, 27386.74, 15931.07, 9457.25, -3217.06, 13608.77, 31782.64, 0.00, 0.038, -0.038, 0.992, 13:13:48.977
28, 0.00, 27392.82, 15940.28, 9387.31, -3206.58, 13615.70, 31771.33, 0.00, 0.000, 0.000, 0.000, 13:13:48.978
29, 0.00, 27393.56, 15939.05, 9330.83, -3335.44, 13613.29, 31758.61, 0.00, 0.000, 0.000, 0.000, 13:13:48.978
30, 0.00, 27389.18, 15931.96, 9356.28, -3452.79, 13603.70, 31763.41, 0.00, 0.000, 0.000, 0.000, 13:13:48.978
31, 0.00, 27384.08, 15926.71, 9432.32, -3391.09, 13598.22, 31777.79, 0.00, 0.000, 0.000, 0.000, 13:13:48.978
32, 0.00, 27386.21, 15928.57, 9450.58, -3223.34, 13603.29, 31781.21, 0.00, 0.000, 0.000, 0.000, 13:13:48.978
33, 0.00, 27393.25, 15934.25, 9377.56, -3214.72, 13609.78, 31772.87, 0.00, 0.000, 0.000, 0.000, 13:13:48.978
34, 0.00, 27394.65, 15936.86, 9323.23, -3345.01, 13609.11, 31761.22, 0.00, 0.000, 0.000, 0.000, 13:13:48.978
35, 0.00, 27388.62, 15932.79, 9354.27, -3456.63, 13601.42, 31763.97, 0.00, 0.000, 0.000, 0.000, 13:13:48.978
36, 0.00, 27385.83, 15929.10, 9433.08, -3388.57, 13599.45, 31779.13, 0.00, 0.000, 0.000, 0.000, 13:13:48.978
37, 0.00, 27388.31, 15929.26, 9447.70, -3223.57, 13602.62, 31782.82, 0.00, 0.030, -0.038, 0.996, 13:13:48.978
38, 0.00, 27394.72, 15936.64, 9375.89, -3215.68, 13608.05, 31771.69, 0.00, 0.000, 0.000, 0.000, 13:13:48.978
39, 0.00, 27396.11, 15939.34, 9324.48, -3343.51, 13610.22, 31761.85, 0.00, 0.000, 0.000, 0.000, 13:13:48.979
40, 0.00, 27392.58, 15933.95, 9355.63, -3454.60, 13604.75, 31768.27, 0.00, 0.000, 0.000, 0.000, 13:13:48.979
41, 0.00, 27389.18, 15925.80, 9427.67, -3390.29, 13599.34, 31781.74, 0.00, 0.000, 0.000, 0.000, 13:13:48.979
42, 0.00, 27388.62, 15926.71, 9445.22, -3225.18, 13601.97, 31783.38, 0.00, 0.000, 0.000, 0.000, 13:13:48.979
43, 0.00, 27394.01, 15934.58, 9377.34, -3218.92, 13608.61, 31772.78, 0.00, 0.000, 0.000, 0.000, 13:13:48.979
44, 0.00, 27397.40, 15939.16, 9328.90, -3345.47, 13609.89, 31763.75, 0.00, 0.000, 0.000, 0.000, 13:13:48.979
45, 0.00, 27391.84, 15933.19, 9360.11, -3455.53, 13602.38, 31766.54, 0.00, 0.000, 0.000, 0.000, 13:13:48.981
46, 0.00, 27388.06, 15927.09, 9435.43, -3385.89, 13600.14, 31780.85, 0.00, 0.000, 0.000, 0.000, 13:13:48.981
47, 0.00, 27388.96, 15928.03, 9450.14, -3218.34, 13604.25, 31784.09, 0.00, 0.028, -0.038, 0.994, 13:13:48.981
48, 0.00, 27394.36, 15937.24, 9376.76, -3215.61, 13611.50, 31772.06, 0.00, 0.000, 0.000, 0.000, 13:13:48.981
49, 0.00, 27394.70, 15937.55, 9324.28, -3348.27, 13609.02, 31760.71, 0.00, 0.000, 0.000, 0.000, 13:13:48.982
50, 0.00, 27391.10, 15931.32, 9355.05, -3458.98, 13602.00, 31766.25, 0.00, 0.000, 0.000, 0.000, 13:13:48.982
51, 0.00, 27384.73, 15924.48, 9429.15, -3388.73, 13597.66, 31777.65, 0.00, 0.000, 0.000, 0.000, 13:13:48.982
52, 0.00, 27385.56, 15925.37, 9440.10, -3227.06, 13602.71, 31780.98, 0.00, 0.000, 0.000, 0.000, 13:13:48.982
53, 0.00, 27395.06, 15933.28, 9373.70, -3215.68, 13611.59, 31772.51, 0.00, 0.000, 0.000, 0.000, 13:13:48.982
54, 0.00, 27397.49, 15938.20, 9326.11, -3346.10, 13610.45, 31762.14, 0.00, 0.000, 0.000, 0.000, 13:13:48.982
55, 0.00, 27391.53, 15932.86, 9356.46, -3458.31, 13600.39, 31765.83, 0.00, 0.000, 0.000, 0.000, 13:13:48.982
56, 0.00, 27386.38, 15925.75, 9433.17, -3383.25, 13596.97, 31779.06, 0.00, 0.000, 0.000, 0.000, 13:13:48.982
57, 0.00, 27388.80, 15928.05, 9446.70, -3220.89, 13603.79, 31782.99, 0.00, 0.030, -0.040, 0.994, 13:13:48.983
58, 0.00, 27395.73, 15936.99, 9379.46, -3217.02, 13608.95, 31771.51, 0.00, 0.000, 0.000, 0.000, 13:13:48.983
59, 0.00, 27396.98, 15937.80, 9326.44, -3353.88, 13605.93, 31760.42, 0.00, 0.000, 0.000, 0.000, 13:13:48.983
60, 0.00, 27392.15, 15933.40, 9360.98, -3460.12, 13600.46, 31766.03, 0.00, 0.000, 0.000, 0.000, 13:13:48.983
61, 0.00, 27387.01, 15926.98, 9439.50, -3379.36, 13598.47, 31779.20, 0.00, 0.000, 0.000, 0.000, 13:13:48.983
62, 0.00, 27387.50, 15925.84, 9446.81, -3218.32, 13603.20, 31780.85, 0.00, 0.000, 0.000, 0.000, 13:13:48.983
63, 0.00, 27392.91, 15932.01, 9373.52, -3218.05, 13609.37, 31768.33, 0.00, 0.000, 0.000, 0.000, 13:13:48.983
64, 0.00, 27393.76, 15935.09, 9322.53, -3355.02, 13608.84, 31758.27, 0.00, 0.000, 0.000, 0.000, 13:13:48.983
65, 0.00, 27389.51, 15930.22, 9357.24, -3460.92, 13601.51, 31762.70, 0.00, 0.000, 0.000, 0.000, 13:13:48.983
66, 0.00, 27384.39, 15922.67, 9432.75, -3384.97, 13595.98, 31777.79, 0.00, 0.000, 0.000, 0.000, 13:13:48.984
67, 0.00, 27384.87, 15922.98, 9440.06, -3225.11, 13600.83, 31780.47, 0.00, 0.032, -0.036, 0.994, 13:13:48.984
68, 0.00, 27393.16, 15933.64, 9370.92, -3222.14, 13608.10, 31770.79, 0.00, 0.000, 0.000, 0.000, 13:13:48.984
69, 0.00, 27395.97, 15938.80, 9324.45, -3355.04, 13609.93, 31763.01, 0.00, 0.000, 0.000, 0.000, 13:13:48.984
70, 0.00, 27387.84, 15928.43, 9356.62, -3460.32, 13601.04, 31763.39, 0.00, 0.000, 0.000, 0.000, 13:13:48.984
71, 0.00, 27381.20, 15920.01, 9430.76, -3382.02, 13594.13, 31774.08, 0.00, 0.000, 0.000, 0.000, 13:13:48.984
72, 0.00, 27388.84, 15923.94, 9439.45, -3220.35, 13602.44, 31780.87, 0.00, 0.000, 0.000, 0.000, 13:13:48.984
73, 0.00, 27395.73, 15934.00, 9369.81, -3221.91, 13609.89, 31770.21, 0.00, 0.000, 0.000, 0.000, 13:13:48.985
74, 0.00, 27395.13, 15935.76, 9323.16, -3356.63, 13604.77, 31759.06, 0.00, 0.000, 0.000, 0.000, 13:13:49.443
75, 0.00, 27388.96, 15928.93, 9359.21, -3460.59, 13597.77, 31764.82, 0.00, 0.000, 0.000, 0.000, 13:13:49.443
76, 0.00, 27384.89, 15926.71, 9439.39, -3379.34, 13599.18, 31779.89, 0.00, 0.000, 0.000, 0.000, 13:13:49.443
77, 0.00, 27388.17, 15930.33, 9448.89, -3216.06, 13606.07, 31782.79, 0.00, 0.030, -0.036, 0.992, 13:13:49.443
78, 0.00, 27392.58, 15932.86, 9370.39, -3220.60, 13609.62, 31769.00, 0.00, 0.000, 0.000, 0.000, 13:13:49.443
79, 0.00, 27392.91, 15932.79, 9318.96, -3358.04, 13606.36, 31758.25, 0.00, 0.000, 0.000, 0.000, 13:13:49.444
80, 0.00, 27388.51, 15928.25, 9356.35, -3464.12, 13598.33, 31764.09, 0.00, 0.000, 0.000, 0.000, 13:13:49.444
81, 0.00, 27384.46, 15924.23, 9437.06, -3381.86, 13596.28, 31777.50, 0.00, 0.000, 0.000, 0.000, 13:13:49.444
82, 0.00, 27386.92, 15927.61, 9447.55, -3218.34, 13603.16, 31780.94, 0.00, 0.000, 0.000, 0.000, 13:13:49.445
83, 0.00, 27394.74, 15936.53, 9375.93, -3223.81, 13612.86, 31770.63, 0.00, 0.000, 0.000, 0.000, 13:13:49.445
84, 0.00, 27396.44, 15935.65, 9324.05, -3363.11, 13609.35, 31760.35, 0.00, 0.000, 0.000, 0.000, 13:13:49.445
85, 0.00, 27392.15, 15932.19, 9362.50, -3462.29, 13603.56, 31767.26, 0.00, 0.000, 0.000, 0.000, 13:13:49.445
86, 0.00, 27385.83, 15926.60, 9439.72, -3375.09, 13601.66, 31780.13, 0.00, 0.000, 0.000, 0.000, 13:13:49.445
87, 0.00, 27388.96, 15927.70, 9445.65, -3217.33, 13605.08, 31782.93, 0.00, 0.026, -0.034, 0.990, 13:13:49.445
88, 0.00, 27396.29, 15936.39, 9376.42, -3223.39, 13612.12, 31772.87, 0.00, 0.000, 0.000, 0.000, 13:13:49.446
89, 0.00, 27394.88, 15935.52, 9326.47, -3359.82, 13610.18, 31761.00, 0.00, 0.000, 0.000, 0.000, 13:13:49.446
90, 0.00, 27392.33, 15936.32, 9370.07, -3458.42, 13604.75, 31768.80, 0.00, 0.000, 0.000, 0.000, 13:13:49.446
91, 0.00, 27385.56, 15927.03, 9446.36, -3372.81, 13598.58, 31780.65, 0.00, 0.000, 0.000, 0.000, 13:13:49.446
92, 0.00, 27389.56, 15924.92, 9447.61, -3214.78, 13602.56, 31782.91, 0.00, 0.000, 0.000, 0.000, 13:13:49.447
93, 0.00, 27397.40, 15933.02, 9375.55, -3222.54, 13612.41, 31773.09, 0.00, 0.000, 0.000, 0.000, 13:13:49.447
94, 0.00, 27397.43, 15934.98, 9329.35, -3359.40, 13609.98, 31763.97, 0.00, 0.000, 0.000, 0.000, 13:13:49.447
95, 0.00, 27390.92, 15929.35, 9366.30, -3462.89, 13600.97, 31766.92, 0.00, 0.000, 0.000, 0.000, 13:13:49.447
96, 0.00, 27387.44, 15924.63, 9443.70, -3372.88, 13598.49, 31780.36, 0.00, 0.000, 0.000, 0.000, 13:13:49.447
97, 0.00, 27388.35, 15926.02, 9443.75, -3220.55, 13602.04, 31781.47, 0.00, 0.024, -0.036, 0.988, 13:13:49.448
98, 0.00, 27395.73, 15933.53, 9373.05, -3226.72, 13608.32, 31771.35, 0.00, 0.000, 0.000, 0.000, 13:13:49.448
99, 0.00, 27396.29, 15934.29, 9326.89, -3367.47, 13606.51, 31762.05, 0.00, 0.000, 0.000, 0.000, 13:13:49.448
100, 0.00, 27389.38, 15924.66, 9361.87, -3468.32, 13596.30, 31764.91, 0.00, 0.000, 0.000, 0.000, 13:13:49.448
101, 0.00, 27385.15, 15918.31, 9436.88, -3376.90, 13593.17, 31779.17, 0.00, 0.000, 0.000, 0.000, 13:13:49.448
102, 0.00, 27388.11, 15921.55, 9441.33, -3220.60, 13599.27, 31782.32, 0.00, 0.000, 0.000, 0.000, 13:13:49.449
103, 0.00, 27394.83, 15930.65, 9369.76, -3232.02, 13606.20, 31769.61, 0.00, 0.000, 0.000, 0.000, 13:13:49.449
104, 0.00, 27397.74, 15932.41, 9324.88, -3370.44, 13605.37, 31760.46, 0.00, 0.000, 0.000, 0.000, 13:13:49.449
105, 0.00, 27391.71, 15928.41, 9365.20, -3467.58, 13597.33, 31765.81, 0.00, 0.000, 0.000, 0.000, 13:13:49.451
106, 0.00, 27385.94, 15922.78, 9443.46, -3375.11, 13592.79, 31777.47, 0.00, 0.000, 0.000, 0.000, 13:13:49.451
107, 0.00, 27389.02, 15922.02, 9442.11, -3221.53, 13596.99, 31779.57, 0.00, 0.024, -0.036, 0.992, 13:13:49.451
108, 0.00, 27396.98, 15932.03, 9368.69, -3230.88, 13609.28, 31770.50, 0.00, 0.000, 0.000, 0.000, 13:13:49.451
109, 0.00, 27394.72, 15931.50, 9323.18, -3371.54, 13606.65, 31758.61, 0.00, 0.000, 0.000, 0.000, 13:13:49.452
110, 0.00, 27387.21, 15924.66, 9362.88, -3467.78, 13596.30, 31763.73, 0.00, 0.000, 0.000, 0.000, 13:13:49.452
111, 0.00, 27387.66, 15923.11, 9441.71, -3370.02, 13597.73, 31781.03, 0.00, 0.000, 0.000, 0.000, 13:13:49.452
112, 0.00, 27388.96, 15923.11, 9439.12, -3216.06, 13602.69, 31780.42, 0.00, 0.000, 0.000, 0.000, 13:13:49.452
113, 0.00, 27394.50, 15932.48, 9364.06, -3233.34, 13609.11, 31768.94, 0.00, 0.000, 0.000, 0.000, 13:13:49.453
114, 0.00, 27394.52, 15932.19, 9322.67, -3375.07, 13605.10, 31758.10, 0.00, 0.000, 0.000, 0.000, 13:13:49.453
115, 0.00, 27390.01, 15927.83, 9368.35, -3466.11, 13598.26, 31764.33, 0.00, 0.000, 0.000, 0.000, 13:13:49.454
116, 0.00, 27382.70, 15921.08, 9444.64, -3370.02, 13592.56, 31774.84, 0.00, 0.000, 0.000, 0.000, 13:13:49.454
117, 0.00, 27385.29, 15921.66, 9439.48, -3222.76, 13598.49, 31778.57, 0.00, 0.026, -0.034, 0.992, 13:13:49.454
118, 0.00, 27392.53, 15932.30, 9369.83, -3235.39, 13607.38, 31768.27, 0.00, 0.000, 0.000, 0.000, 13:13:49.454
119, 0.00, 27394.32, 15933.53, 9326.73, -3375.69, 13606.65, 31759.46, 0.00, 0.000, 0.000, 0.000, 13:13:49.455
120, 0.00, 27387.86, 15925.53, 9365.92, -3470.24, 13597.30, 31764.64, 0.00, 0.000, 0.000, 0.000, 13:13:49.455
121, 0.00, 27383.34, 15919.20, 9442.34, -3368.27, 13593.32, 31778.32, 0.00, 0.000, 0.000, 0.000, 13:13:49.455
122, 0.00, 27386.96, 15924.12, 9439.77, -3219.81, 13603.00, 31781.81, 0.00, 0.000, 0.000, 0.000, 13:13:49.456
123, 0.00, 27391.08, 15927.47, 9363.23, -3236.33, 13607.43, 31765.47, 0.00, 0.000, 0.000, 0.000, 13:13:49.456
124, 0.00, 27392.62, 15928.77, 9322.26, -3376.21, 13603.83, 31757.18, 0.00, 0.000, 0.000, 0.000, 13:13:49.456
125, 0.00, 27389.07, 15925.37, 9367.08, -3468.25, 13598.04, 31767.42, 0.00, 0.000, 0.000, 0.000, 13:13:49.456
126, 0.00, 27382.56, 15916.90, 9442.25, -3365.21, 13597.26, 31777.54, 0.00, 0.000, 0.000, 0.000, 13:13:49.457
127, 0.00, 27386.59, 15923.23, 9442.74, -3214.87, 13603.36, 31779.44, 0.00, 0.032, -0.034, 0.992, 13:13:49.457
128, 0.00, 27393.89, 15932.84, 9369.11, -3237.72, 13610.27, 31767.15, 0.00, 0.000, 0.000, 0.000, 13:13:49.457
129, 0.00, 27391.50, 15930.22, 9325.86, -3379.38, 13604.77, 31755.19, 0.00, 0.000, 0.000, 0.000, 13:13:49.457
130, 0.00, 27385.78, 15925.46, 9368.44, -3472.34, 13597.62, 31762.81, 0.00, 0.000, 0.000, 0.000, 13:13:49.457
131, 0.00, 27383.32, 15920.45, 9444.35, -3363.98, 13596.48, 31778.57, 0.00, 0.000, 0.000, 0.000, 13:13:49.458
132, 0.00, 27387.95, 15927.16, 9443.08, -3214.76, 13604.99, 31781.41, 0.00, 0.000, 0.000, 0.000, 13:13:49.458
133, 0.00, 27392.67, 15933.64, 9369.45, -3233.63, 13610.45, 31767.44, 0.00, 0.000, 0.000, 0.000, 13:13:49.458
134, 0.00, 27392.40, 15930.62, 9325.39, -3380.23, 13607.41, 31757.25, 0.00, 0.000, 0.000, 0.000, 13:13:49.458
135, 0.00, 27387.84, 15925.57, 9369.54, -3470.02, 13600.01, 31765.31, 0.00, 0.000, 0.000, 0.000, 13:13:49.460
136, 0.00, 27384.33, 15921.10, 9443.79, -3364.47, 13597.42, 31780.07, 0.00, 0.000, 0.000, 0.000, 13:13:49.464
137, 0.00, 27387.28, 15923.63, 9438.11, -3215.97, 13602.56, 31779.29, 0.00, 0.032, -0.034, 0.990, 13:13:49.464
138, 0.00, 27392.49, 15929.55, 9361.60, -3240.42, 13607.74, 31765.98, 0.00, 0.000, 0.000, 0.000, 13:13:49.464
139, 0.00, 27393.49, 15930.98, 9321.42, -3383.94, 13603.14, 31757.94, 0.00, 0.000, 0.000, 0.000, 13:13:49.465
140, 0.00, 27386.36, 15925.53, 9367.46, -3471.09, 13593.08, 31765.14, 0.00, 0.000, 0.000, 0.000, 13:13:49.465
141, 0.00, 27381.40, 15921.75, 9444.71, -3362.98, 13595.11, 31777.38, 0.00, 0.000, 0.000, 0.000, 13:13:49.465
142, 0.00, 27385.09, 15923.49, 9439.16, -3215.90, 13602.67, 31778.73, 0.00, 0.000, 0.000, 0.000, 13:13:49.465
143, 0.00, 27391.91, 15927.72, 9360.37, -3240.29, 13608.70, 31766.99, 0.00, 0.000, 0.000, 0.000, 13:13:49.465
144, 0.00, 27392.15, 15929.64, 9320.10, -3382.87, 13605.15, 31758.21, 0.00, 0.000, 0.000, 0.000, 13:13:49.465
145, 0.00, 27387.03, 15924.81, 9367.66, -3468.88, 13597.30, 31765.87, 0.00, 0.000, 0.000, 0.000, 13:13:49.466
146, 0.00, 27383.54, 15918.55, 9441.02, -3360.67, 13595.09, 31779.66, 0.00, 0.000, 0.000, 0.000, 13:13:49.466
147, 0.00, 27387.53, 15925.13, 9439.83, -3213.55, 13603.07, 31781.25, 0.00, 0.030, -0.032, 0.994, 13:13:49.467
148, 0.00, 27391.99, 15931.34, 9366.41, -3236.73, 13610.42, 31770.19, 0.00, 0.000, 0.000, 0.000, 13:13:49.467
149, 0.00, 27392.98, 15933.55, 9327.23, -3383.09, 13609.35, 31760.29, 0.00, 0.000, 0.000, 0.000, 13:13:49.467
150, 0.00, 27388.11, 15927.92, 9375.68, -3468.83, 13600.90, 31766.88, 0.00, 0.000, 0.000, 0.000, 13:13:49.467
151, 0.00, 27382.47, 15921.73, 9448.28, -3357.32, 13597.82, 31780.11, 0.00, 0.000, 0.000, 0.000, 13:13:49.467
152, 0.00, 27386.56, 15926.06, 9437.31, -3215.05, 13603.63, 31781.10, 0.00, 0.000, 0.000, 0.000, 13:13:49.468
153, 0.00, 27392.51, 15930.89, 9364.38, -3240.20, 13609.93, 31767.06, 0.00, 0.000, 0.000, 0.000, 13:13:49.468
154, 0.00, 27392.31, 15931.85, 9326.26, -3387.52, 13606.00, 31758.45, 0.00, 0.000, 0.000, 0.000, 13:13:49.468
155, 0.00, 27386.76, 15927.94, 9375.95, -3468.59, 13599.56, 31766.23, 0.00, 0.000, 0.000, 0.000, 13:13:49.468
156, 0.00, 27381.62, 15919.38, 9445.51, -3355.76, 13597.21, 31776.47, 0.00, 0.000, 0.000, 0.000, 13:13:49.468
157, 0.00, 27386.27, 15923.70, 9437.06, -3213.67, 13602.80, 31777.90, 0.00, 0.028, -0.030, 1.002, 13:13:49.469
158, 0.00, 27390.68, 15930.04, 9360.89, -3243.51, 13608.55, 31765.16, 0.00, 0.000, 0.000, 0.000, 13:13:49.469
159, 0.00, 27389.85, 15929.15, 9321.42, -3389.28, 13607.36, 31755.70, 0.00, 0.000, 0.000, 0.000, 13:13:49.469
160, 0.00, 27383.81, 15923.36, 9369.63, -3470.49, 13598.29, 31763.10, 0.00, 0.000, 0.000, 0.000, 13:13:49.469
161, 0.00, 27376.35, 15915.85, 9443.61, -3353.59, 13594.31, 31774.90, 0.00, 0.000, 0.000, 0.000, 13:13:49.470
162, 0.00, 27381.31, 15921.28, 9434.69, -3216.51, 13600.54, 31774.97, 0.00, 0.000, 0.000, 0.000, 13:13:49.470
163, 0.00, 27387.84, 15929.28, 9362.88, -3245.90, 13607.03, 31759.73, 0.00, 0.000, 0.000, 0.000, 13:13:49.470
164, 0.00, 27390.97, 15932.61, 9328.75, -3389.69, 13607.16, 31754.70, 0.00, 0.000, 0.000, 0.000, 13:13:49.470
165, 0.00, 27385.27, 15926.69, 9375.46, -3473.44, 13597.77, 31763.53, 0.00, 0.000, 0.000, 0.000, 13:13:49.471
166, 0.00, 27380.80, 15920.19, 9446.92, -3357.37, 13595.96, 31776.00, 0.00, 0.000, 0.000, 0.000, 13:13:49.473
167, 0.00, 27382.74, 15921.44, 9434.00, -3215.90, 13603.14, 31774.48, 0.00, 0.028, -0.026, 0.996, 13:13:49.473
168, 0.00, 27389.18, 15928.52, 9359.30, -3243.15, 13610.63, 31763.10, 0.00, 0.000, 0.000, 0.000, 13:13:49.473
169, 0.00, 27389.31, 15929.75, 9322.67, -3388.99, 13607.38, 31756.02, 0.00, 0.000, 0.000, 0.000, 13:13:49.473
170, 0.00, 27381.20, 15921.84, 9371.37, -3467.56, 13596.36, 31761.76, 0.00, 0.000, 0.000, 0.000, 13:13:49.473
171, 0.00, 27377.69, 15921.26, 9447.70, -3349.34, 13596.86, 31775.53, 0.00, 0.000, 0.000, 0.000, 13:13:49.474
172, 0.00, 27384.37, 15921.26, 9432.50, -3214.05, 13601.95, 31778.79, 0.00, 0.000, 0.000, 0.000, 13:13:49.474
173, 0.00, 27389.85, 15925.08, 9355.90, -3245.63, 13604.25, 31765.43, 0.00, 0.000, 0.000, 0.000, 13:13:49.474
174, 0.00, 27386.61, 15929.51, 9326.15, -3389.78, 13605.57, 31752.80, 0.00, 0.000, 0.000, 0.000, 13:13:49.474
175, 0.00, 27380.53, 15924.01, 9378.25, -3466.67, 13597.35, 31759.97, 0.00, 0.000, 0.000, 0.000, 13:13:49.474
176, 0.00, 27376.51, 15918.60, 9451.86, -3346.82, 13595.54, 31772.89, 0.00, 0.000, 0.000, 0.000, 13:13:49.475
177, 0.00, 27377.15, 15919.45, 9436.88, -3210.14, 13600.68, 31768.82, 0.00, 0.030, -0.026, 0.994, 13:13:49.475
178, 0.00, 27383.86, 15925.66, 9360.08, -3242.90, 13607.81, 31757.74, 0.00, 0.000, 0.000, 0.000, 13:13:49.475
179, 0.00, 27385.45, 15926.31, 9323.56, -3389.51, 13606.49, 31753.65, 0.00, 0.000, 0.000, 0.000, 13:13:49.475
180, 0.00, 27379.68, 15919.90, 9375.64, -3461.99, 13597.57, 31761.80, 0.00, 0.000, 0.000, 0.000, 13:13:49.475
181, 0.00, 27373.98, 15914.08, 9447.48, -3341.90, 13593.28, 31772.29, 0.00, 0.000, 0.000, 0.000, 13:13:49.476
182, 0.00, 27378.07, 15920.36, 9432.61, -3212.77, 13600.83, 31772.13, 0.00, 0.000, 0.000, 0.000, 13:13:49.476
183, 0.00, 27383.32, 15926.20, 9357.38, -3245.96, 13605.60, 31758.18, 0.00, 0.000, 0.000, 0.000, 13:13:49.476
184, 0.00, 27384.71, 15925.64, 9323.36, -3392.44, 13601.68, 31751.79, 0.00, 0.000, 0.000, 0.000, 13:13:49.476
185, 0.00, 27379.05, 15922.51, 9376.80, -3465.39, 13595.90, 31760.11, 0.00, 0.000, 0.000, 0.000, 13:13:49.476
186, 0.00, 27371.79, 15917.19, 9449.38, -3340.56, 13592.05, 31769.36, 0.00, 0.000, 0.000, 0.000, 13:13:49.476
187, 0.00, 27378.03, 15921.17, 9430.74, -3212.64, 13598.26, 31770.43, 0.00, 0.030, -0.028, 0.998, 13:13:49.477
188, 0.00, 27384.15, 15926.87, 9356.42, -3245.03, 13604.12, 31757.22, 0.00, 0.000, 0.000, 0.000, 13:13:49.477
189, 0.00, 27381.76, 15926.20, 9322.67, -3393.20, 13600.19, 31748.73, 0.00, 0.000, 0.000, 0.000, 13:13:49.477
190, 0.00, 27377.53, 15920.68, 9372.22, -3469.97, 13593.03, 31758.10, 0.00, 0.000, 0.000, 0.000, 13:13:49.477
191, 0.00, 27374.31, 15914.29, 9442.36, -3340.56, 13590.78, 31770.63, 0.00, 0.000, 0.000, 0.000, 13:13:49.478
192, 0.00, 27378.52, 15924.25, 9432.95, -3203.61, 13602.33, 31771.10, 0.00, 0.000, 0.000, 0.000, 13:13:49.478
193, 0.00, 27383.03, 15930.56, 9359.88, -3242.41, 13607.47, 31757.29, 0.00, 0.000, 0.000, 0.000, 13:13:49.478
194, 0.00, 27381.89, 15924.97, 9321.82, -3393.80, 13600.97, 31749.38, 0.00, 0.000, 0.000, 0.000, 13:13:49.926
195, 0.00, 27375.43, 15920.34, 9374.77, -3469.57, 13590.71, 31757.16, 0.00, 0.000, 0.000, 0.000, 13:13:49.926
196, 0.00, 27374.09, 15918.53, 9452.28, -3336.91, 13593.75, 31771.97, 0.00, 0.000, 0.000, 0.000, 13:13:49.926
197, 0.00, 27378.25, 15921.68, 9434.25, -3203.07, 13601.37, 31773.27, 0.00, 0.028, -0.030, 1.000, 13:13:49.927
198, 0.00, 27385.83, 15928.59, 9358.05, -3242.43, 13606.36, 31762.12, 0.00, 0.000, 0.000, 0.000, 13:13:49.927
199, 0.00, 27384.62, 15928.41, 9324.10, -3395.14, 13602.91, 31753.38, 0.00, 0.000, 0.000, 0.000, 13:13:49.927
200, 0.00, 27378.52, 15922.33, 9376.42, -3467.74, 13594.64, 31760.67, 0.00, 0.000, 0.000, 0.000, 13:13:49.927
201, 0.00, 27374.94, 15919.00, 9451.59, -3334.48, 13594.20, 31773.21, 0.00, 0.000, 0.000, 0.000, 13:13:49.927
202, 0.00, 27380.35, 15923.92, 9432.28, -3205.44, 13603.11, 31774.14, 0.00, 0.000, 0.000, 0.000, 13:13:49.928
203, 0.00, 27384.75, 15929.26, 9357.58, -3244.51, 13606.49, 31760.62, 0.00, 0.000, 0.000, 0.000, 13:13:49.928
204, 0.00, 27385.65, 15930.24, 9326.87, -3394.31, 13603.05, 31752.98, 0.00, 0.000, 0.000, 0.000, 13:13:49.928
205, 0.00, 27377.78, 15920.88, 9377.45, -3463.67, 13593.82, 31759.95, 0.00, 0.000, 0.000, 0.000, 13:13:49.929
206, 0.00, 27373.35, 15916.45, 9449.07, -3333.05, 13593.17, 31770.63, 0.00, 0.000, 0.000, 0.000, 13:13:49.929
207, 0.00, 27379.70, 15922.82, 9432.28, -3201.57, 13600.43, 31770.50, 0.00, 0.032, -0.032, 0.996, 13:13:49.929
208, 0.00, 27386.72, 15928.32, 9352.86, -3248.58, 13605.08, 31758.50, 0.00, 0.000, 0.000, 0.000, 13:13:49.929
209, 0.00, 27387.73, 15928.59, 9323.34, -3396.08, 13600.88, 31753.65, 0.00, 0.000, 0.000, 0.000, 13:13:49.929
210, 0.00, 27380.91, 15919.34, 9374.21, -3463.87, 13592.63, 31762.48, 0.00, 0.000, 0.000, 0.000, 13:13:49.930
211, 0.00, 27377.11, 15918.29, 9449.45, -3329.23, 13592.30, 31775.06, 0.00, 0.000, 0.000, 0.000, 13:13:49.930
212, 0.00, 27382.05, 15924.52, 9433.13, -3203.72, 13600.28, 31772.91, 0.00, 0.000, 0.000, 0.000, 13:13:49.930
213, 0.00, 27389.76, 15930.40, 9357.83, -3247.26, 13606.98, 31761.38, 0.00, 0.000, 0.000, 0.000, 13:13:49.930
214, 0.00, 27387.97, 15929.71, 9329.77, -3392.66, 13602.02, 31754.41, 0.00, 0.000, 0.000, 0.000, 13:13:49.930
215, 0.00, 27381.91, 15923.96, 9380.89, -3461.41, 13594.29, 31762.63, 0.00, 0.000, 0.000, 0.000, 13:13:49.931
216, 0.00, 27379.23, 15921.44, 9452.17, -3327.33, 13593.97, 31775.11, 0.00, 0.000, 0.000, 0.000, 13:13:49.931
217, 0.00, 27382.47, 15925.08, 9428.41, -3203.38, 13601.35, 31774.37, 0.00, 0.038, -0.036, 0.988, 13:13:49.931
218, 0.00, 27386.47, 15930.27, 9352.19, -3248.71, 13607.27, 31760.20, 0.00, 0.000, 0.000, 0.000, 13:13:49.931
219, 0.00, 27384.71, 15930.60, 9326.11, -3394.36, 13603.14, 31751.59, 0.00, 0.000, 0.000, 0.000, 13:13:49.932
220, 0.00, 27380.19, 15923.63, 9379.91, -3459.33, 13596.59, 31761.45, 0.00, 0.000, 0.000, 0.000, 13:13:49.932
221, 0.00, 27377.49, 15918.44, 9450.45, -3322.05, 13597.44, 31773.74, 0.00, 0.000, 0.000, 0.000, 13:13:49.932
222, 0.00, 27385.11, 15924.25, 9427.25, -3199.63, 13605.48, 31774.63, 0.00, 0.000, 0.000, 0.000, 13:13:49.932
223, 0.00, 27388.40, 15929.24, 9351.77, -3246.90, 13608.17, 31759.06, 0.00, 0.000, 0.000, 0.000, 13:13:49.932
224, 0.00, 27385.94, 15928.48, 9325.66, -3391.83, 13603.36, 31751.19, 0.00, 0.000, 0.000, 0.000, 13:13:49.933
225, 0.00, 27379.57, 15920.86, 9377.58, -3457.84, 13591.58, 31759.99, 0.00, 0.000, 0.000, 0.000, 13:13:49.934
226, 0.00, 27375.05, 15916.27, 9446.83, -3323.55, 13591.29, 31770.57, 0.00, 0.000, 0.000, 0.000, 13:13:49.934
227, 0.00, 27381.06, 15924.16, 9425.37, -3201.60, 13602.78, 31771.39, 0.00, 0.034, -0.034, 0.986, 13:13:49.934
228, 0.00, 27385.27, 15930.51, 9353.00, -3247.82, 13606.31, 31758.77, 0.00, 0.000, 0.000, 0.000, 13:13:49.934
229, 0.00, 27384.87, 15930.27, 9326.53, -3397.93, 13601.64, 31752.46, 0.00, 0.000, 0.000, 0.000, 13:13:49.934
230, 0.00, 27376.42, 15921.13, 9379.42, -3461.88, 13591.02, 31759.12, 0.00, 0.000, 0.000, 0.000, 13:13:49.935
231, 0.00, 27373.91, 15917.44, 9450.50, -3321.54, 13591.60, 31772.69, 0.00, 0.000, 0.000, 0.000, 13:13:49.935
232, 0.00, 27381.91, 15923.40, 9423.96, -3204.88, 13601.13, 31773.25, 0.00, 0.000, 0.000, 0.000, 13:13:49.935
233, 0.00, 27384.87, 15928.23, 9348.13, -3253.94, 13603.11, 31756.53, 0.00, 0.000, 0.000, 0.000, 13:13:49.936
234, 0.00, 27383.03, 15927.85, 9321.21, -3402.63, 13599.25, 31750.00, 0.00, 0.000, 0.000, 0.000, 13:13:49.936
235, 0.00, 27376.10, 15920.21, 9376.98, -3463.98, 13593.21, 31758.79, 0.00, 0.000, 0.000, 0.000, 13:13:49.936
236, 0.00, 27374.09, 15919.90, 9453.18, -3318.14, 13593.50, 31770.59, 0.00, 0.000, 0.000, 0.000, 13:13:49.936
237, 0.00, 27378.94, 15924.66, 9426.94, -3199.18, 13599.54, 31768.80, 0.00, 0.036, -0.034, 0.986, 13:13:49.937
238, 0.00, 27383.43, 15929.62, 9349.18, -3252.94, 13604.25, 31756.22, 0.00, 0.000, 0.000, 0.000, 13:13:49.937
239, 0.00, 27382.96, 15928.59, 9324.34, -3400.68, 13602.76, 31750.12, 0.00, 0.000, 0.000, 0.000, 13:13:49.937
240, 0.00, 27376.10, 15920.07, 9379.93, -3456.74, 13593.91, 31758.95, 0.00, 0.000, 0.000, 0.000, 13:13:49.938
241, 0.00, 27373.76, 15916.25, 9447.79, -3315.26, 13591.45, 31771.39, 0.00, 0.000, 0.000, 0.000, 13:13:49.938
242, 0.00, 27379.37, 15922.24, 9420.99, -3200.59, 13600.90, 31770.54, 0.00, 0.000, 0.000, 0.000, 13:13:49.938
243, 0.00, 27384.19, 15926.22, 9344.73, -3253.32, 13605.95, 31757.27, 0.00, 0.000, 0.000, 0.000, 13:13:49.938
244, 0.00, 27383.86, 15924.57, 9320.48, -3402.47, 13601.46, 31750.83, 0.00, 0.000, 0.000, 0.000, 13:13:49.938
245, 0.00, 27378.18, 15918.55, 9380.40, -3454.66, 13594.31, 31759.68, 0.00, 0.000, 0.000, 0.000, 13:13:49.939
246, 0.00, 27375.77, 15914.93, 9448.39, -3311.43, 13593.21, 31772.29, 0.00, 0.000, 0.000, 0.000, 13:13:49.939
247, 0.00, 27380.21, 15921.35, 9420.03, -3199.27, 13601.17, 31770.08, 0.00, 0.040, -0.036, 0.990, 13:13:49.939
248, 0.00, 27384.89, 15927.32, 9345.17, -3252.92, 13605.57, 31757.04, 0.00, 0.000, 0.000, 0.000, 13:13:49.939
249, 0.00, 27383.19, 15926.35, 9320.05, -3405.42, 13600.79, 31752.13, 0.00, 0.000, 0.000, 0.000, 13:13:49.940
250, 0.00, 27378.38, 15921.79, 9378.86, -3460.54, 13595.18, 31761.00, 0.00, 0.000, 0.000, 0.000, 13:13:49.940
251, 0.00, 27372.57, 15917.30, 9448.44, -3311.19, 13592.72, 31768.94, 0.00, 0.000, 0.000, 0.000, 13:13:49.940
252, 0.00, 27377.20, 15922.89, 9417.01, -3202.51, 13600.66, 31767.73, 0.00, 0.000, 0.000, 0.000, 13:13:49.940
253, 0.00, 27384.19, 15931.88, 9347.30, -3251.62, 13607.43, 31755.35, 0.00, 0.000, 0.000, 0.000, 13:13:49.940
254, 0.00, 27384.17, 15934.47, 9329.39, -3401.73, 13603.92, 31750.52, 0.00, 0.000, 0.000, 0.000, 13:13:49.941
255, 0.00, 27376.88, 15923.40, 9386.66, -3456.38, 13595.25, 31758.68, 0.00, 0.000, 0.000, 0.000, 13:13:49.942
0, 0.00, 27374.72, 15917.95, 9449.51, -3310.92, 13594.53, 31770.68, 0.00, 0.000, 0.000, 0.000, 13:13:49.942
1, 0.00, 27377.11, 15920.05, 9415.94, -3201.22, 13599.54, 31766.37, 0.00, 0.038, -0.038, 0.992, 13:13:49.942
2, 0.00, 27382.96, 15925.35, 9340.77, -3257.48, 13603.63, 31753.29, 0.00, 0.000, 0.000, 0.000, 13:13:49.942
3, 0.00, 27380.75, 15924.01, 9318.40, -3406.27, 13598.93, 31746.96, 0.00, 0.000, 0.000, 0.000, 13:13:49.942
4, 0.00, 27375.12, 15918.24, 9376.91, -3458.98, 13591.85, 31756.62, 0.00, 0.000, 0.000, 0.000, 13:13:49.943
5, 0.00, 27373.42, 15916.23, 9448.19, -3306.25, 13592.59, 31769.12, 0.00, 0.000, 0.000, 0.000, 13:13:49.943
6, 0.00, 27378.34, 15919.00, 9414.87, -3193.80, 13600.25, 31766.05, 0.00, 0.000, 0.000, 0.000, 13:13:49.943
7, 0.00, 27385.27, 15926.31, 9342.83, -3246.97, 13606.42, 31754.43, 0.00, 0.000, 0.000, 0.000, 13:13:49.943
8, 0.00, 27381.67, 15924.03, 9322.69, -3390.02, 13599.72, 31746.85, 0.00, 0.000, 0.000, 0.000, 13:13:49.944
9, 0.00, 27377.02, 15917.19, 9379.35, -3440.58, 13592.30, 31757.42, 0.00, 0.000, 0.000, 0.000, 13:13:49.944
10, 0.00, 27373.58, 15913.41, 9445.69, -3288.52, 13591.74, 31769.29, 0.00, 0.000, 0.000, 0.000, 13:13:49.944
11, 0.00, 27378.70, 15916.74, 9410.51, -3182.93, 13598.47, 31766.37, 0.00, 0.038, -0.038, 0.988, 13:13:49.944
12, 0.00, 27387.55, 15925.15, 9334.56, -3244.49, 13606.02, 31756.20, 0.00, 0.000, 0.000, 0.000, 13:13:49.944
13, 0.00, 27385.33, 15925.64, 9317.73, -3389.35, 13601.51, 31750.67, 0.00, 0.000, 0.000, 0.000, 13:13:49.945
14, 0.00, 27377.53, 15919.78, 9382.61, -3431.35, 13594.04, 31759.86, 0.00, 0.000, 0.000, 0.000, 13:13:49.945
15, 0.00, 27374.81, 15914.40, 9445.62, -3281.64, 13592.90, 31770.61, 0.00, 0.000, 0.000, 0.000, 13:13:49.945
16, 0.00, 27379.01, 15917.55, 9408.39, -3180.32, 13596.77, 31766.48, 0.00, 0.000, 0.000, 0.000, 13:13:49.945
17, 0.00, 27382.81, 15924.99, 9336.59, -3241.61, 13602.04, 31752.42, 0.00, 0.000, 0.000, 0.000, 13:13:49.945
18, 0.00, 27381.89, 15924.57, 9319.38, -3388.64, 13599.20, 31749.94, 0.00, 0.000, 0.000, 0.000, 13:13:49.946
19, 0.00, 27378.38, 15917.77, 9380.31, -3432.78, 13591.74, 31760.55, 0.00, 0.000, 0.000, 0.000, 13:13:49.946
20, 0.00, 27375.81, 15915.54, 9446.61, -3280.88, 13592.56, 31771.13, 0.00, 0.000, 0.000, 0.000, 13:13:49.946
21, 0.00, 27381.67, 15923.29, 9413.46, -3173.70, 13602.31, 31768.00, 0.00, 0.036, -0.042, 0.990, 13:13:49.946
22, 0.00, 27385.67, 15924.37, 9338.56, -3229.40, 13603.58, 31755.14, 0.00, 0.000, 0.000, 0.000, 13:13:49.947
23, 0.00, 27384.04, 15921.91, 9318.42, -3380.54, 13596.92, 31750.41, 0.00, 0.000, 0.000, 0.000, 13:13:49.947
24, 0.00, 27378.52, 15914.31, 9376.06, -3427.66, 13591.89, 31759.44, 0.00, 0.000, 0.000, 0.000, 13:13:49.947
25, 0.00, 27374.38, 15909.99, 9438.99, -3276.81, 13589.61, 31770.28, 0.00, 0.000, 0.000, 0.000, 13:13:49.947
26, 0.00, 27377.06, 15915.36, 9402.24, -3180.23, 13593.91, 31766.03, 0.00, 0.000, 0.000, 0.000, 13:13:49.947
27, 0.00, 27382.41, 15924.46, 9333.73, -3240.38, 13600.16, 31753.54, 0.00, 0.000, 0.000, 0.000, 13:13:49.948
28, 0.00, 27385.27, 15926.76, 9322.24, -3384.30, 13599.52, 31751.63, 0.00, 0.000, 0.000, 0.000, 13:13:49.948
29, 0.00, 27378.94, 15918.96, 9384.85, -3425.74, 13590.98, 31761.94, 0.00, 0.000, 0.000, 0.000, 13:13:49.952
30, 0.00, 27378.83, 15914.98, 9447.03, -3272.83, 13592.32, 31774.21, 0.00, 0.000, 0.000, 0.000, 13:13:49.952
31, 0.00, 27386.21, 15918.71, 9407.45, -3171.96, 13599.38, 31771.62, 0.00, 0.028, -0.042, 0.996, 13:13:49.953
32, 0.00, 27391.01, 15923.58, 9333.02, -3234.88, 13603.25, 31758.90, 0.00, 0.000, 0.000, 0.000, 13:13:49.953
33, 0.00, 27387.90, 15921.95, 9318.08, -3381.13, 13598.04, 31752.62, 0.00, 0.000, 0.000, 0.000, 13:13:49.953
34, 0.00, 27381.24, 15914.98, 9379.04, -3424.35, 13590.17, 31761.96, 0.00, 0.000, 0.000, 0.000, 13:13:49.953
35, 0.00, 27379.97, 15912.56, 9444.01, -3267.56, 13591.74, 31774.68, 0.00, 0.000, 0.000, 0.000, 13:13:49.954
36, 0.00, 27384.28, 15917.55, 9406.37, -3168.72, 13598.49, 31770.93, 0.00, 0.000, 0.000, 0.000, 13:13:49.954
37, 0.00, 27386.90, 15923.25, 9332.77, -3233.74, 13602.44, 31754.92, 0.00, 0.000, 0.000, 0.000, 13:13:49.954
38, 0.00, 27384.62, 15922.09, 9318.11, -3380.97, 13596.88, 31750.25, 0.00, 0.000, 0.000, 0.000, 13:13:49.954
39, 0.00, 27380.37, 15915.49, 9381.72, -3421.29, 13588.12, 31761.40, 0.00, 0.000, 0.000, 0.000, 13:13:49.955
40, 0.00, 27376.82, 15912.85, 9447.43, -3264.72, 13592.72, 31771.95, 0.00, 0.000, 0.000, 0.000, 13:13:49.955
41, 0.00, 27382.29, 15918.46, 9409.91, -3162.59, 13601.77, 31769.16, 0.00, 0.032, -0.040, 0.992, 13:13:49.955
42, 0.00, 27388.22, 15927.65, 9340.64, -3226.41, 13608.37, 31757.07, 0.00, 0.000, 0.000, 0.000, 13:13:49.956
43, 0.00, 27385.83, 15923.02, 9325.21, -3376.03, 13602.24, 31752.06, 0.00, 0.000, 0.000, 0.000, 13:13:49.956
44, 0.00, 27379.50, 15914.71, 9385.07, -3416.15, 13593.24, 31761.02, 0.00, 0.000, 0.000, 0.000, 13:13:49.956
45, 0.00, 27377.55, 15913.30, 9449.07, -3257.92, 13594.53, 31773.83, 0.00, 0.000, 0.000, 0.000, 13:13:49.957
46, 0.00, 27384.51, 15921.44, 9414.89, -3159.73, 13603.03, 31770.93, 0.00, 0.000, 0.000, 0.000, 13:13:49.957
47, 0.00, 27389.11, 15925.82, 9341.84, -3227.79, 13606.15, 31757.49, 0.00, 0.000, 0.000, 0.000, 13:13:49.957
48, 0.00, 27386.70, 15924.01, 9328.37, -3375.38, 13601.13, 31754.25, 0.00, 0.000, 0.000, 0.000, 13:13:49.958
49, 0.00, 27379.52, 15917.21, 9389.70, -3414.45, 13592.90, 31763.79, 0.00, 0.000, 0.000, 0.000, 13:13:49.958
50, 0.00, 27376.73, 15913.48, 9450.74, -3257.65, 13592.36, 31773.29, 0.00, 0.000, 0.000, 0.000, 13:13:49.958
51, 0.00, 27381.91, 15916.90, 9410.31, -3159.66, 13598.98, 31768.78, 0.00, 0.028, -0.046, 0.992, 13:13:49.958
52, 0.00, 27387.08, 15924.57, 9338.18, -3228.87, 13603.38, 31755.81, 0.00, 0.000, 0.000, 0.000, 13:13:49.959
53, 0.00, 27385.76, 15927.50, 9330.62, -3374.80, 13600.72, 31752.87, 0.00, 0.000, 0.000, 0.000, 13:13:49.959
54, 0.00, 27378.92, 15920.90, 9396.29, -3407.01, 13596.32, 31763.15, 0.00, 0.000, 0.000, 0.000, 13:13:49.959
55, 0.00, 27375.05, 15914.93, 9453.04, -3250.84, 13593.86, 31771.60, 0.00, 0.000, 0.000, 0.000, 13:13:49.959
56, 0.00, 27380.42, 15919.38, 9413.73, -3154.26, 13600.61, 31767.15, 0.00, 0.000, 0.000, 0.000, 13:13:49.960
57, 0.00, 27385.94, 15923.65, 9340.35, -3225.80, 13605.13, 31756.37, 0.00, 0.000, 0.000, 0.000, 13:13:49.960
58, 0.00, 27383.54, 15922.44, 9327.85, -3376.28, 13598.38, 31751.50, 0.00, 0.000, 0.000, 0.000, 13:13:49.960
