%OpenBCI Raw EEG Data
%Sample Rate = 250.0 Hz
%First Column = SampleIndex
%Other Columns = EEG data in microvolts followed by Accel Data (in G) interleaved with Aux Data
153, 8605.78, 331.50, -11398.74, 4370.35, 7977.43, -25877.89, -36692.09, -53256.58, 0.00, 0.00, 0.00
154, 8607.17, 332.24, -11400.42, 4369.18, 7976.62, -25877.84, -36692.20, -53257.54, 0.00, 0.00, 0.00
155, 8609.06, 333.89, -11402.21, 4369.21, 7977.85, -25877.69, -36692.64, -53258.73, 0.00, 0.00, 0.00
156, 8610.96, 335.92, -11403.95, 4368.47, 7978.81, -25878.25, -36692.64, -53258.30, 0.00, 0.00, 0.00
157, 8609.29, 335.03, -11406.70, 4367.15, 7978.14, -25878.69, -36693.29, -53258.59, 0.00, 0.00, 0.00
158, 8608.80, 333.11, -11407.97, 4366.44, 7979.30, -25876.86, -36692.60, -53259.15, 0.00, 0.00, 0.00
171, 8614.52, 328.73, -11408.11, 4370.66, 7993.34, -25869.95, -36683.41, -53250.93, 0.00, 0.00, 0.00
160, 8611.01, 333.18, -11406.90, 4368.38, 7983.39, -25873.51, -36687.23, -53257.37, 0.00, 0.00, 0.00
161, 8611.52, 332.19, -11406.03, 4368.92, 7983.66, -25871.47, -36687.57, -53256.63, 0.00, 0.00, 0.00
165, 8607.66, 328.30, -11408.60, 4366.44, 7987.93, -25874.83, -36687.06, -53257.52, 0.00, 0.00, 0.00
169, 8609.09, 326.42, -11408.69, 4368.02, 7992.85, -25872.95, -36687.23, -53253.83, 0.03, -0.00, 0.97
166, 8607.86, 327.81, -11408.91, 4367.44, 7987.62, -25875.79, -36687.97, -53256.70, 0.00, 0.00, 0.00
190, 8607.79, 329.00, -11403.90, 4365.36, 8005.39, -25877.42, -36696.69, -53249.48, 0.00, 0.00, 0.00
172, 8615.35, 329.78, -11408.42, 4369.05, 7993.48, -25868.84, -36684.49, -53250.75, 0.00, 0.00, 0.00
188, 8607.95, 332.39, -11402.05, 4367.51, 8005.79, -25873.13, -36693.11, -53246.14, 0.00, 0.00, 0.00
174, 8614.63, 327.54, -11409.20, 4366.39, 7993.90, -25871.56, -36689.76, -53249.88, 0.00, 0.00, 0.00
186, 8610.99, 331.88, -11399.05, 4369.05, 8003.47, -25872.28, -36690.54, -53245.61, 0.00, 0.00, 0.00
202, 8615.28, 332.44, -11391.43, 4374.15, 8018.69, -25881.35, -36696.82, -53244.25, 0.00, 0.00, 0.00
184, 8608.91, 330.11, -11401.92, 4370.01, 7999.67, -25874.91, -36691.44, -53245.18, 0.00, 0.00, 0.00
194, 8611.79, 334.34, -11398.16, 4372.14, 8013.48, -25873.87, -36696.51, -53240.82, 0.00, 0.00, 0.00
200, 8613.49, 333.06, -11393.49, 4370.79, 8016.77, -25878.42, -36697.05, -53245.50, 0.00, 0.00, 0.00
192, 8610.25, 329.60, -11403.68, 4367.04, 8007.89, -25878.02, -36697.63, -53246.91, 0.00, 0.00, 0.00
195, 8612.04, 334.14, -11397.85, 4373.19, 8016.81, -25872.59, -36695.95, -53239.66, 0.00, 0.00, 0.00
196, 8612.89, 333.24, -11396.73, 4373.45, 8017.53, -25873.24, -36697.07, -53240.98, 0.00, 0.00, 0.00
208, 8617.27, 328.64, -11401.07, 4375.22, 8019.54, -25882.54, -36699.68, -53241.88, 0.00, 0.00, 0.00
204, 8617.74, 330.94, -11394.63, 4376.45, 8019.98, -25881.40, -36697.14, -53243.73, 0.00, 0.00, 0.00
205, 8616.28, 329.20, -11398.61, 4376.36, 8018.15, -25882.18, -36697.63, -53245.32, 0.00, 0.00, 0.00
213, 8613.33, 329.73, -11405.13, 4369.79, 8019.43, -25882.45, -36698.59, -53244.94, 0.00, 0.00, 0.00
222, 8621.04, 327.43, -11409.81, 4367.28, 8032.84, -25880.88, -36704.80, -53231.32, 0.00, 0.00, 0.00
210, 8620.80, 327.94, -11400.48, 4376.34, 8021.06, -25879.38, -36695.10, -53239.37, 0.00, 0.00, 0.00
229, 8622.54, 334.14, -11411.53, 4369.61, 8042.54, -25879.09, -36705.23, -53247.29, 0.02, -0.00, 0.97
220, 8621.80, 327.10, -11404.62, 4369.16, 8033.91, -25880.82, -36701.83, -53233.32, 0.00, 0.00, 0.00
215, 8611.99, 327.18, -11407.41, 4367.11, 8020.52, -25884.82, -36701.27, -53242.32, 0.00, 0.00, 0.00
227, 8624.40, 334.61, -11406.21, 4371.80, 8042.31, -25877.55, -36704.78, -53238.93, 0.00, 0.00, 0.00
223, 8621.09, 329.24, -11409.00, 4367.82, 8032.81, -25881.17, -36707.51, -53231.28, 0.00, 0.00, 0.00
224, 8622.21, 330.81, -11408.53, 4368.63, 8035.74, -25880.70, -36708.11, -53230.05, 0.00, 0.00, 0.00
225, 8623.44, 333.42, -11406.70, 4369.65, 8040.39, -25879.29, -36705.36, -53228.75, 0.00, 0.00, 0.00
230, 8621.20, 333.64, -11411.35, 4369.21, 8042.87, -25879.83, -36705.86, -53247.08, 0.00, 0.00, 0.00
236, 8621.38, 335.45, -11405.25, 4372.34, 8050.34, -25874.13, -36699.17, -53290.85, 0.00, 0.00, 0.00
232, 8620.58, 336.30, -11410.77, 4367.98, 8045.35, -25877.98, -36707.13, -53255.87, 0.00, 0.00, 0.00
248, 8616.91, 335.68, -11409.04, 4376.16, 8061.92, -25872.57, -36694.23, -53322.59, 0.00, 0.00, 0.00
234, 8623.64, 336.04, -11407.32, 4370.64, 8047.21, -25877.48, -36702.73, -53273.88, 0.00, 0.00, 0.00
237, 8620.17, 336.28, -11406.74, 4371.82, 8050.38, -25875.65, -36698.39, -53298.61, 0.00, 0.00, 0.00
246, 8617.92, 334.02, -11408.53, 4373.70, 8059.90, -25871.67, -36694.88, -53318.95, 0.00, 0.00, 0.00
244, 8621.13, 336.53, -11406.03, 4373.83, 8059.75, -25872.37, -36694.16, -53316.15, 0.00, 0.00, 0.00
240, 8619.95, 335.59, -11410.52, 4373.12, 8052.53, -25873.64, -36694.23, -53310.18, 0.02, -0.00, 0.97
241, 8623.08, 335.83, -11406.85, 4374.48, 8054.63, -25871.41, -36692.60, -53312.13, 0.00, 0.00, 0.00
252, 8618.92, 341.00, -11407.15, 4379.04, 8065.34, -25875.18, -36686.95, -53319.64, 0.00, 0.00, 0.00
249, 8619.48, 337.67, -11407.15, 4378.01, 8062.90, -25872.17, -36692.31, -53322.25, 0.00, 0.00, 0.00
250, 8620.04, 338.20, -11406.32, 4379.58, 8062.81, -25872.95, -36690.92, -53321.40, 0.02, -0.01, 0.97
253, 8617.94, 341.56, -11407.64, 4379.15, 8064.67, -25877.08, -36686.45, -53321.65, 0.00, 0.00, 0.00
254, 8617.85, 342.63, -11405.45, 4380.79, 8065.69, -25877.53, -36685.07, -53320.80, 0.00, 0.00, 0.00
255, 8617.22, 342.74, -11403.86, 4382.10, 8066.39, -25876.88, -36682.52, -53318.88, 0.00, 0.00, 0.00
5, 8614.38, 343.57, -11397.40, 4385.41, 8070.45, -25874.36, -36662.09, -53329.16, 0.00, 0.00, 0.00
1, 8616.28, 344.91, -11399.66, 4384.81, 8069.56, -25874.58, -36674.65, -53319.84, 0.00, 0.00, 0.00
2, 8615.52, 344.22, -11399.14, 4384.72, 8071.30, -25874.89, -36670.81, -53322.25, 0.00, 0.00, 0.00
3, 8614.45, 342.74, -11398.34, 4384.27, 8072.76, -25874.24, -36666.71, -53325.83, 0.00, 0.00, 0.00
6, 8615.77, 342.74, -11396.57, 4387.16, 8069.45, -25875.07, -36659.74, -53330.63, 0.00, 0.00, 0.00
11, 8622.70, 339.14, -11397.29, 4388.41, 8072.06, -25870.22, -36646.24, -53336.00, 0.00, 0.00, 0.00
8, 8621.74, 341.40, -11395.86, 4389.61, 8071.24, -25874.22, -36652.30, -53333.25, 0.00, 0.00, 0.00
15, 8623.97, 339.39, -11402.94, 4388.30, 8072.13, -25871.18, -36643.38, -53338.55, 0.00, 0.00, 0.00
19, 8628.85, 340.37, -11400.51, 4383.69, 8078.03, -25872.34, -36637.12, -53339.51, 0.00, 0.00, 0.00
13, 8621.16, 337.94, -11401.09, 4387.60, 8071.13, -25869.89, -36648.01, -53338.43, 0.00, 0.00, 0.00
16, 8624.78, 337.76, -11402.72, 4387.56, 8072.13, -25872.21, -36642.69, -53339.46, 0.00, 0.00, 0.00
17, 8626.01, 338.32, -11401.42, 4386.51, 8074.63, -25872.61, -36641.48, -53339.55, 0.00, 0.00, 0.00
20, 8628.51, 341.36, -11400.33, 4381.39, 8080.36, -25871.85, -36634.42, -53338.66, 0.00, 0.00, 0.00
21, 8626.77, 341.00, -11401.98, 4379.51, 8082.26, -25871.38, -36632.88, -53339.08, 0.00, 0.00, 0.00
22, 8625.78, 339.72, -11401.89, 4377.90, 8083.26, -25869.84, -36631.91, -53339.66, 0.00, 0.00, 0.00
23, 8626.39, 341.91, -11400.55, 4378.26, 8084.33, -25868.50, -36631.40, -53338.52, 0.00, 0.00, 0.00
24, 8626.90, 344.31, -11399.70, 4380.34, 8085.99, -25868.39, -36628.63, -53335.89, 0.02, -0.00, 0.97
30, 8623.53, 343.35, -11390.72, 4385.50, 8085.10, -25868.95, -36614.19, -53325.49, 0.00, 0.00, 0.00
26, 8627.68, 347.19, -11393.98, 4386.28, 8090.26, -25865.88, -36622.35, -53330.16, 0.00, 0.00, 0.00
40, 8630.23, 347.84, -11394.54, 4383.85, 8089.19, -25863.29, -36602.25, -53315.75, 0.00, 0.00, 0.00
28, 8627.42, 346.30, -11388.79, 4387.45, 8088.22, -25868.10, -36616.45, -53327.95, 0.00, 0.00, 0.00
31, 8622.61, 340.89, -11391.25, 4383.02, 8084.80, -25868.66, -36614.04, -53326.03, 0.00, 0.00, 0.00
38, 8630.59, 344.19, -11394.56, 4381.52, 8087.00, -25864.41, -36605.23, -53320.60, 0.00, 0.00, 0.00
44, 8632.24, 348.93, -11397.53, 4387.96, 8093.01, -25860.83, -36593.52, -53308.11, 0.02, -0.00, 0.96
36, 8629.25, 344.98, -11391.61, 4382.91, 8090.62, -25862.91, -36605.85, -53323.77, 0.00, 0.00, 0.00
51, 8635.80, 347.75, -11396.75, 4386.33, 8097.17, -25863.18, -36586.23, -53305.09, 0.00, 0.00, 0.00
42, 8631.04, 350.68, -11394.45, 4384.76, 8092.02, -25862.91, -36599.33, -53311.23, 0.00, 0.00, 0.00
45, 8633.05, 350.56, -11398.47, 4387.33, 8091.29, -25862.73, -36591.68, -53308.93, 0.00, 0.00, 0.00
58, 8636.49, 351.70, -11394.96, 4389.01, 8104.92, -25860.72, -36577.22, -53307.25, 0.00, 0.00, 0.00
47, 8633.45, 349.47, -11399.43, 4384.21, 8092.20, -25865.46, -36591.08, -53309.64, 0.00, 0.00, 0.00
56, 8636.13, 348.53, -11397.40, 4389.01, 8103.04, -25862.55, -36582.23, -53308.89, 0.00, 0.00, 0.00
53, 8634.37, 348.15, -11396.95, 4388.38, 8096.45, -25864.41, -36585.80, -53309.00, 0.00, 0.00, 0.00
68, 8635.06, 350.79, -11396.04, 4397.01, 8108.45, -25863.29, -36567.43, -53299.54, 0.00, 0.00, 0.00
59, 8636.22, 352.84, -11394.14, 4389.30, 8106.78, -25861.59, -36576.80, -53307.12, 0.00, 0.00, 0.00
60, 8635.60, 351.10, -11394.41, 4389.82, 8107.74, -25861.84, -36576.82, -53307.68, 0.00, 0.00, 0.00
66, 8636.20, 349.27, -11395.50, 4395.47, 8108.56, -25861.91, -36565.20, -53298.22, 0.00, 0.00, 0.00
76, 8640.31, 349.00, -11398.21, 4394.82, 8111.67, -25862.64, -36561.02, -53295.92, 0.00, 0.00, 0.00
63, 8631.44, 343.81, -11395.43, 4393.03, 8103.45, -25863.61, -36571.63, -53301.46, 0.00, 0.00, 0.00
69, 8633.54, 349.58, -11396.64, 4397.62, 8109.91, -25863.67, -36568.10, -53298.58, 0.00, 0.00, 0.00
83, 8636.74, 349.89, -11404.22, 4396.83, 8113.48, -25861.71, -36556.48, -53304.08, 0.00, 0.00, 0.00
71, 8633.54, 350.83, -11396.30, 4395.90, 8111.27, -25862.31, -36565.71, -53298.00, 0.00, 0.00, 0.00
81, 8638.81, 349.69, -11406.99, 4395.40, 8112.30, -25860.68, -36558.40, -53304.95, 0.00, 0.00, 0.00
78, 8635.60, 344.75, -11403.41, 4393.62, 8111.07, -25865.53, -36561.04, -53301.11, 0.00, 0.00, 0.00
79, 8634.52, 345.98, -11405.40, 4392.92, 8111.43, -25865.15, -36561.95, -53303.93, 0.00, 0.00, 0.00
84, 8637.34, 350.70, -11403.12, 4394.93, 8113.26, -25860.39, -36556.10, -53306.23, 0.00, 0.00, 0.00
85, 8636.02, 348.24, -11403.46, 4392.12, 8112.74, -25859.83, -36556.88, -53308.82, 0.02, -0.01, 0.97
86, 8634.79, 347.44, -11403.50, 4390.64, 8112.77, -25860.16, -36555.85, -53308.24, 0.00, 0.00, 0.00
96, 8633.96, 340.28, -11404.26, 4389.93, 8115.54, -25860.86, -36550.40, -53293.84, 0.00, 0.00, 0.00
88, 8636.16, 346.21, -11400.86, 4389.32, 8114.20, -25860.52, -36553.75, -53305.27, 0.00, 0.00, 0.00
94, 8632.65, 339.59, -11401.45, 4390.28, 8114.55, -25862.46, -36550.36, -53297.75, 0.00, 0.00, 0.00
92, 8635.44, 343.19, -11399.48, 4391.18, 8114.47, -25860.54, -36550.33, -53296.59, 0.00, 0.00, 0.00
97, 8634.90, 342.63, -11403.79, 4392.27, 8117.30, -25860.52, -36548.77, -53290.71, 0.00, 0.00, 0.00
98, 8635.08, 344.06, -11404.91, 4393.48, 8117.97, -25860.07, -36548.92, -53288.55, 0.00, 0.00, 0.00
99, 8635.17, 343.37, -11405.58, 4392.99, 8119.00, -25860.52, -36549.82, -53285.93, 0.00, 0.00, 0.00
111, 8638.88, 348.11, -11412.20, 4394.87, 8126.11, -25858.69, -36566.31, -53298.83, 0.00, 0.00, 0.00
101, 8635.10, 342.50, -11408.46, 4390.24, 8119.90, -25862.85, -36553.46, -53285.57, 0.00, 0.00, 0.00
109, 8637.36, 347.48, -11410.59, 4393.53, 8124.32, -25860.54, -36561.80, -53297.80, 0.00, 0.00, 0.00
103, 8632.82, 341.85, -11409.60, 4392.30, 8118.87, -25864.92, -36555.85, -53291.23, 0.00, 0.00, 0.00
104, 8633.67, 344.08, -11409.87, 4392.21, 8118.78, -25864.99, -36558.45, -53293.35, 0.00, 0.00, 0.00
107, 8638.52, 348.24, -11411.15, 4392.70, 8124.41, -25859.83, -36558.73, -53298.00, 0.00, 0.00, 0.00
112, 8638.23, 347.84, -11411.21, 4395.67, 8127.52, -25858.15, -36567.61, -53299.12, 0.00, 0.00, 0.00
113, 8639.17, 347.75, -11409.34, 4396.14, 8128.08, -25857.44, -36567.48, -53297.49, 0.00, 0.00, 0.00
141, 8649.37, 354.70, -11419.26, 4393.08, 8145.33, -25855.11, -36605.68, -53332.64, 0.00, 0.00, 0.00
115, 8642.59, 349.11, -11405.63, 4399.14, 8130.40, -25853.99, -36568.53, -53294.58, 0.03, -0.00, 0.97
128, 8642.48, 348.71, -11405.45, 4404.28, 8132.01, -25856.77, -36585.42, -53285.64, 0.00, 0.00, 0.00
139, 8650.68, 353.52, -11414.88, 4397.55, 8144.73, -25856.14, -36603.02, -53324.44, 0.00, 0.00, 0.00
137, 8649.07, 351.75, -11414.41, 4400.57, 8140.10, -25855.80, -36598.43, -53316.33, 0.00, 0.00, 0.00
124, 8641.03, 347.52, -11410.83, 4404.05, 8132.75, -25856.94, -36577.45, -53288.95, 0.00, 0.00, 0.00
120, 8642.97, 344.73, -11409.92, 4399.67, 8132.12, -25855.18, -36574.16, -53300.46, 0.00, 0.00, 0.00
121, 8641.88, 345.13, -11411.88, 4400.54, 8133.55, -25854.33, -36573.51, -53296.35, 0.00, 0.00, 0.00
157, 8655.33, 355.08, -11417.20, 4401.37, 8155.88, -25852.27, -36633.95, -53344.94, 0.00, 0.00, 0.00
155, 8658.46, 358.59, -11412.96, 4403.18, 8156.89, -25851.65, -36628.68, -53344.83, 0.00, 0.00, 0.00
145, 8651.78, 355.06, -11415.35, 4397.73, 8149.67, -25854.96, -36612.67, -53343.20, 0.02, -0.01, 0.97
131, 8644.56, 348.49, -11406.70, 4403.54, 8134.11, -25852.25, -36590.61, -53282.45, 0.00, 0.00, 0.00
142, 8649.10, 353.92, -11419.93, 4392.70, 8145.02, -25854.71, -36605.23, -53334.81, 0.00, 0.00, 0.00
153, 8659.47, 356.89, -11412.55, 4402.53, 8153.67, -25852.43, -36628.27, -53343.96, 0.00, 0.00, 0.00
151, 8658.01, 357.05, -11414.25, 4401.37, 8150.94, -25854.82, -36625.28, -53346.23, 0.00, 0.00, 0.00
163, 8658.73, 356.60, -11419.66, 4402.22, 8158.83, -25846.53, -36639.11, -53337.03, 0.00, 0.00, 0.00
148, 8656.56, 356.26, -11414.16, 4400.52, 8151.14, -25856.43, -36617.23, -53346.91, 0.00, 0.00, 0.00
161, 8658.69, 357.16, -11419.75, 4401.86, 8159.48, -25846.69, -36638.00, -53341.36, 0.00, 0.00, 0.00
158, 8655.94, 355.19, -11418.34, 4402.42, 8156.46, -25851.49, -36634.44, -53343.55, 0.00, 0.00, 0.00
173, 8656.43, 361.56, -11419.84, 4399.11, 8160.91, -25846.24, -36649.11, -53333.43, 0.00, 0.00, 0.00
164, 8656.92, 355.88, -11419.26, 4401.75, 8157.34, -25846.42, -36640.21, -53335.55, 0.00, 0.00, 0.00
165, 8654.68, 354.50, -11420.94, 4399.69, 8155.99, -25847.31, -36642.15, -53336.94, 0.00, 0.00, 0.00
170, 8659.18, 360.71, -11417.85, 4400.88, 8162.61, -25844.63, -36642.27, -53334.10, 0.00, 0.00, 0.00
167, 8656.72, 356.31, -11420.20, 4395.87, 8158.23, -25846.91, -36643.25, -53336.87, 0.00, 0.00, 0.00
168, 8657.93, 357.34, -11419.15, 4398.33, 8159.93, -25845.63, -36642.73, -53336.51, 0.00, 0.00, 0.00
174, 8656.43, 360.15, -11419.33, 4400.16, 8162.79, -25845.88, -36650.07, -53332.63, 0.00, 0.00, 0.00
175, 8655.74, 360.44, -11418.75, 4401.62, 8166.01, -25844.16, -36649.64, -53329.00, 0.00, 0.00, 0.00
176, 8656.52, 361.63, -11420.58, 4403.03, 8167.15, -25843.51, -36650.11, -53325.83, 0.02, -0.01, 0.98
177, 8657.68, 361.56, -11421.20, 4403.63, 8167.80, -25843.47, -36650.96, -53323.35, 0.00, 0.00, 0.00
181, 8654.30, 357.83, -11424.56, 4405.46, 8170.32, -25841.77, -36648.05, -53314.95, 0.00, 0.00, 0.00
179, 8657.52, 359.62, -11422.37, 4404.41, 8171.37, -25842.48, -36648.34, -53318.68, 0.00, 0.00, 0.00
182, 8653.21, 357.20, -11425.70, 4406.60, 8172.04, -25839.44, -36648.72, -53316.55, 0.00, 0.00, 0.00
183, 8651.89, 355.64, -11427.49, 4405.48, 8173.67, -25839.76, -36650.11, -53318.25, 0.00, 0.00, 0.00
184, 8651.20, 352.82, -11427.64, 4404.14, 8175.71, -25839.53, -36651.20, -53318.39, 0.00, 0.00, 0.00
185, 8653.75, 353.87, -11424.89, 4404.28, 8179.15, -25837.74, -36649.98, -53318.25, 0.00, 0.00, 0.00
219, 8663.69, 357.05, -11436.58, 4412.64, 8201.46, -25824.98, -36671.07, -53301.11, 0.00, 0.00, 0.00
217, 8662.37, 358.59, -11436.45, 4411.18, 8199.96, -25827.55, -36669.18, -53301.00, 0.00, 0.00, 0.00
200, 8659.49, 362.34, -11433.34, 4407.67, 8189.32, -25840.13, -36660.70, -53324.02, 0.00, 0.00, 0.00
215, 8662.80, 356.96, -11436.16, 4411.45, 8198.35, -25829.92, -36671.03, -53306.27, 0.00, 0.00, 0.00
213, 8662.28, 357.65, -11437.43, 4411.23, 8198.20, -25832.45, -36671.34, -53307.57, 0.00, 0.00, 0.00
198, 8659.49, 360.51, -11433.95, 4408.90, 8187.53, -25841.59, -36661.04, -53327.06, 0.00, 0.00, 0.00
194, 8661.12, 359.28, -11429.72, 4409.71, 8187.94, -25840.09, -36657.95, -53328.46, 0.00, 0.00, 0.00
211, 8662.82, 357.83, -11432.72, 4414.00, 8197.93, -25832.04, -36666.11, -53306.94, 0.00, 0.00, 0.00
224, 8661.28, 354.54, -11438.66, 4413.33, 8200.81, -25825.74, -36674.27, -53304.48, 0.00, 0.00, 0.00
204, 8664.50, 360.09, -11435.60, 4410.47, 8194.17, -25836.98, -36660.08, -53317.54, 0.00, 0.00, 0.00
209, 8664.92, 357.18, -11433.52, 4409.84, 8194.24, -25833.72, -36664.59, -53310.72, 0.00, 0.00, 0.00
222, 8660.36, 354.63, -11439.15, 4411.90, 8199.25, -25825.45, -36673.78, -53303.10, 0.00, 0.00, 0.00
207, 8664.43, 358.83, -11436.18, 4409.86, 8193.12, -25836.87, -36663.03, -53318.41, 0.00, 0.00, 0.00
220, 8663.71, 356.76, -11437.72, 4411.79, 8201.06, -25824.53, -36672.44, -53303.03, 0.00, 0.00, 0.00
225, 8663.36, 356.58, -11437.92, 4413.93, 8203.00, -25825.32, -36674.23, -53302.83, 0.00, 0.00, 0.00
226, 8664.83, 357.69, -11438.15, 4413.80, 8205.01, -25826.43, -36676.20, -53303.10, 0.02, -0.00, 0.97
227, 8666.06, 358.14, -11437.92, 4413.33, 8205.28, -25826.50, -36677.63, -53303.14, 0.00, 0.00, 0.00
234, 8668.83, 365.65, -11430.15, 4415.50, 8204.61, -25826.93, -36682.27, -53301.06, 0.00, 0.00, 0.00
229, 8666.11, 356.15, -11438.91, 4414.42, 8200.32, -25829.43, -36682.25, -53306.45, 0.00, 0.00, 0.00
230, 8666.06, 356.18, -11437.25, 4414.11, 8199.27, -25831.17, -36682.88, -53305.38, 0.00, 0.00, 0.00
231, 8664.77, 357.45, -11434.91, 4413.64, 8199.04, -25830.52, -36683.46, -53304.04, 0.00, 0.00, 0.00
251, 8673.77, 364.11, -11427.49, 4409.86, 8220.66, -25827.04, -36694.05, -53302.18, 0.00, 0.00, 0.00
235, 8669.10, 365.16, -11431.51, 4415.23, 8204.41, -25826.93, -36683.70, -53302.02, 0.00, 0.00, 0.00
236, 8668.43, 364.74, -11433.07, 4416.32, 8203.45, -25829.14, -36683.75, -53302.23, 0.02, -0.00, 0.96
249, 8670.73, 363.42, -11428.56, 4411.81, 8216.30, -25827.98, -36692.27, -53302.43, 0.00, 0.00, 0.00
255, 8670.71, 360.49, -11431.04, 4410.69, 8222.27, -25828.71, -36697.14, -53306.43, 0.00, 0.00, 0.00
246, 8665.93, 364.74, -11432.49, 4411.43, 8212.28, -25827.57, -36690.68, -53302.05, 0.00, 0.00, 0.00
244, 8668.52, 365.29, -11432.22, 4415.14, 8210.49, -25827.22, -36687.57, -53300.26, 0.00, 0.00, 0.00
247, 8667.27, 364.42, -11433.52, 4410.63, 8213.35, -25827.48, -36690.88, -53302.14, 0.02, -0.01, 0.97
252, 8674.44, 363.24, -11428.27, 4408.30, 8220.66, -25826.61, -36695.68, -53302.61, 0.00, 0.00, 0.00
253, 8671.16, 360.94, -11431.08, 4407.76, 8219.85, -25827.84, -36697.54, -53304.08, 0.00, 0.00, 0.00
0, 8672.61, 359.66, -11431.93, 4410.51, 8222.33, -25829.16, -36695.80, -53305.38, 0.00, 0.00, 0.00
6, 8672.28, 363.19, -11437.63, 4408.28, 8223.52, -25832.33, -36694.66, -53304.01, 0.00, 0.00, 0.00
9, 8677.37, 367.60, -11432.76, 4410.29, 8224.39, -25832.27, -36695.39, -53298.34, 0.00, 0.00, 0.00
3, 8676.08, 361.25, -11435.40, 4411.63, 8225.73, -25827.04, -36694.34, -53300.01, 0.00, 0.00, 0.00
4, 8675.38, 362.52, -11436.47, 4410.96, 8225.42, -25827.42, -36695.21, -53298.76, 0.00, 0.00, 0.00
15, 8675.96, 366.12, -11428.74, 4414.60, 8225.84, -25833.56, -36698.10, -53280.61, 0.00, 0.00, 0.00
10, 8678.31, 367.42, -11430.82, 4412.70, 8225.35, -25832.85, -36694.16, -53294.56, 0.00, 0.00, 0.00
11, 8678.00, 367.62, -11430.53, 4413.28, 8226.29, -25833.36, -36694.66, -53292.57, 0.03, -0.00, 0.96
22, 8676.34, 362.63, -11426.93, 4411.52, 8225.84, -25839.67, -36702.93, -53268.00, 0.00, 0.00, 0.00
16, 8676.46, 365.18, -11429.92, 4413.22, 8225.62, -25832.54, -36699.48, -53278.46, 0.00, 0.00, 0.00
33, 8679.58, 359.33, -11422.66, 4409.19, 8226.09, -25840.05, -36708.29, -53247.93, 0.00, 0.00, 0.00
25, 8676.01, 360.76, -11421.94, 4411.70, 8225.40, -25838.71, -36703.48, -53260.29, 0.00, 0.00, 0.00
23, 8674.44, 361.09, -11426.26, 4410.76, 8225.08, -25839.26, -36703.13, -53267.38, 0.00, 0.00, 0.00
31, 8675.09, 358.28, -11422.43, 4410.16, 8224.28, -25840.81, -36708.43, -53251.82, 0.02, -0.00, 0.97
27, 8671.09, 361.87, -11424.78, 4410.76, 8223.21, -25838.62, -36705.86, -53259.62, 0.00, 0.00, 0.00
28, 8672.37, 362.43, -11424.74, 4410.63, 8223.74, -25838.55, -36707.17, -53259.27, 0.00, 0.00, 0.00
36, 8675.78, 362.88, -11426.57, 4410.18, 8227.57, -25839.22, -36708.43, -53244.45, 0.00, 0.00, 0.00
34, 8680.55, 360.44, -11423.55, 4409.22, 8227.52, -25839.49, -36708.78, -53247.04, 0.00, 0.00, 0.00
37, 8674.13, 362.46, -11427.93, 4410.02, 8226.09, -25841.90, -36709.72, -53242.97, 0.00, 0.00, 0.00
108, 8661.55, 345.51, -11442.77, 4387.36, 8253.52, -25862.76, -36749.15, -53187.47, 0.00, 0.00, 0.00
109, 8660.23, 345.29, -11445.46, 4387.31, 8253.74, -25863.34, -36752.32, -53188.07, 0.00, 0.00, 0.00
110, 8661.39, 344.75, -11445.93, 4389.59, 8253.31, -25863.76, -36753.00, -53187.89, 0.00, 0.00, 0.00
111, 8663.36, 345.27, -11445.59, 4390.75, 8254.07, -25863.27, -36753.91, -53187.00, 0.00, 0.00, 0.00
112, 8663.80, 345.38, -11445.48, 4390.26, 8254.70, -25862.73, -36754.20, -53186.45, 0.03, -0.00, 0.97
113, 8663.85, 344.80, -11443.36, 4388.70, 8257.32, -25861.88, -36753.06, -53185.46, 0.00, 0.00, 0.00
114, 8664.56, 343.97, -11443.18, 4387.45, 8259.26, -25861.44, -36752.12, -53185.19, 0.00, 0.00, 0.00
115, 8664.70, 344.89, -11445.12, 4387.51, 8260.27, -25860.39, -36752.91, -53185.13, 0.00, 0.00, 0.00
116, 8662.58, 345.60, -11446.26, 4388.56, 8260.11, -25861.77, -36753.00, -53183.56, 0.00, 0.00, 0.00
117, 8659.96, 343.99, -11448.21, 4388.65, 8259.08, -25864.90, -36752.41, -53184.05, 0.00, 0.00, 0.00
118, 8659.54, 341.60, -11447.87, 4390.17, 8258.08, -25866.78, -36753.46, -53183.61, 0.00, 0.00, 0.00
119, 8660.85, 340.46, -11446.98, 4390.40, 8259.30, -25866.85, -36754.63, -53183.36, 0.00, 0.00, 0.00
120, 8661.81, 339.66, -11447.80, 4391.74, 8259.10, -25866.24, -36755.25, -53183.11, 0.00, 0.00, 0.00
121, 8662.98, 338.83, -11449.95, 4392.68, 8258.54, -25866.49, -36754.47, -53182.71, 0.00, 0.00, 0.00
122, 8662.26, 338.67, -11450.37, 4394.71, 8259.82, -25866.04, -36753.73, -53182.71, 0.03, -0.01, 0.97
123, 8661.03, 338.05, -11449.19, 4394.80, 8258.43, -25864.81, -36753.51, -53182.06, 0.00, 0.00, 0.00
124, 8661.39, 339.05, -11449.55, 4393.41, 8256.94, -25863.69, -36754.02, -53180.90, 0.00, 0.00, 0.00
125, 8661.12, 338.83, -11449.86, 4393.64, 8256.26, -25863.18, -36756.14, -53180.70, 0.00, 0.00, 0.00
126, 8661.19, 335.68, -11448.83, 4394.06, 8256.49, -25864.25, -36756.86, -53181.97, 0.00, 0.00, 0.00
127, 8660.52, 333.35, -11448.03, 4391.63, 8257.14, -25865.26, -36758.98, -53183.14, 0.00, 0.00, 0.00
128, 8662.28, 333.96, -11448.56, 4390.20, 8258.63, -25863.87, -36760.26, -53182.51, 0.00, 0.00, 0.00
129, 8664.36, 335.39, -11448.94, 4390.24, 8261.00, -25862.24, -36759.57, -53182.89, 0.00, 0.00, 0.00
130, 8663.65, 336.62, -11447.92, 4389.12, 8262.28, -25861.30, -36759.77, -53183.54, 0.00, 0.00, 0.00
131, 8663.36, 336.86, -11447.20, 4386.73, 8263.39, -25858.75, -36761.33, -53184.99, 0.00, 0.00, 0.00
132, 8663.69, 335.41, -11447.67, 4385.75, 8264.36, -25856.74, -36762.52, -53185.86, 0.02, -0.00, 0.97
133, 8662.37, 334.43, -11450.17, 4383.33, 8263.66, -25856.63, -36764.37, -53187.58, 0.00, 0.00, 0.00
134, 8662.53, 334.18, -11450.75, 4382.82, 8264.16, -25855.02, -36764.91, -53187.49, 0.00, 0.00, 0.00
135, 8661.79, 333.15, -11451.56, 4382.46, 8263.17, -25854.20, -36766.25, -53187.14, 0.00, 0.00, 0.00
136, 8662.66, 333.76, -11451.58, 4384.07, 8262.68, -25853.19, -36766.18, -53187.85, 0.00, 0.00, 0.00
137, 8664.56, 334.67, -11448.21, 4385.17, 8263.46, -25850.89, -36766.85, -53188.79, 0.00, 0.00, 0.00
138, 8666.04, 335.61, -11446.35, 4385.73, 8263.71, -25850.51, -36768.39, -53188.54, 0.00, 0.00, 0.00
139, 8665.46, 335.59, -11446.24, 4386.64, 8264.04, -25851.47, -36768.08, -53190.22, 0.00, 0.00, 0.00
140, 8663.94, 334.47, -11445.43, 4385.73, 8263.28, -25851.85, -36767.52, -53191.63, 0.00, 0.00, 0.00
141, 8662.40, 334.83, -11444.76, 4385.05, 8261.94, -25852.07, -36768.33, -53191.99, 0.00, 0.00, 0.00
142, 8661.14, 334.92, -11443.06, 4385.55, 8263.64, -25853.28, -36768.89, -53191.25, 0.02, -0.00, 0.97
160, 8661.14, 336.04, -11451.96, 4384.92, 8274.26, -25862.29, -36775.23, -53192.59, 0.00, 0.00, 0.00
158, 8655.87, 334.07, -11450.84, 4387.65, 8273.59, -25862.40, -36776.87, -53194.04, 0.00, 0.00, 0.00
145, 8664.50, 336.97, -11443.09, 4385.10, 8269.16, -25855.56, -36766.65, -53186.78, 0.00, 0.00, 0.00
156, 8657.68, 332.57, -11450.60, 4391.09, 8273.41, -25863.02, -36775.17, -53193.33, 0.00, 0.00, 0.00
147, 8665.73, 335.63, -11442.98, 4386.40, 8269.03, -25857.26, -36765.02, -53186.31, 0.00, 0.00, 0.00
163, 8662.35, 337.44, -11444.07, 4387.22, 8277.83, -25860.30, -36774.63, -53187.14, 0.03, -0.01, 0.97
154, 8657.23, 333.96, -11450.44, 4388.79, 8272.16, -25861.24, -36771.41, -53193.42, 0.00, 0.00, 0.00
150, 8657.48, 330.40, -11449.17, 4386.98, 8266.41, -25863.54, -36769.31, -53192.23, 0.00, 0.00, 0.00
151, 8656.25, 330.87, -11452.65, 4386.10, 8266.08, -25864.52, -36771.52, -53193.51, 0.00, 0.00, 0.00
171, 8666.84, 335.10, -11441.43, 4390.24, 8281.86, -25865.08, -36775.48, -53174.78, 0.00, 0.00, 0.00
161, 8661.14, 337.24, -11449.19, 4385.01, 8274.24, -25861.82, -36774.09, -53191.43, 0.00, 0.00, 0.00
169, 8668.30, 341.36, -11441.86, 4389.75, 8282.30, -25861.86, -36775.64, -53178.62, 0.00, 0.00, 0.00
165, 8660.36, 337.49, -11444.81, 4385.05, 8277.81, -25860.65, -36776.40, -53184.52, 0.00, 0.00, 0.00
166, 8659.74, 338.74, -11443.82, 4384.76, 8280.16, -25862.35, -36776.57, -53184.21, 0.00, 0.00, 0.00
167, 8660.81, 338.63, -11443.09, 4386.48, 8280.67, -25862.38, -36777.25, -53182.09, 0.00, 0.00, 0.00
172, 8666.02, 334.54, -11441.99, 4389.46, 8281.72, -25866.73, -36775.41, -53171.87, 0.00, 0.00, 0.00
173, 8665.12, 334.54, -11444.79, 4386.82, 8280.83, -25869.48, -36776.73, -53172.32, 0.02, -0.01, 0.97
174, 8666.02, 336.06, -11444.12, 4385.17, 8281.08, -25869.73, -36777.92, -53171.49, 0.00, 0.00, 0.00
175, 8666.15, 338.03, -11443.44, 4385.21, 8281.12, -25871.34, -36777.98, -53170.02, 0.00, 0.00, 0.00
176, 8666.87, 338.61, -11442.39, 4386.15, 8283.13, -25871.14, -36776.04, -53168.41, 0.00, 0.00, 0.00
177, 8668.41, 338.76, -11439.56, 4387.56, 8286.08, -25869.26, -36773.20, -53165.77, 0.00, 0.00, 0.00
178, 8668.45, 339.43, -11439.94, 4386.95, 8288.41, -25867.96, -36770.83, -53165.16, 0.00, 0.00, 0.00
179, 8668.01, 339.88, -11440.90, 4387.60, 8290.02, -25866.87, -36769.13, -53164.65, 0.00, 0.00, 0.00
180, 8668.07, 339.99, -11441.95, 4386.71, 8291.69, -25867.72, -36770.03, -53166.62, 0.00, 0.00, 0.00
181, 8668.07, 340.57, -11442.91, 4385.84, 8291.78, -25870.02, -36771.59, -53167.15, 0.00, 0.00, 0.00
182, 8669.24, 341.18, -11440.90, 4387.45, 8292.72, -25869.37, -36770.50, -53167.82, 0.00, 0.00, 0.00
183, 8668.86, 341.85, -11439.80, 4388.45, 8293.35, -25868.59, -36769.67, -53169.61, 0.02, -0.00, 0.97
184, 8668.83, 341.62, -11439.47, 4389.86, 8293.66, -25869.28, -36769.78, -53167.85, 0.00, 0.00, 0.00
185, 8669.44, 342.29, -11439.87, 4390.98, 8295.42, -25868.50, -36769.13, -53165.61, 0.00, 0.00, 0.00
186, 8670.13, 342.63, -11439.35, 4391.89, 8296.05, -25866.96, -36767.37, -53164.45, 0.00, 0.00, 0.00
187, 8670.82, 342.27, -11438.39, 4389.50, 8295.25, -25867.72, -36767.84, -53164.23, 0.00, 0.00, 0.00
193, 8668.05, 340.28, -11441.50, 4393.62, 8294.33, -25865.19, -36771.21, -53155.22, 0.02, -0.01, 0.98
189, 8668.18, 339.21, -11442.80, 4388.41, 8294.84, -25866.98, -36770.56, -53162.06, 0.00, 0.00, 0.00
190, 8666.02, 338.47, -11443.69, 4389.55, 8294.64, -25866.44, -36771.41, -53159.53, 0.00, 0.00, 0.00
191, 8664.00, 338.54, -11442.93, 4390.75, 8294.64, -25866.49, -36771.19, -53159.02, 0.00, 0.00, 0.00
194, 8666.35, 339.55, -11441.46, 4393.66, 8295.09, -25866.94, -36770.50, -53153.54, 0.00, 0.00, 0.00
195, 8667.89, 338.45, -11442.44, 4392.41, 8295.47, -25868.81, -36770.27, -53153.81, 0.00, 0.00, 0.00
196, 8667.40, 337.98, -11444.74, 4391.83, 8296.16, -25868.14, -36770.65, -53154.70, 0.00, 0.00, 0.00
197, 8665.86, 338.90, -11448.38, 4390.17, 8296.65, -25869.28, -36772.35, -53155.29, 0.00, 0.00, 0.00
198, 8665.75, 338.92, -11448.25, 4389.64, 8296.48, -25870.40, -36773.56, -53154.79, 0.00, 0.00, 0.00
199, 8665.46, 340.66, -11447.16, 4390.35, 8296.03, -25871.00, -36773.94, -53154.84, 0.00, 0.00, 0.00
200, 8666.31, 340.91, -11446.08, 4391.76, 8295.40, -25871.05, -36773.40, -53154.39, 0.00, 0.00, 0.00
201, 8669.24, 341.85, -11442.75, 4393.53, 8296.77, -25870.06, -36773.22, -53154.01, 0.00, 0.00, 0.00
202, 8669.75, 342.67, -11442.53, 4392.41, 8296.59, -25869.93, -36775.30, -53155.62, 0.00, 0.00, 0.00
203, 8670.60, 343.50, -11444.79, 4389.46, 8296.65, -25868.79, -36778.03, -53155.35, 0.02, -0.00, 0.98
204, 8670.55, 344.31, -11444.92, 4387.25, 8296.39, -25869.95, -36779.04, -53155.84, 0.00, 0.00, 0.00
205, 8668.25, 345.02, -11444.03, 4387.00, 8295.96, -25869.60, -36777.74, -53156.67, 0.00, 0.00, 0.00
206, 8667.63, 342.79, -11444.00, 4387.07, 8295.65, -25866.71, -36776.42, -53157.50, 0.00, 0.00, 0.00
207, 8667.04, 342.61, -11444.63, 4387.40, 8296.41, -25866.20, -36777.31, -53155.66, 0.00, 0.00, 0.00
208, 8666.49, 343.03, -11444.18, 4388.85, 8297.97, -25865.19, -36777.76, -53152.25, 0.00, 0.00, 0.00
209, 8668.70, 341.94, -11443.15, 4389.61, 8299.52, -25863.29, -36776.55, -53148.96, 0.00, 0.00, 0.00
210, 8669.77, 342.34, -11444.16, 4388.79, 8299.09, -25862.64, -36776.71, -53147.80, 0.00, 0.00, 0.00
237, 8663.36, 340.82, -11468.32, 4384.54, 8313.35, -25856.88, -36791.66, -53182.66, 0.00, 0.00, 0.00
212, 8669.57, 344.08, -11447.60, 4386.04, 8299.65, -25862.73, -36781.11, -53147.95, 0.00, 0.00, 0.00
235, 8667.18, 339.61, -11461.97, 4383.47, 8314.69, -25857.23, -36789.34, -53181.68, 0.00, 0.00, 0.00
214, 8667.51, 346.32, -11451.45, 4381.55, 8302.31, -25866.27, -36786.03, -53152.89, 0.00, 0.00, 0.00
215, 8666.51, 346.38, -11451.60, 4382.31, 8303.63, -25866.78, -36786.34, -53154.01, 0.00, 0.00, 0.00
216, 8665.84, 347.30, -11452.27, 4381.46, 8303.40, -25867.14, -36786.81, -53155.11, 0.00, 0.00, 0.00
233, 8663.76, 339.46, -11458.06, 4380.74, 8311.88, -25856.74, -36789.38, -53178.11, 0.02, -0.01, 0.97
225, 8664.25, 342.21, -11452.79, 4386.78, 8312.39, -25858.26, -36788.78, -53162.04, 0.00, 0.00, 0.00
231, 8660.76, 339.03, -11459.16, 4382.69, 8309.77, -25858.26, -36790.59, -53175.60, 0.00, 0.00, 0.00
221, 8665.01, 343.95, -11452.72, 4385.03, 8309.57, -25864.12, -36788.87, -53159.67, 0.00, 0.00, 0.00
222, 8665.57, 344.19, -11453.70, 4384.16, 8310.29, -25863.92, -36789.27, -53159.18, 0.00, 0.00, 0.00
247, 8663.74, 334.54, -11468.66, 4390.42, 8326.11, -25857.12, -36794.10, -53175.94, 0.00, 0.00, 0.00
226, 8665.01, 342.41, -11451.49, 4387.27, 8311.38, -25857.37, -36788.22, -53162.73, 0.00, 0.00, 0.00
227, 8664.65, 342.52, -11452.07, 4388.00, 8311.54, -25856.10, -36787.30, -53165.50, 0.00, 0.00, 0.00
241, 8666.73, 341.45, -11465.13, 4389.28, 8315.54, -25854.08, -36790.86, -53179.25, 0.00, 0.00, 0.00
245, 8665.12, 335.19, -11468.59, 4388.88, 8321.69, -25857.37, -36795.60, -53179.83, 0.00, 0.00, 0.00
242, 8667.54, 341.13, -11465.15, 4388.88, 8316.99, -25855.42, -36791.89, -53180.36, 0.00, 0.00, 0.00
243, 8668.70, 338.38, -11466.53, 4388.34, 8318.45, -25855.67, -36794.01, -53182.60, 0.00, 0.00, 0.00
248, 8663.38, 334.23, -11469.48, 4390.24, 8326.78, -25857.32, -36794.08, -53177.41, 0.00, 0.00, 0.00
249, 8665.06, 336.01, -11467.25, 4390.31, 8328.24, -25855.76, -36793.45, -53176.52, 0.00, 0.00, 0.00
250, 8667.87, 339.10, -11466.58, 4391.02, 8328.30, -25854.89, -36793.56, -53177.32, 0.00, 0.00, 0.00
251, 8669.68, 339.12, -11467.12, 4391.02, 8328.77, -25856.32, -36795.02, -53178.35, 0.00, 0.00, 0.00
29, 8664.45, 338.76, -11459.67, 4392.65, 8350.86, -25859.16, -36801.83, -53184.45, 0.00, 0.00, 0.00
253, 8664.05, 336.08, -11470.51, 4387.63, 8327.90, -25860.10, -36798.82, -53181.70, 0.00, 0.00, 0.00
254, 8663.00, 335.12, -11470.78, 4387.71, 8328.15, -25859.27, -36797.99, -53181.53, 0.02, 0.00, 0.96
255, 8663.36, 334.81, -11469.66, 4388.54, 8329.38, -25858.44, -36797.81, -53180.57, 0.00, 0.00, 0.00
27, 8662.37, 336.93, -11457.10, 4394.17, 8349.25, -25861.06, -36802.53, -53184.84, 0.00, 0.00, 0.00
1, 8665.46, 336.06, -11469.33, 4387.45, 8331.48, -25856.03, -36796.20, -53179.40, 0.00, 0.00, 0.00
25, 8667.36, 341.42, -11458.29, 4393.70, 8349.58, -25862.67, -36804.43, -53185.21, 0.00, 0.00, 0.00
3, 8665.55, 335.48, -11466.98, 4390.80, 8334.81, -25857.75, -36797.70, -53180.90, 0.00, 0.00, 0.00
4, 8664.30, 335.28, -11467.45, 4394.11, 8336.80, -25858.08, -36798.66, -53180.14, 0.00, 0.00, 0.00
23, 8665.84, 340.95, -11459.76, 4393.21, 8346.16, -25863.18, -36807.22, -53186.45, 0.00, 0.00, 0.00
21, 8665.68, 336.51, -11461.28, 4392.18, 8345.90, -25863.83, -36805.72, -53182.38, 0.00, 0.00, 0.00
11, 8669.86, 341.83, -11468.28, 4391.40, 8342.90, -25860.72, -36803.53, -53177.64, 0.00, 0.00, 0.00
19, 8668.50, 336.37, -11461.84, 4389.77, 8349.47, -25862.02, -36802.64, -53175.80, 0.00, 0.00, 0.00
17, 8667.31, 336.30, -11464.30, 4391.63, 8345.87, -25861.77, -36801.63, -53176.50, 0.00, 0.00, 0.00
39, 8665.97, 337.15, -11463.11, 4393.84, 8364.04, -25860.43, -36801.88, -53176.63, 0.00, 0.00, 0.00
15, 8666.80, 336.57, -11467.74, 4389.23, 8344.24, -25861.01, -36799.06, -53178.42, 0.00, 0.00, 0.00
37, 8667.18, 336.15, -11462.89, 4394.87, 8361.36, -25860.36, -36800.52, -53178.20, 0.00, 0.00, 0.00
42, 8671.78, 337.89, -11455.25, 4397.01, 8368.45, -25856.10, -36801.03, -53175.22, 0.00, 0.00, 0.00
32, 8669.82, 340.39, -11459.98, 4393.48, 8353.38, -25859.54, -36803.84, -53183.96, 0.00, 0.00, 0.00
33, 8670.13, 341.85, -11458.73, 4395.20, 8356.40, -25858.60, -36802.48, -53181.73, 0.00, 0.00, 0.00
87, 8679.05, 340.64, -11457.62, 4390.98, 8401.53, -25840.13, -36813.84, -53140.82, 0.00, 0.00, 0.00
43, 8671.05, 337.13, -11455.67, 4395.54, 8368.60, -25855.33, -36801.48, -53175.34, 0.00, 0.00, 0.00
44, 8671.94, 335.52, -11455.27, 4395.20, 8368.36, -25854.71, -36801.97, -53176.50, 0.00, 0.00, 0.00
85, 8677.01, 342.12, -11458.26, 4391.29, 8402.27, -25839.64, -36815.13, -53141.81, 0.00, 0.00, 0.00
46, 8671.20, 334.11, -11458.89, 4394.42, 8367.51, -25855.09, -36806.21, -53179.49, 0.00, 0.00, 0.00
83, 8679.38, 345.49, -11451.85, 4396.03, 8403.23, -25839.40, -36811.73, -53143.15, 0.00, 0.00, 0.00
52, 8673.24, 340.57, -11451.51, 4391.63, 8369.45, -25854.20, -36806.86, -53174.78, 0.00, 0.00, 0.00
49, 8673.21, 338.00, -11452.74, 4394.42, 8368.67, -25852.92, -36807.53, -53176.30, 0.00, 0.00, 0.00
81, 8676.90, 344.40, -11455.47, 4395.36, 8399.96, -25840.49, -36811.55, -53148.00, 0.00, 0.00, 0.00
57, 8672.88, 338.14, -11453.46, 4394.02, 8376.05, -25852.85, -36805.03, -53164.32, 0.00, 0.00, 0.00
58, 8674.82, 339.25, -11454.84, 4394.22, 8376.96, -25851.91, -36806.10, -53163.18, 0.02, 0.00, 0.97
59, 8676.41, 339.66, -11455.85, 4395.43, 8378.13, -25851.02, -36805.63, -53163.55, 0.00, 0.00, 0.00
79, 8675.78, 342.99, -11458.62, 4395.07, 8398.62, -25843.55, -36812.23, -53152.67, 0.02, -0.00, 0.97
77, 8676.25, 340.37, -11458.00, 4395.87, 8395.14, -25845.23, -36812.63, -53154.93, 0.00, 0.00, 0.00
66, 8678.65, 343.19, -11457.73, 4390.13, 8387.51, -25845.03, -36803.89, -53163.93, 0.00, 0.00, 0.00
105, 8679.25, 346.65, -11444.99, 4398.09, 8404.14, -25837.99, -36817.03, -53137.88, 0.00, 0.00, 0.00
67, 8679.70, 343.57, -11457.55, 4390.58, 8389.59, -25844.61, -36804.96, -53164.05, 0.00, 0.00, 0.00
75, 8681.10, 339.25, -11457.88, 4398.31, 8396.19, -25842.04, -36809.59, -53154.41, 0.00, 0.00, 0.00
103, 8677.77, 343.59, -11443.87, 4399.92, 8403.32, -25838.93, -36818.30, -53137.40, 0.00, 0.00, 0.00
101, 8676.34, 344.46, -11441.88, 4399.47, 8401.98, -25839.06, -36816.92, -53137.05, 0.00, 0.00, 0.00
71, 8679.88, 340.80, -11460.68, 4389.79, 8391.87, -25845.77, -36809.45, -53166.35, 0.00, 0.00, 0.00
88, 8678.87, 341.40, -11455.80, 4393.86, 8400.81, -25839.42, -36813.63, -53140.49, 0.00, 0.00, 0.00
89, 8677.75, 342.12, -11453.32, 4396.99, 8401.15, -25838.06, -36812.27, -53140.02, 0.02, -0.00, 0.97
99, 8676.25, 346.01, -11443.96, 4399.63, 8403.05, -25836.87, -36815.58, -53135.77, 0.02, -0.00, 0.97
91, 8674.09, 343.46, -11450.60, 4396.39, 8401.86, -25837.81, -36811.40, -53138.97, 0.00, 0.00, 0.00
97, 8677.19, 341.24, -11444.18, 4397.46, 8403.18, -25835.62, -36813.55, -53135.23, 0.00, 0.00, 0.00
93, 8672.52, 340.37, -11448.90, 4398.17, 8401.64, -25838.77, -36811.33, -53136.00, 0.00, 0.00, 0.00
94, 8672.43, 341.18, -11449.32, 4399.02, 8401.22, -25837.72, -36812.23, -53134.59, 0.00, 0.00, 0.00
109, 8676.37, 348.82, -11446.82, 4398.29, 8408.73, -25835.69, -36819.67, -53140.73, 0.03, -0.00, 0.97
106, 8677.93, 346.25, -11445.10, 4397.88, 8405.10, -25837.65, -36818.15, -53138.39, 0.00, 0.00, 0.00
107, 8677.66, 346.81, -11445.75, 4398.40, 8407.12, -25836.29, -36819.16, -53137.74, 0.00, 0.00, 0.00
110, 8678.02, 347.93, -11446.26, 4400.07, 8408.66, -25836.56, -36819.74, -53140.98, 0.00, 0.00, 0.00
116, 8684.75, 342.81, -11449.26, 4396.43, 8410.33, -25836.89, -36822.46, -53130.72, 0.00, 0.00, 0.00
112, 8681.39, 344.62, -11447.33, 4398.85, 8408.12, -25836.69, -36821.64, -53138.99, 0.00, 0.00, 0.00
113, 8683.34, 343.77, -11446.78, 4399.38, 8409.58, -25834.55, -36819.96, -53135.70, 0.00, 0.00, 0.00
149, 8684.30, 339.25, -11458.82, 4391.80, 8415.39, -25825.07, -36821.84, -53126.47, 0.02, 0.00, 0.97
162, 8686.51, 346.43, -11456.92, 4379.18, 8414.63, -25832.11, -36819.60, -53108.21, 0.00, 0.00, 0.00
147, 8684.75, 338.43, -11457.33, 4392.59, 8415.45, -25823.69, -36821.32, -53122.70, 0.00, 0.00, 0.00
160, 8686.47, 341.56, -11460.05, 4378.91, 8412.66, -25831.64, -36820.65, -53114.16, 0.00, 0.00, 0.00
120, 8682.38, 342.03, -11455.09, 4393.41, 8408.32, -25837.32, -36825.48, -53133.58, 0.00, 0.00, 0.00
158, 8684.57, 341.69, -11458.53, 4380.16, 8412.57, -25830.35, -36822.73, -53119.01, 0.00, 0.00, 0.00
122, 8680.97, 342.65, -11455.16, 4392.88, 8409.51, -25834.91, -36826.60, -53131.37, 0.00, 0.00, 0.00
156, 8686.98, 343.28, -11454.64, 4384.25, 8415.39, -25825.14, -36819.80, -53117.78, 0.00, 0.00, 0.00
136, 8683.52, 340.31, -11457.15, 4393.48, 8413.46, -25832.83, -36825.37, -53132.15, 0.00, 0.00, 0.00
141, 8685.44, 337.69, -11457.84, 4388.43, 8416.24, -25830.17, -36822.82, -53130.72, 0.00, 0.00, 0.00
128, 8678.62, 347.41, -11452.43, 4395.36, 8409.08, -25831.73, -36820.90, -53133.94, 0.00, 0.00, 0.00
154, 8687.88, 342.38, -11454.24, 4386.37, 8415.86, -25825.45, -36819.42, -53120.91, 0.00, 0.00, 0.00
139, 8686.85, 337.58, -11455.54, 4392.48, 8417.31, -25828.13, -36820.30, -53129.09, 0.02, -0.00, 0.97
131, 8683.12, 346.74, -11450.71, 4393.88, 8410.65, -25834.06, -36821.86, -53132.69, 0.00, 0.00, 0.00
152, 8683.41, 338.92, -11457.06, 4387.74, 8412.77, -25825.79, -36822.00, -53124.35, 0.00, 0.00, 0.00
137, 8685.64, 339.50, -11456.81, 4392.86, 8415.12, -25830.61, -36823.43, -53131.59, 0.00, 0.00, 0.00
167, 8680.25, 345.25, -11460.05, 4379.78, 8416.39, -25834.53, -36823.22, -53107.96, 0.00, 0.00, 0.00
163, 8687.18, 347.75, -11456.54, 4379.80, 8414.78, -25832.29, -36821.08, -53106.04, 0.00, 0.00, 0.00
164, 8685.51, 348.20, -11457.41, 4378.80, 8416.19, -25832.22, -36821.75, -53105.53, 0.00, 0.00, 0.00
165, 8683.27, 345.78, -11459.54, 4379.51, 8413.49, -25834.28, -36822.66, -53108.01, 0.00, 0.00, 0.00
168, 8679.38, 342.97, -11459.31, 4379.78, 8418.58, -25834.95, -36823.96, -53106.49, 0.00, 0.00, 0.00
169, 8680.61, 343.03, -11456.63, 4380.90, 8420.39, -25833.68, -36823.69, -53104.90, 0.00, 0.00, 0.00
170, 8683.27, 342.07, -11456.61, 4379.56, 8422.00, -25833.90, -36824.63, -53103.65, 0.02, -0.00, 0.97
171, 8683.43, 340.28, -11457.62, 4377.79, 8423.88, -25835.06, -36824.81, -53103.61, 0.00, 0.00, 0.00
172, 8682.04, 340.42, -11459.76, 4377.46, 8422.81, -25838.50, -36825.75, -53104.93, 0.00, 0.00, 0.00
173, 8678.29, 341.00, -11461.44, 4376.43, 8421.78, -25842.01, -36828.97, -53103.59, 0.00, 0.00, 0.00
180, 8680.25, 338.54, -11456.52, 4375.78, 8428.80, -25841.12, -36827.31, -53096.37, 0.02, -0.01, 0.97
175, 8676.77, 339.48, -11461.93, 4374.71, 8423.95, -25842.77, -36828.21, -53098.82, 0.00, 0.00, 0.00
176, 8677.75, 339.25, -11462.35, 4374.33, 8423.88, -25843.40, -36827.09, -53097.17, 0.00, 0.00, 0.00
177, 8678.33, 340.31, -11459.54, 4375.04, 8424.39, -25843.44, -36827.09, -53096.57, 0.00, 0.00, 0.00
178, 8677.53, 341.76, -11457.30, 4374.46, 8425.07, -25843.09, -36827.65, -53097.06, 0.00, 0.00, 0.00
181, 8679.20, 337.31, -11457.71, 4375.67, 8428.46, -25842.88, -36829.15, -53094.24, 0.00, 0.00, 0.00
182, 8678.27, 335.30, -11459.00, 4373.97, 8429.83, -25844.76, -36828.75, -53090.67, 0.00, 0.00, 0.00
192, 8682.85, 337.71, -11455.07, 4376.99, 8441.00, -25843.60, -36828.68, -53070.77, 0.00, 0.00, 0.00
195, 8682.71, 337.91, -11454.17, 4376.34, 8444.11, -25842.77, -36832.28, -53066.59, 0.00, 0.00, 0.00
198, 8680.70, 336.33, -11456.27, 4378.95, 8439.59, -25843.15, -36835.70, -53061.27, 0.00, 0.00, 0.00
186, 8684.75, 339.61, -11457.21, 4375.53, 8435.01, -25842.86, -36830.33, -53077.25, 0.00, 0.00, 0.00
190, 8683.67, 336.75, -11453.79, 4379.18, 8438.03, -25845.63, -36827.27, -53072.54, 0.02, -0.01, 0.96
188, 8685.11, 336.59, -11454.44, 4376.87, 8438.66, -25844.03, -36828.79, -53073.61, 0.00, 0.00, 0.00
193, 8682.07, 338.38, -11454.98, 4376.16, 8443.73, -25842.55, -36830.06, -53069.68, 0.00, 0.00, 0.00
196, 8684.17, 338.16, -11453.99, 4377.28, 8444.13, -25843.24, -36833.48, -53066.06, 0.00, 0.00, 0.00
201, 8684.70, 337.89, -11456.14, 4379.04, 8441.65, -25839.51, -36834.78, -53053.00, 0.00, 0.00, 0.00
202, 8684.39, 339.12, -11457.26, 4378.71, 8440.13, -25839.06, -36835.88, -53053.34, 0.00, 0.00, 0.00
203, 8684.95, 341.02, -11458.15, 4378.62, 8439.79, -25839.35, -36836.41, -53053.09, 0.00, 0.00, 0.00
204, 8685.31, 341.62, -11458.38, 4379.96, 8441.23, -25841.43, -36834.98, -53053.61, 0.00, 0.00, 0.00
215, 8688.61, 340.04, -11457.55, 4377.99, 8444.06, -25853.57, -36834.33, -53053.76, 0.00, 0.00, 0.00
206, 8683.67, 340.06, -11458.08, 4379.04, 8442.10, -25845.54, -36833.89, -53053.07, 0.00, 0.00, 0.00
219, 8689.98, 341.60, -11456.77, 4377.28, 8448.71, -25850.80, -36832.63, -53045.70, 0.00, 0.00, 0.00
213, 8685.96, 341.85, -11454.75, 4376.23, 8444.33, -25850.98, -36835.76, -53053.90, 0.00, 0.00, 0.00
209, 8684.88, 342.43, -11456.54, 4379.18, 8443.19, -25846.66, -36833.19, -53050.54, 0.00, 0.00, 0.00
210, 8685.28, 341.96, -11456.48, 4379.20, 8444.78, -25846.84, -36833.57, -53050.88, 0.03, -0.00, 0.97
211, 8686.33, 343.19, -11455.76, 4378.77, 8445.03, -25849.43, -36834.60, -53052.60, 0.00, 0.00, 0.00
216, 8688.15, 340.91, -11458.89, 4377.77, 8444.24, -25854.98, -36833.66, -53052.45, 0.00, 0.00, 0.00
238, 8683.72, 341.62, -11462.00, 4379.29, 8453.27, -25855.25, -36841.13, -53032.11, 0.00, 0.00, 0.00
220, 8688.66, 342.23, -11457.77, 4378.51, 8448.98, -25850.51, -36834.24, -53044.78, 0.03, -0.01, 0.97
236, 8686.58, 340.86, -11461.95, 4381.84, 8451.24, -25854.15, -36839.79, -53034.30, 0.00, 0.00, 0.00
222, 8689.35, 341.98, -11460.90, 4376.87, 8446.46, -25853.01, -36840.01, -53044.87, 0.00, 0.00, 0.00
227, 8686.63, 345.87, -11458.29, 4378.73, 8446.97, -25855.63, -36841.24, -53040.40, 0.00, 0.00, 0.00
234, 8684.84, 343.79, -11458.82, 4382.15, 8449.09, -25852.18, -36840.25, -53035.48, 0.00, 0.00, 0.00
232, 8682.94, 343.68, -11460.70, 4382.35, 8445.81, -25852.29, -36839.18, -53038.39, 0.00, 0.00, 0.00
228, 8686.00, 347.66, -11457.53, 4378.53, 8446.39, -25853.95, -36840.75, -53040.93, 0.00, 0.00, 0.00
241, 8684.30, 345.33, -11462.11, 4378.01, 8454.75, -25853.19, -36841.02, -53035.37, 0.00, 0.00, 0.00
230, 8681.26, 345.04, -11459.02, 4380.79, 8445.11, -25854.02, -36838.94, -53038.61, 0.03, 0.00, 0.97
239, 8682.47, 341.40, -11463.36, 4377.68, 8454.61, -25855.27, -36841.20, -53033.47, 0.00, 0.00, 0.00
242, 8683.38, 346.41, -11463.18, 4376.49, 8455.53, -25852.94, -36841.35, -53038.14, 0.00, 0.00, 0.00
0, 8684.41, 334.96, -11466.91, 4378.35, 8459.55, -25850.22, -36843.03, -53073.52, 0.00, 0.00, 0.00
254, 8683.52, 335.63, -11468.81, 4375.26, 8461.81, -25850.71, -36844.75, -53074.15, 0.00, 0.00, 0.00
248, 8682.16, 343.68, -11468.12, 4368.51, 8457.77, -25854.35, -36844.55, -53055.75, 0.00, 0.00, 0.00
246, 8683.23, 345.27, -11468.25, 4370.75, 8457.09, -25855.25, -36845.57, -53047.86, 0.00, 0.00, 0.00
252, 8684.14, 339.70, -11468.72, 4375.49, 8461.88, -25849.57, -36842.45, -53069.50, 0.00, 0.00, 0.00
250, 8684.01, 341.13, -11466.87, 4370.77, 8459.58, -25851.60, -36843.03, -53062.95, 0.00, 0.00, 0.00
1, 8685.98, 336.04, -11463.25, 4378.68, 8461.88, -25848.65, -36841.35, -53072.34, 0.00, 0.00, 0.00
2, 8685.78, 335.68, -11462.51, 4378.51, 8463.33, -25848.61, -36840.57, -53071.60, 0.00, 0.00, 0.00
7, 8686.74, 338.05, -11462.67, 4381.79, 8462.59, -25853.70, -36841.57, -53072.92, 0.00, 0.00, 0.00
4, 8686.31, 337.11, -11462.96, 4380.85, 8462.84, -25849.26, -36840.46, -53071.51, 0.00, 0.00, 0.00
19, 8690.65, 347.66, -11464.23, 4376.67, 8473.10, -25846.69, -36848.23, -53062.64, 0.00, 0.00, 0.00
8, 8686.60, 340.13, -11464.01, 4381.46, 8463.02, -25852.72, -36840.64, -53072.50, 0.00, 0.00, 0.00
28, 8689.75, 346.85, -11462.29, 4379.47, 8473.23, -25847.89, -36846.38, -53058.17, 0.00, 0.00, 0.00
17, 8688.10, 344.53, -11466.47, 4376.25, 8468.61, -25850.57, -36846.67, -53065.25, 0.00, 0.00, 0.00
11, 8688.77, 343.08, -11462.96, 4377.95, 8461.70, -25850.06, -36840.34, -53070.80, 0.00, 0.00, 0.00
12, 8689.06, 342.12, -11463.67, 4375.76, 8461.21, -25850.13, -36842.13, -53069.68, 0.00, 0.00, 0.00
26, 8690.67, 347.55, -11458.26, 4378.06, 8471.33, -25847.85, -36846.43, -53058.55, 0.00, 0.00, 0.00
20, 8690.80, 348.11, -11461.93, 4376.38, 8472.81, -25847.85, -36846.89, -53062.55, 0.00, 0.00, 0.00
59, 8690.47, 342.36, -11454.98, 4376.05, 8490.73, -25847.15, -36847.41, -53036.31, 0.00, 0.00, 0.00
57, 8686.98, 338.87, -11455.25, 4375.44, 8488.66, -25847.27, -36847.72, -53033.63, 0.00, 0.00, 0.00
29, 8688.23, 345.13, -11465.39, 4380.67, 8472.79, -25849.50, -36847.43, -53058.17, 0.00, 0.00, 0.00
30, 8689.08, 343.97, -11467.72, 4381.23, 8473.23, -25849.66, -36847.88, -53057.77, 0.00, 0.00, 0.00
31, 8689.87, 341.67, -11472.08, 4378.44, 8472.21, -25849.26, -36850.00, -53058.34, 0.00, 0.00, 0.00
42, 8692.44, 348.80, -11462.26, 4380.67, 8484.23, -25849.19, -36840.57, -53047.28, 0.00, 0.00, 0.00
55, 8687.83, 340.01, -11459.34, 4375.51, 8486.04, -25851.94, -36850.83, -53037.20, 0.02, -0.00, 0.96
34, 8693.89, 346.36, -11471.18, 4378.17, 8478.64, -25844.96, -36849.64, -53052.20, 0.00, 0.00, 0.00
53, 8688.23, 342.59, -11458.67, 4377.39, 8487.49, -25852.90, -36850.63, -53041.00, 0.00, 0.00, 0.00
97, 8698.67, 356.47, -11442.95, 4385.88, 8512.53, -25851.02, -36844.32, -53061.12, 0.00, 0.00, 0.00
98, 8697.33, 355.86, -11443.82, 4385.73, 8513.76, -25851.96, -36845.91, -53059.89, 0.00, 0.00, 0.00
99, 8696.24, 354.21, -11444.23, 4386.69, 8514.79, -25851.85, -36846.25, -53058.73, 0.00, 0.00, 0.00
100, 8697.62, 355.30, -11444.54, 4389.35, 8515.41, -25851.71, -36846.54, -53057.09, 0.00, 0.00, 0.00
101, 8696.79, 355.24, -11446.86, 4391.09, 8513.18, -25853.17, -36848.66, -53055.69, 0.00, 0.00, 0.00
102, 8696.30, 353.07, -11447.45, 4392.03, 8512.62, -25855.49, -36848.88, -53054.61, 0.00, 0.00, 0.00
103, 8697.82, 351.84, -11448.27, 4391.72, 8515.03, -25855.04, -36850.56, -53056.36, 0.00, 0.00, 0.00
104, 8698.81, 349.07, -11448.18, 4390.73, 8515.52, -25853.97, -36851.05, -53057.59, 0.00, 0.00, 0.00
105, 8699.21, 345.92, -11446.66, 4390.24, 8516.26, -25853.26, -36849.38, -53054.75, 0.00, 0.00, 0.00
106, 8697.94, 345.18, -11446.64, 4389.28, 8516.75, -25852.34, -36848.75, -53053.68, 0.03, -0.01, 0.97
107, 8696.42, 344.82, -11448.59, 4386.71, 8516.55, -25852.61, -36848.50, -53053.56, 0.00, 0.00, 0.00
108, 8696.64, 346.41, -11449.81, 4386.66, 8515.46, -25851.54, -36848.46, -53053.61, 0.00, 0.00, 0.00
109, 8694.96, 347.01, -11451.89, 4387.36, 8513.47, -25851.65, -36851.86, -53055.39, 0.00, 0.00, 0.00
110, 8696.84, 348.58, -11451.94, 4388.38, 8513.22, -25852.70, -36853.98, -53056.40, 0.00, 0.00, 0.00
111, 8699.97, 348.66, -11451.56, 4389.97, 8514.99, -25852.54, -36854.76, -53057.05, 0.00, 0.00, 0.00
112, 8702.27, 347.48, -11450.93, 4391.29, 8515.21, -25851.20, -36855.16, -53056.36, 0.00, 0.00, 0.00
113, 8704.33, 346.76, -11450.06, 4391.18, 8516.82, -25849.46, -36853.73, -53054.68, 0.00, 0.00, 0.00
114, 8706.07, 348.53, -11449.68, 4390.87, 8518.56, -25850.44, -36852.73, -53054.19, 0.00, 0.00, 0.00
115, 8708.57, 352.58, -11450.46, 4390.24, 8518.05, -25852.12, -36852.91, -53052.89, 0.00, 0.00, 0.00
116, 8707.10, 352.24, -11450.93, 4389.41, 8515.97, -25852.32, -36852.01, -53052.00, 0.03, -0.01, 0.97
117, 8703.95, 350.10, -11451.80, 4390.53, 8514.20, -25853.84, -36850.92, -53052.27, 0.00, 0.00, 0.00
118, 8703.75, 350.63, -11450.51, 4390.66, 8515.41, -25855.65, -36848.21, -53050.03, 0.00, 0.00, 0.00
119, 8701.91, 349.04, -11451.00, 4389.23, 8516.71, -25855.76, -36848.48, -53049.07, 0.00, 0.00, 0.00
120, 8702.61, 348.33, -11453.53, 4387.27, 8515.21, -25855.31, -36849.55, -53049.20, 0.00, 0.00, 0.00
121, 8705.83, 347.95, -11453.50, 4385.01, 8514.41, -25855.51, -36848.35, -53049.27, 0.00, 0.00, 0.00
122, 8707.52, 347.70, -11451.63, 4386.04, 8516.01, -25855.47, -36848.05, -53048.82, 0.00, 0.00, 0.00
123, 8705.92, 346.63, -11450.58, 4386.75, 8518.16, -25856.99, -36848.91, -53046.63, 0.00, 0.00, 0.00
124, 8703.03, 345.56, -11450.15, 4387.49, 8518.43, -25858.64, -36849.98, -53045.45, 0.00, 0.00, 0.00
133, 8700.84, 346.43, -11450.69, 4388.81, 8527.12, -25860.23, -36847.23, -53042.63, 0.00, 0.00, 0.00
135, 8699.25, 347.64, -11450.37, 4390.35, 8528.24, -25860.50, -36847.45, -53042.50, 0.00, 0.00, 0.00
149, 8698.72, 349.45, -11460.79, 4387.54, 8547.51, -25862.17, -36843.36, -53021.04, 0.00, 0.00, 0.00
147, 8701.69, 350.70, -11456.34, 4387.45, 8545.32, -25861.50, -36843.36, -53025.06, 0.00, 0.00, 0.00
129, 8703.61, 346.23, -11453.10, 4386.31, 8524.20, -25858.98, -36850.67, -53041.43, 0.00, 0.00, 0.00
145, 8701.29, 352.13, -11453.28, 4389.75, 8545.65, -25861.12, -36844.93, -53026.58, 0.00, 0.00, 0.00
137, 8699.21, 349.04, -11448.21, 4390.62, 8531.91, -25858.11, -36845.33, -53036.13, 0.00, 0.00, 0.00
143, 8700.80, 348.89, -11452.12, 4390.28, 8540.76, -25863.45, -36845.15, -53029.31, 0.00, 0.00, 0.00
139, 8698.87, 348.96, -11445.43, 4392.65, 8535.08, -25858.38, -36842.96, -53033.02, 0.00, 0.00, 0.00
140, 8698.11, 347.30, -11445.46, 4393.35, 8535.55, -25860.56, -36842.07, -53031.84, 0.00, 0.00, 0.00
160, 8701.62, 346.18, -11458.84, 4383.94, 8550.55, -25868.08, -36826.06, -53004.16, 0.00, 0.00, 0.00
150, 8696.06, 349.60, -11460.03, 4387.56, 8548.27, -25862.67, -36841.24, -53017.62, 0.00, 0.00, 0.00
151, 8696.33, 348.78, -11459.20, 4385.61, 8548.27, -25863.65, -36839.14, -53014.76, 0.00, 0.00, 0.00
158, 8703.72, 345.02, -11459.14, 4384.83, 8547.82, -25865.82, -36830.84, -53006.98, 0.00, 0.00, 0.00
153, 8702.63, 351.50, -11455.76, 4387.96, 8551.29, -25861.62, -36834.20, -53009.15, 0.00, 0.00, 0.00
154, 8703.86, 351.12, -11456.65, 4387.29, 8551.02, -25861.73, -36833.53, -53008.08, 0.00, 0.00, 0.00
155, 8706.03, 349.72, -11456.18, 4386.26, 8549.59, -25862.73, -36832.88, -53006.51, 0.00, 0.00, 0.00
156, 8706.29, 347.79, -11456.14, 4386.44, 8548.40, -25863.67, -36833.15, -53006.13, 0.03, -0.00, 0.97
161, 8702.92, 348.69, -11458.78, 4383.36, 8552.02, -25868.12, -36822.98, -53002.64, 0.00, 0.00, 0.00
162, 8702.83, 349.89, -11459.83, 4382.17, 8552.74, -25867.72, -36822.48, -53003.11, 0.00, 0.00, 0.00
163, 8702.50, 349.00, -11459.90, 4383.56, 8554.64, -25867.70, -36822.06, -53001.91, 0.00, 0.00, 0.00
164, 8703.19, 347.93, -11460.81, 4385.05, 8554.44, -25868.52, -36822.44, -53000.14, 0.00, 0.00, 0.00
165, 8703.63, 346.21, -11464.90, 4384.34, 8553.45, -25871.00, -36822.35, -53000.84, 0.00, 0.00, 0.00
166, 8703.70, 343.35, -11468.28, 4384.70, 8552.65, -25872.34, -36821.70, -53002.13, 0.03, -0.01, 0.97
167, 8701.11, 340.71, -11470.78, 4385.73, 8552.11, -25873.69, -36820.03, -53002.38, 0.00, 0.00, 0.00
168, 8701.82, 339.50, -11470.87, 4387.33, 8552.98, -25873.35, -36816.27, -53001.89, 0.00, 0.00, 0.00
169, 8705.13, 339.66, -11469.84, 4389.06, 8554.84, -25873.28, -36814.20, -53001.86, 0.00, 0.00, 0.00
170, 8706.43, 339.70, -11470.07, 4389.44, 8555.22, -25874.65, -36812.70, -53002.00, 0.00, 0.00, 0.00
171, 8705.42, 338.76, -11472.19, 4388.38, 8555.42, -25875.07, -36810.59, -53003.05, 0.00, 0.00, 0.00
172, 8704.10, 340.44, -11473.82, 4388.79, 8554.75, -25874.96, -36807.96, -53004.77, 0.00, 0.00, 0.00
173, 8703.48, 343.66, -11474.58, 4389.01, 8554.50, -25875.76, -36807.11, -53006.89, 0.00, 0.00, 0.00
174, 8702.36, 343.73, -11474.58, 4387.80, 8555.60, -25877.22, -36806.19, -53009.04, 0.00, 0.00, 0.00
175, 8700.91, 342.50, -11476.75, 4385.14, 8556.31, -25878.07, -36803.02, -53010.11, 0.00, 0.00, 0.00
176, 8702.16, 342.12, -11477.44, 4383.27, 8557.54, -25876.90, -36801.48, -53010.76, 0.00, 0.00, 0.00
177, 8704.17, 343.73, -11475.16, 4384.03, 8558.95, -25873.53, -36799.96, -53010.20, 0.02, -0.00, 0.97
178, 8706.32, 345.36, -11472.79, 4385.23, 8558.10, -25872.34, -36798.73, -53009.42, 0.00, 0.00, 0.00
179, 8707.55, 346.76, -11472.39, 4384.54, 8558.93, -25871.27, -36798.41, -53009.35, 0.00, 0.00, 0.00
180, 8708.06, 346.25, -11472.97, 4382.28, 8559.60, -25871.45, -36797.59, -53010.76, 0.00, 0.00, 0.00
181, 8705.92, 344.75, -11474.47, 4380.14, 8557.63, -25872.30, -36796.87, -53011.21, 0.00, 0.00, 0.00
182, 8704.37, 344.51, -11475.63, 4379.80, 8556.00, -25872.63, -36796.29, -53010.82, 0.00, 0.00, 0.00
183, 8702.56, 345.65, -11476.86, 4380.34, 8556.45, -25874.15, -36796.38, -53010.65, 0.00, 0.00, 0.00
184, 8701.33, 345.42, -11477.02, 4377.83, 8557.68, -25874.96, -36794.66, -53009.51, 0.00, 0.00, 0.00
185, 8702.81, 344.28, -11474.02, 4377.79, 8559.33, -25875.21, -36790.75, -53005.73, 0.00, 0.00, 0.00
186, 8704.28, 342.76, -11473.35, 4377.25, 8559.94, -25876.26, -36787.80, -53003.23, 0.00, 0.00, 0.00
187, 8704.98, 342.50, -11473.64, 4377.05, 8560.79, -25875.83, -36787.15, -53002.49, 0.02, -0.00, 0.97
188, 8705.47, 343.90, -11474.13, 4378.73, 8561.25, -25875.27, -36786.32, -53001.73, 0.00, 0.00, 0.00
189, 8706.32, 344.73, -11476.26, 4379.58, 8560.85, -25876.81, -36786.32, -53003.83, 0.00, 0.00, 0.00
190, 8709.04, 345.38, -11478.78, 4379.82, 8560.52, -25876.88, -36785.00, -53004.19, 0.00, 0.00, 0.00
191, 8709.87, 346.76, -11479.72, 4380.45, 8560.67, -25879.01, -36784.13, -53002.58, 0.00, 0.00, 0.00
192, 8709.60, 347.52, -11480.68, 4380.32, 8560.79, -25879.38, -36782.34, -53000.30, 0.00, 0.00, 0.00
193, 8710.18, 348.66, -11481.35, 4381.19, 8561.66, -25877.69, -36778.86, -52997.86, 0.00, 0.00, 0.00
5, 8709.89, 342.29, -11477.40, 4383.69, 8591.14, -25885.76, -36717.77, -53064.83, 0.00, 0.00, 0.00
195, 8710.23, 347.59, -11482.81, 4380.00, 8563.74, -25879.21, -36775.52, -52997.59, 0.00, 0.00, 0.00
3, 8713.83, 343.46, -11475.79, 4384.88, 8592.48, -25885.26, -36715.98, -53065.59, 0.00, 0.00, 0.00
197, 8710.21, 344.08, -11486.47, 4378.08, 8561.63, -25882.40, -36777.45, -53001.59, 0.02, -0.01, 0.97
1, 8710.99, 342.63, -11479.99, 4382.37, 8590.56, -25885.87, -36713.81, -53065.72, 0.00, 0.00, 0.00
207, 8709.74, 340.26, -11489.18, 4372.60, 8559.44, -25894.81, -36761.02, -53001.04, 0.03, -0.01, 0.96
255, 8709.60, 345.07, -11482.94, 4379.40, 8589.33, -25886.49, -36717.70, -53072.67, 0.00, 0.00, 0.00
201, 8711.32, 343.12, -11484.68, 4378.39, 8565.01, -25886.29, -36768.26, -52998.49, 0.00, 0.00, 0.00
253, 8710.54, 343.81, -11482.00, 4381.32, 8590.29, -25886.27, -36717.57, -53076.88, 0.00, 0.00, 0.00
251, 8714.99, 344.80, -11482.11, 4382.24, 8592.21, -25885.87, -36717.75, -53077.46, 0.00, 0.00, 0.00
208, 8709.89, 342.18, -11489.04, 4371.40, 8558.28, -25895.01, -36760.30, -53001.62, 0.00, 0.00, 0.00
229, 8712.13, 346.41, -11493.96, 4377.32, 8578.87, -25890.72, -36739.27, -53050.34, 0.00, 0.00, 0.00
249, 8716.33, 349.87, -11482.40, 4384.81, 8593.64, -25885.58, -36720.54, -53079.33, 0.00, 0.00, 0.00
227, 8713.94, 346.05, -11492.17, 4376.76, 8578.46, -25890.27, -36739.43, -53044.69, 0.03, -0.01, 0.97
247, 8716.31, 351.91, -11484.66, 4383.80, 8591.41, -25887.25, -36722.57, -53083.47, 0.02, -0.01, 0.97
225, 8712.89, 344.17, -11493.54, 4377.39, 8576.30, -25891.03, -36742.27, -53031.79, 0.00, 0.00, 0.00
240, 8715.88, 350.12, -11485.67, 4380.41, 8588.84, -25889.35, -36733.50, -53083.56, 0.00, 0.00, 0.00
9, 8709.22, 345.36, -11474.45, 4383.89, 8598.11, -25886.18, -36718.06, -53059.11, 0.00, 0.00, 0.00
238, 8714.65, 350.12, -11487.03, 4377.81, 8583.47, -25889.94, -36734.71, -53077.66, 0.00, 0.00, 0.00
231, 8713.92, 349.00, -11494.32, 4377.88, 8581.01, -25892.93, -36737.08, -53056.02, 0.00, 0.00, 0.00
18, 8711.50, 342.97, -11475.12, 4376.76, 8601.64, -25887.23, -36717.59, -53045.76, 0.00, 0.00, 0.00
16, 8706.50, 342.94, -11476.64, 4373.81, 8598.63, -25888.57, -36718.13, -53049.92, 0.00, 0.00, 0.00
6, 8708.49, 343.57, -11476.17, 4383.51, 8593.51, -25886.76, -36716.67, -53063.62, 0.00, 0.00, 0.00
13, 8708.44, 344.24, -11476.26, 4378.57, 8595.90, -25886.69, -36721.21, -53052.22, 0.00, 0.00, 0.00
10, 8709.65, 346.63, -11473.57, 4382.77, 8597.96, -25885.49, -36717.97, -53057.83, 0.00, 0.00, 0.00
11, 8708.66, 345.96, -11474.54, 4383.29, 8597.02, -25883.72, -36718.35, -53054.95, 0.00, 0.00, 0.00
27, 8709.85, 346.92, -11477.33, 4378.06, 8611.25, -25889.27, -36725.14, -53043.62, 0.00, 0.00, 0.00
35, 8712.80, 346.25, -11477.11, 4382.48, 8616.22, -25889.78, -36743.63, -53031.32, 0.00, 0.00, 0.00
41, 8703.57, 339.57, -11473.60, 4380.58, 8616.40, -25890.79, -36755.52, -53027.63, 0.00, 0.00, 0.00
46, 8704.26, 340.60, -11475.36, 4378.06, 8618.12, -25891.50, -36762.14, -53019.43, 0.00, 0.00, 0.00
44, 8702.88, 343.41, -11474.80, 4379.78, 8617.33, -25891.12, -36758.52, -53020.39, 0.00, 0.00, 0.00
38, 8706.99, 341.07, -11475.14, 4380.70, 8615.66, -25890.56, -36751.50, -53030.54, 0.00, 0.00, 0.00
29, 8709.80, 347.55, -11479.21, 4378.84, 8614.29, -25891.05, -36729.50, -53042.57, 0.00, 0.00, 0.00
36, 8711.06, 343.81, -11475.61, 4381.81, 8617.45, -25889.96, -36746.85, -53029.60, 0.00, 0.00, 0.00
42, 8702.20, 339.61, -11473.55, 4380.47, 8617.65, -25890.27, -36755.90, -53025.58, 0.03, -0.01, 0.96
47, 8703.30, 340.04, -11475.81, 4378.19, 8616.24, -25891.28, -36765.98, -53017.91, 0.00, 0.00, 0.00
60, 8703.50, 337.00, -11474.78, 4373.32, 8615.10, -25901.58, -36785.45, -53004.70, 0.00, 0.00, 0.00
93, 8704.55, 330.20, -11489.82, 4371.78, 8619.97, -25912.64, -36827.20, -53020.50, 0.03, 0.00, 0.97
76, 8705.49, 329.11, -11485.91, 4369.01, 8612.82, -25900.91, -36812.59, -53012.43, 0.00, 0.00, 0.00
74, 8704.48, 330.05, -11482.85, 4370.84, 8612.75, -25900.04, -36811.78, -53009.71, 0.00, 0.00, 0.00
91, 8704.46, 328.15, -11489.85, 4371.15, 8619.08, -25909.81, -36825.19, -53019.95, 0.00, 0.00, 0.00
53, 8706.32, 339.05, -11475.63, 4379.85, 8615.55, -25895.12, -36776.91, -53014.54, 0.00, 0.00, 0.00
72, 8702.96, 326.49, -11482.54, 4367.60, 8612.51, -25906.14, -36810.33, -53007.99, 0.03, -0.00, 0.97
87, 8704.08, 326.63, -11488.89, 4369.77, 8613.40, -25908.20, -36819.80, -53015.07, 0.00, 0.00, 0.00
85, 8702.79, 328.53, -11487.10, 4369.41, 8613.31, -25907.44, -36817.84, -53014.22, 0.00, 0.00, 0.00
69, 8704.22, 328.30, -11478.78, 4367.69, 8612.44, -25909.05, -36803.51, -53007.18, 0.00, 0.00, 0.00
83, 8705.56, 330.45, -11485.13, 4368.94, 8613.47, -25905.31, -36816.94, -53008.52, 0.00, 0.00, 0.00
81, 8707.41, 329.22, -11486.36, 4370.06, 8613.62, -25905.27, -36816.32, -53009.48, 0.00, 0.00, 0.00
103, 8699.39, 331.28, -11491.08, 4364.60, 8618.34, -25916.00, -36838.71, -53030.32, 0.02, 0.00, 0.96
79, 8705.04, 326.87, -11487.88, 4367.71, 8615.01, -25906.32, -36815.09, -53013.89, 0.00, 0.00, 0.00
94, 8705.20, 329.40, -11490.96, 4369.54, 8620.73, -25914.54, -36829.55, -53022.29, 0.00, 0.00, 0.00
98, 8706.27, 330.60, -11487.48, 4373.63, 8620.15, -25917.79, -36831.41, -53022.45, 0.00, 0.00, 0.00
96, 8705.94, 327.74, -11491.14, 4369.86, 8618.92, -25917.05, -36832.37, -53025.71, 0.00, 0.00, 0.00
101, 8700.77, 330.14, -11490.88, 4366.73, 8618.79, -25918.68, -36835.83, -53028.68, 0.00, 0.00, 0.00
109, 8699.37, 328.41, -11489.82, 4368.49, 8622.10, -25916.65, -36841.20, -53024.75, 0.00, 0.00, 0.00
112, 8701.51, 335.52, -11484.71, 4370.08, 8624.62, -25917.54, -36844.64, -53028.21, 0.00, 0.00, 0.00
106, 8701.22, 327.30, -11489.80, 4368.85, 8622.25, -25914.99, -36837.77, -53026.47, 0.00, 0.00, 0.00
107, 8700.95, 327.14, -11490.67, 4368.38, 8624.04, -25915.42, -36837.86, -53026.52, 0.00, 0.00, 0.00
110, 8700.33, 331.39, -11487.77, 4368.34, 8623.50, -25918.77, -36842.18, -53025.73, 0.00, 0.00, 0.00
113, 8705.02, 336.64, -11481.46, 4372.27, 8625.92, -25916.98, -36843.77, -53028.21, 0.03, -0.00, 0.97
114, 8703.03, 336.13, -11479.59, 4371.96, 8626.07, -25916.58, -36844.48, -53027.37, 0.00, 0.00, 0.00
115, 8701.15, 335.70, -11481.73, 4370.48, 8625.67, -25916.06, -36846.25, -53026.67, 0.00, 0.00, 0.00
116, 8700.93, 336.39, -11482.81, 4369.30, 8625.74, -25914.97, -36847.70, -53024.39, 0.00, 0.00, 0.00
117, 8698.25, 335.79, -11481.33, 4368.04, 8624.82, -25915.82, -36851.07, -53023.12, 0.00, 0.00, 0.00
118, 8699.19, 337.35, -11479.88, 4368.47, 8625.69, -25915.73, -36852.88, -53022.49, 0.00, 0.00, 0.00
119, 8700.73, 337.13, -11480.73, 4369.01, 8626.72, -25915.37, -36853.60, -53024.95, 0.00, 0.00, 0.00
120, 8701.40, 335.63, -11480.77, 4368.45, 8626.19, -25914.97, -36854.94, -53026.72, 0.00, 0.00, 0.00
121, 8701.78, 335.39, -11478.58, 4368.60, 8627.26, -25912.85, -36855.19, -53023.61, 0.00, 0.00, 0.00
122, 8700.75, 335.70, -11480.21, 4369.74, 8628.87, -25911.37, -36856.04, -53021.60, 0.00, 0.00, 0.00
123, 8699.59, 336.44, -11481.53, 4371.29, 8630.70, -25910.83, -36857.78, -53019.63, 0.02, -0.00, 0.96
124, 8700.48, 336.24, -11481.06, 4372.02, 8630.88, -25910.61, -36859.19, -53020.44, 0.00, 0.00, 0.00
125, 8698.83, 335.30, -11483.68, 4369.52, 8629.99, -25911.79, -36861.64, -53023.41, 0.00, 0.00, 0.00
126, 8700.26, 334.63, -11484.71, 4367.91, 8630.30, -25912.24, -36863.81, -53024.26, 0.00, 0.00, 0.00
127, 8700.30, 334.81, -11484.15, 4367.49, 8631.17, -25912.20, -36865.27, -53024.28, 0.00, 0.00, 0.00
128, 8699.61, 334.76, -11484.15, 4367.67, 8631.19, -25911.55, -36864.04, -53024.13, 0.00, 0.00, 0.00
129, 8699.46, 334.85, -11486.25, 4367.02, 8632.56, -25909.96, -36863.43, -53023.14, 0.00, 0.00, 0.00
130, 8699.37, 334.40, -11488.89, 4364.76, 8631.84, -25910.57, -36864.80, -53026.25, 0.00, 0.00, 0.00
131, 8698.09, 334.81, -11490.38, 4364.09, 8632.82, -25911.44, -36865.34, -53029.42, 0.00, 0.00, 0.00
132, 8696.68, 334.76, -11491.75, 4363.37, 8634.63, -25913.40, -36865.80, -53030.65, 0.00, 0.00, 0.00
133, 8695.25, 331.68, -11493.69, 4361.14, 8633.05, -25914.14, -36866.99, -53032.24, 0.03, -0.00, 0.96
134, 8694.65, 330.11, -11493.58, 4359.89, 8632.62, -25913.45, -36867.79, -53032.84, 0.00, 0.00, 0.00
135, 8693.35, 329.22, -11492.98, 4359.31, 8633.74, -25912.51, -36868.24, -53032.35, 0.00, 0.00, 0.00
136, 8693.67, 330.31, -11491.23, 4360.02, 8634.32, -25909.81, -36868.73, -53030.72, 0.00, 0.00, 0.00
137, 8695.34, 332.30, -11489.40, 4361.03, 8635.98, -25906.68, -36869.94, -53028.30, 0.00, 0.00, 0.00
138, 8695.83, 332.28, -11488.73, 4359.71, 8636.87, -25906.03, -36870.52, -53028.08, 0.00, 0.00, 0.00
139, 8696.91, 331.12, -11489.62, 4357.54, 8636.98, -25906.25, -36869.63, -53029.69, 0.00, 0.00, 0.00
140, 8697.31, 330.54, -11491.84, 4356.91, 8636.22, -25906.21, -36869.47, -53031.46, 0.00, 0.00, 0.00
141, 8696.57, 330.85, -11495.32, 4355.26, 8635.01, -25907.46, -36872.29, -53032.60, 0.00, 0.00, 0.00
142, 8698.25, 333.35, -11497.63, 4355.95, 8636.60, -25907.24, -36872.35, -53030.27, 0.00, 0.00, 0.00
143, 8699.63, 334.11, -11498.81, 4357.83, 8639.04, -25907.06, -36871.86, -53028.17, 0.02, 0.00, 0.96
144, 8700.95, 334.16, -11498.21, 4358.84, 8641.12, -25906.03, -36871.66, -53028.15, 0.00, 0.00, 0.00
145, 8702.00, 337.47, -11497.92, 4359.53, 8643.49, -25904.82, -36870.16, -53029.69, 0.00, 0.00, 0.00
147, 8705.13, 338.96, -11499.17, 4361.21, 8644.78, -25904.24, -36873.29, -53031.93, 0.00, 0.00, 0.00
148, 8702.54, 337.13, -11499.99, 4360.87, 8645.61, -25904.87, -36874.83, -53032.02, 0.00, 0.00, 0.00
149, 8698.38, 334.92, -11502.59, 4358.10, 8645.74, -25906.70, -36877.94, -53031.68, 0.00, 0.00, 0.00
150, 8699.03, 333.64, -11505.38, 4356.00, 8645.57, -25907.10, -36880.98, -53029.20, 0.00, 0.00, 0.00
151, 8699.37, 333.18, -11507.33, 4355.84, 8645.77, -25906.81, -36881.02, -53029.29, 0.00, 0.00, 0.00
152, 8700.73, 333.94, -11506.63, 4356.91, 8646.50, -25906.47, -36879.17, -53029.73, 0.00, 0.00, 0.00
153, 8703.34, 335.21, -11504.22, 4359.64, 8648.02, -25905.27, -36878.14, -53026.88, 0.02, -0.00, 0.96
154, 8703.70, 334.83, -11503.93, 4360.85, 8648.87, -25906.50, -36878.79, -53027.41, 0.00, 0.00, 0.00
155, 8703.90, 333.96, -11504.26, 4361.99, 8648.54, -25907.04, -36879.46, -53026.94, 0.00, 0.00, 0.00
156, 8704.91, 331.70, -11504.06, 4363.13, 8648.63, -25907.06, -36880.64, -53025.24, 0.00, 0.00, 0.00
157, 8704.64, 328.53, -11505.72, 4362.93, 8648.02, -25909.13, -36884.16, -53025.46, 0.00, 0.00, 0.00
158, 8704.08, 326.58, -11506.79, 4362.88, 8647.91, -25910.01, -36884.56, -53024.48, 0.00, 0.00, 0.00
159, 8704.84, 326.13, -11507.39, 4363.42, 8648.09, -25909.56, -36884.04, -53025.02, 0.00, 0.00, 0.00
160, 8704.71, 326.69, -11508.15, 4363.91, 8649.70, -25908.73, -36884.00, -53026.47, 0.00, 0.00, 0.00
161, 8704.98, 328.37, -11508.51, 4364.38, 8650.75, -25907.04, -36883.82, -53025.78, 0.00, 0.00, 0.00
162, 8704.51, 328.86, -11508.22, 4364.69, 8650.88, -25906.50, -36882.86, -53025.02, 0.00, 0.00, 0.00
163, 8703.95, 327.48, -11507.59, 4364.16, 8649.66, -25907.10, -36883.44, -53025.20, 0.02, -0.00, 0.97
164, 8702.36, 326.92, -11509.74, 4362.81, 8647.67, -25908.60, -36886.43, -53027.54, 0.00, 0.00, 0.00
165, 8699.30, 325.11, -11512.35, 4360.74, 8644.94, -25911.53, -36888.67, -53030.94, 0.00, 0.00, 0.00
166, 8698.14, 324.44, -11511.10, 4359.93, 8643.62, -25911.48, -36891.08, -53032.95, 0.00, 0.00, 0.00
167, 8699.66, 324.68, -11509.72, 4360.80, 8642.30, -25910.16, -36892.71, -53033.82, 0.00, 0.00, 0.00
192, 8701.04, 324.39, -11517.67, 4351.39, 8652.02, -25905.98, -36908.03, -53041.61, 0.00, 0.00, 0.00
190, 8699.43, 324.59, -11518.84, 4352.80, 8649.32, -25908.04, -36906.84, -53041.98, 0.00, 0.00, 0.00
170, 8702.41, 325.87, -11510.63, 4360.83, 8643.29, -25908.53, -36892.36, -53035.73, 0.00, 0.00, 0.00
171, 8703.05, 325.55, -11510.28, 4360.60, 8643.40, -25908.93, -36892.09, -53034.63, 0.00, 0.00, 0.00
188, 8700.59, 326.31, -11517.23, 4353.58, 8648.90, -25905.18, -36905.63, -53039.93, 0.00, 0.00, 0.00
173, 8700.10, 324.08, -11509.72, 4357.36, 8642.68, -25909.72, -36896.05, -53035.21, 0.00, 0.00, 0.00
179, 8701.96, 327.39, -11505.74, 4354.81, 8648.45, -25904.62, -36901.41, -53033.67, 0.00, 0.00, 0.00
186, 8699.32, 327.50, -11516.33, 4350.95, 8647.80, -25905.69, -36904.16, -53038.30, 0.00, 0.00, 0.00
176, 8699.46, 325.04, -11510.19, 4357.14, 8645.16, -25911.62, -36902.84, -53030.50, 0.00, 0.00, 0.00
177, 8701.51, 326.63, -11507.59, 4355.91, 8647.96, -25908.31, -36900.83, -53029.49, 0.00, 0.00, 0.00
180, 8700.97, 327.10, -11506.61, 4353.81, 8647.58, -25905.58, -36903.67, -53034.68, 0.00, 0.00, 0.00
184, 8696.75, 327.65, -11515.71, 4349.94, 8646.17, -25906.32, -36906.91, -53038.52, 0.02, -0.01, 0.96
202, 8706.88, 333.33, -11513.45, 4355.33, 8656.12, -25908.78, -36906.57, -53042.30, 0.00, 0.00, 0.00
193, 8704.55, 326.18, -11515.33, 4351.73, 8653.43, -25904.58, -36906.53, -53040.11, 0.00, 0.00, 0.00
194, 8704.82, 328.24, -11515.04, 4352.69, 8653.32, -25904.31, -36905.93, -53038.05, 0.02, -0.00, 0.96
200, 8703.90, 328.37, -11513.29, 4352.82, 8654.57, -25909.31, -36908.09, -53044.80, 0.00, 0.00, 0.00
196, 8703.34, 327.39, -11516.15, 4353.63, 8653.77, -25906.74, -36905.95, -53038.81, 0.00, 0.00, 0.00
197, 8701.02, 325.40, -11518.01, 4350.68, 8654.13, -25908.93, -36906.15, -53040.93, 0.00, 0.00, 0.00
198, 8701.04, 324.82, -11517.16, 4348.93, 8654.64, -25910.07, -36907.22, -53043.08, 0.00, 0.00, 0.00
203, 8706.29, 333.78, -11513.41, 4355.08, 8655.13, -25908.17, -36906.02, -53042.95, 0.00, 0.00, 0.00
219, 8711.50, 323.88, -11508.56, 4352.02, 8666.02, -25907.41, -36907.18, -53039.86, 0.00, 0.00, 0.00
211, 8707.23, 329.71, -11503.37, 4352.49, 8653.14, -25907.73, -36905.57, -53051.95, 0.00, 0.00, 0.00
206, 8703.72, 333.04, -11512.24, 4352.80, 8651.80, -25912.06, -36909.46, -53049.11, 0.00, 0.00, 0.00
231, 8708.53, 328.57, -11504.49, 4349.38, 8667.20, -25911.37, -36911.91, -53030.45, 0.00, 0.00, 0.00
222, 8710.25, 319.59, -11514.08, 4351.01, 8662.66, -25908.46, -36911.20, -53038.45, 0.00, 0.00, 0.00
209, 8705.92, 331.14, -11506.25, 4350.97, 8652.65, -25909.43, -36904.94, -53049.23, 0.00, 0.00, 0.00
229, 8709.29, 329.08, -11503.15, 4349.87, 8666.49, -25909.52, -36910.64, -53033.67, 0.00, 0.00, 0.00
220, 8711.46, 321.17, -11508.78, 4352.13, 8665.39, -25907.88, -36908.18, -53039.32, 0.00, 0.00, 0.00
236, 8711.50, 327.03, -11503.73, 4348.29, 8672.70, -25917.09, -36910.73, -53029.71, 0.00, 0.00, 0.00
224, 8710.90, 323.39, -11508.94, 4353.34, 8661.95, -25907.82, -36913.46, -53035.46, 0.02, -0.00, 0.96
242, 8715.82, 325.78, -11495.90, 4351.33, 8676.23, -25920.69, -36906.55, -53024.57, 0.00, 0.00, 0.00
232, 8709.16, 327.41, -11505.58, 4350.54, 8667.16, -25912.04, -36912.32, -53028.57, 0.00, 0.00, 0.00
245, 8713.34, 322.96, -11499.97, 4347.97, 8674.40, -25919.46, -36909.08, -53022.79, 0.00, 0.00, 0.00
240, 8710.56, 326.98, -11500.96, 4348.96, 8671.81, -25920.87, -36908.77, -53026.36, 0.00, 0.00, 0.00
237, 8710.83, 326.42, -11502.56, 4348.64, 8671.87, -25919.08, -36911.65, -53029.87, 0.00, 0.00, 0.00
238, 8710.99, 327.81, -11502.18, 4350.36, 8670.87, -25919.46, -36911.80, -53028.64, 0.00, 0.00, 0.00
252, 8714.81, 324.41, -11503.03, 4352.20, 8679.58, -25913.52, -36909.19, -53017.42, 0.00, 0.00, 0.00
246, 8711.64, 321.40, -11502.16, 4347.10, 8674.04, -25918.84, -36908.81, -53023.61, 0.00, 0.00, 0.00
247, 8711.35, 321.08, -11503.75, 4346.65, 8673.97, -25918.01, -36909.64, -53022.43, 0.00, 0.00, 0.00
248, 8711.61, 321.91, -11503.01, 4347.10, 8675.47, -25916.96, -36910.20, -53022.27, 0.00, 0.00, 0.00
249, 8712.53, 323.99, -11501.31, 4349.83, 8678.13, -25914.10, -36908.18, -53021.44, 0.00, 0.00, 0.00
250, 8714.03, 324.99, -11501.25, 4352.20, 8678.18, -25912.80, -36907.69, -53018.20, 0.00, 0.00, 0.00
253, 8713.49, 323.39, -11504.44, 4350.48, 8678.87, -25914.84, -36911.38, -53018.54, 0.00, 0.00, 0.00
254, 8712.33, 323.34, -11502.99, 4350.74, 8678.71, -25915.28, -36911.94, -53018.76, 0.03, -0.00, 0.97
255, 8710.32, 323.85, -11502.81, 4350.74, 8680.14, -25916.06, -36911.31, -53017.71, 0.00, 0.00, 0.00
0, 8709.22, 324.21, -11502.03, 4351.30, 8681.91, -25916.22, -36909.77, -53015.52, 0.00, 0.00, 0.00
1, 8710.05, 325.44, -11499.48, 4352.96, 8684.61, -25913.54, -36909.03, -53014.18, 0.00, 0.00, 0.00
2, 8712.22, 326.36, -11498.21, 4354.72, 8686.78, -25913.31, -36909.28, -53011.68, 0.00, 0.00, 0.00
3, 8714.25, 325.64, -11498.09, 4355.89, 8688.48, -25913.40, -36908.81, -53008.81, 0.00, 0.00, 0.00
4, 8715.97, 324.50, -11499.32, 4355.86, 8688.37, -25913.25, -36909.12, -53007.59, 0.00, 0.00, 0.00
5, 8715.91, 323.83, -11499.01, 4355.26, 8687.56, -25915.42, -36909.19, -53008.84, 0.00, 0.00, 0.00
14, 8711.57, 319.09, -11497.45, 4347.50, 8689.08, -25922.46, -36916.77, -53014.52, 0.00, 0.00, 0.00
7, 8714.63, 321.51, -11496.98, 4353.58, 8690.42, -25918.23, -36907.94, -53010.82, 0.00, 0.00, 0.00
17, 8711.91, 325.40, -11496.37, 4351.86, 8690.72, -25921.03, -36920.61, -53011.79, 0.00, 0.00, 0.00
32, 8712.58, 321.93, -11498.94, 4356.04, 8693.40, -25924.85, -36933.04, -53009.77, 0.00, 0.00, 0.00
10, 8714.72, 320.57, -11495.50, 4349.05, 8691.95, -25919.24, -36910.13, -53009.55, 0.00, 0.00, 0.00
15, 8710.70, 319.88, -11497.20, 4347.86, 8689.64, -25923.55, -36917.86, -53015.14, 0.00, 0.00, 0.00
30, 8707.21, 323.70, -11500.60, 4352.51, 8691.99, -25926.93, -36931.03, -53009.26, 0.00, 0.00, 0.00
28, 8709.38, 327.45, -11495.70, 4352.47, 8691.95, -25924.94, -36928.79, -53007.47, 0.00, 0.00, 0.00
47, 8712.24, 321.44, -11497.00, 4349.74, 8696.44, -25921.43, -36934.07, -53009.11, 0.00, 0.00, 0.00
23, 8710.76, 321.24, -11500.49, 4350.77, 8686.80, -25925.52, -36926.60, -53013.35, 0.00, 0.00, 0.00
26, 8709.51, 324.17, -11495.64, 4349.58, 8690.65, -25923.91, -36927.79, -53006.76, 0.00, 0.00, 0.00
43, 8711.77, 321.13, -11497.49, 4353.65, 8694.36, -25921.99, -36924.86, -53011.83, 0.00, 0.00, 0.00
34, 8716.71, 323.34, -11495.93, 4358.52, 8693.11, -25921.70, -36929.75, -53008.77, 0.00, 0.00, 0.00
41, 8711.28, 318.80, -11502.23, 4352.69, 8692.68, -25922.12, -36927.11, -53014.56, 0.00, 0.00, 0.00
36, 8711.15, 322.40, -11499.50, 4354.52, 8689.49, -25923.57, -36929.08, -53012.23, 0.00, 0.00, 0.00
37, 8710.34, 320.73, -11503.28, 4352.64, 8687.52, -25923.24, -36930.09, -53014.18, 0.00, 0.00, 0.00
38, 8709.20, 318.94, -11504.46, 4351.53, 8688.61, -25922.79, -36930.04, -53014.47, 0.00, 0.00, 0.00
39, 8708.04, 317.86, -11504.26, 4350.57, 8689.89, -25924.25, -36929.19, -53014.89, 0.02, -0.00, 0.97
51, 8711.61, 322.36, -11495.81, 4347.21, 8700.64, -25921.70, -36934.71, -53007.68, 0.00, 0.00, 0.00
52, 8711.97, 322.63, -11495.61, 4346.83, 8701.06, -25922.77, -36934.07, -53009.30, 0.00, 0.00, 0.00
59, 8709.92, 326.18, -11497.89, 4349.69, 8702.56, -25923.44, -36935.88, -53010.31, 0.03, -0.00, 0.96
54, 8708.51, 323.52, -11497.56, 4345.87, 8702.83, -25922.19, -36935.32, -53011.27, 0.00, 0.00, 0.00
55, 8706.90, 323.77, -11498.16, 4345.07, 8702.29, -25921.85, -36937.42, -53011.65, 0.00, 0.00, 0.00
56, 8705.18, 323.68, -11499.73, 4344.82, 8701.65, -25922.52, -36938.07, -53010.67, 0.00, 0.00, 0.00
57, 8706.00, 325.40, -11498.72, 4346.94, 8702.61, -25921.74, -36937.42, -53009.42, 0.00, 0.00, 0.00
60, 8710.16, 325.06, -11496.55, 4349.00, 8702.20, -25923.73, -36937.60, -53010.82, 0.00, 0.00, 0.00
61, 8708.24, 323.23, -11498.38, 4347.75, 8701.11, -25924.98, -36937.20, -53009.51, 0.00, 0.00, 0.00
76, 8716.64, 327.92, -11494.74, 4355.86, 8716.24, -25921.25, -36932.50, -53004.75, 0.00, 0.00, 0.00
73, 8716.46, 328.30, -11492.91, 4352.42, 8713.47, -25920.11, -36932.25, -53005.30, 0.00, 0.00, 0.00
64, 8710.25, 325.02, -11495.12, 4352.15, 8702.50, -25923.37, -36933.30, -53006.27, 0.00, 0.00, 0.00
65, 8712.40, 323.74, -11492.66, 4353.63, 8703.99, -25921.63, -36932.79, -53005.30, 0.00, 0.00, 0.00
71, 8710.32, 325.13, -11493.80, 4350.28, 8707.86, -25923.15, -36936.05, -53006.89, 0.00, 0.00, 0.00
67, 8710.54, 323.92, -11491.81, 4353.11, 8705.29, -25922.12, -36933.44, -53006.91, 0.00, 0.00, 0.00
89, 8719.95, 329.89, -11490.32, 4354.97, 8718.34, -25913.47, -36933.64, -52998.44, 0.03, -0.00, 0.97
69, 8710.23, 325.44, -11494.07, 4349.85, 8706.45, -25922.30, -36935.34, -53007.96, 0.02, -0.00, 0.96
87, 8714.68, 330.05, -11493.92, 4351.75, 8716.04, -25918.52, -36937.69, -52999.58, 0.00, 0.00, 0.00
78, 8714.90, 326.09, -11494.25, 4355.66, 8712.80, -25921.23, -36934.65, -53000.63, 0.00, 0.00, 0.00
79, 8714.14, 326.87, -11494.07, 4355.26, 8713.18, -25920.58, -36934.91, -52999.09, 0.03, 0.00, 0.96
95, 8722.23, 332.28, -11488.62, 4358.59, 8725.41, -25913.27, -36933.93, -53003.98, 0.00, 0.00, 0.00
93, 8721.65, 331.19, -11489.33, 4357.38, 8724.51, -25913.45, -36934.96, -53002.96, 0.00, 0.00, 0.00
90, 8721.87, 330.54, -11490.07, 4356.76, 8719.48, -25911.82, -36933.13, -52998.35, 0.00, 0.00, 0.00
91, 8722.70, 332.15, -11489.89, 4357.11, 8721.00, -25910.59, -36932.37, -52999.27, 0.00, 0.00, 0.00
100, 8720.31, 331.88, -11489.78, 4353.34, 8726.41, -25908.82, -36941.09, -52999.65, 0.02, -0.00, 0.96
104, 8714.18, 329.33, -11490.14, 4352.51, 8727.28, -25910.16, -36941.09, -52997.53, 0.00, 0.00, 0.00
113, 8717.72, 328.28, -11492.31, 4352.85, 8736.36, -25913.47, -36942.87, -52991.38, 0.00, 0.00, 0.00
101, 8718.61, 330.36, -11490.00, 4352.60, 8727.26, -25909.45, -36941.15, -53000.59, 0.00, 0.00, 0.00
102, 8716.24, 330.02, -11490.50, 4354.54, 8727.44, -25910.66, -36942.76, -53000.01, 0.00, 0.00, 0.00
105, 8714.65, 329.11, -11489.62, 4352.35, 8728.74, -25909.85, -36939.14, -52995.40, 0.00, 0.00, 0.00
110, 8712.96, 325.69, -11492.71, 4348.96, 8731.62, -25913.14, -36943.72, -52992.95, 0.03, 0.00, 0.97
121, 8717.72, 332.35, -11495.10, 4352.98, 8741.16, -25911.39, -36950.50, -52986.57, 0.00, 0.00, 0.00
108, 8714.48, 328.17, -11490.47, 4350.61, 8730.28, -25913.25, -36938.96, -52994.51, 0.00, 0.00, 0.00
114, 8717.16, 328.95, -11493.83, 4353.29, 8735.98, -25913.40, -36942.94, -52990.55, 0.00, 0.00, 0.00
119, 8713.80, 330.02, -11496.04, 4352.64, 8738.24, -25916.62, -36952.06, -52985.95, 0.00, 0.00, 0.00
116, 8716.35, 328.15, -11494.56, 4354.28, 8735.87, -25914.77, -36945.55, -52987.56, 0.00, 0.00, 0.00
142, 8724.58, 324.37, -11498.00, 4360.60, 8746.26, -25909.56, -36956.84, -52992.32, 0.00, 0.00, 0.00
122, 8719.39, 332.53, -11493.58, 4354.41, 8743.33, -25909.74, -36947.57, -52985.79, 0.00, 0.00, 0.00
123, 8720.67, 332.17, -11491.50, 4356.20, 8744.92, -25909.83, -36947.63, -52987.80, 0.00, 0.00, 0.00
127, 8720.49, 328.41, -11494.45, 4352.71, 8740.92, -25915.13, -36949.69, -52988.83, 0.00, 0.00, 0.00
140, 8723.06, 326.40, -11500.06, 4362.14, 8742.33, -25909.25, -36954.18, -52992.54, 0.02, -0.00, 0.96
130, 8723.51, 332.66, -11495.61, 4354.23, 8742.19, -25912.98, -36953.78, -52988.92, 0.02, -0.01, 0.97
138, 8724.94, 327.97, -11501.07, 4362.77, 8739.98, -25910.30, -36954.07, -52992.32, 0.00, 0.00, 0.00
134, 8724.53, 327.21, -11500.08, 4357.72, 8735.40, -25912.31, -36957.07, -52989.19, 0.00, 0.00, 0.00
150, 8722.61, 328.10, -11502.63, 4355.98, 8746.17, -25908.62, -36959.32, -52998.98, 0.02, -0.01, 0.97
136, 8722.68, 325.84, -11503.15, 4359.51, 8733.47, -25911.53, -36957.40, -52992.72, 0.00, 0.00, 0.00
143, 8726.03, 324.59, -11497.54, 4360.69, 8747.40, -25908.91, -36957.54, -52993.53, 0.00, 0.00, 0.00
144, 8725.92, 323.77, -11498.14, 4362.23, 8747.31, -25908.73, -36957.65, -52994.89, 0.00, 0.00, 0.00
208, 8730.48, 333.11, -11502.41, 4358.19, 8766.49, -25888.06, -36987.38, -53008.25, 0.00, 0.00, 0.00
146, 8725.29, 326.18, -11498.79, 4361.76, 8746.30, -25907.41, -36955.75, -52996.23, 0.00, 0.00, 0.00
151, 8722.25, 329.82, -11503.55, 4357.27, 8747.67, -25908.15, -36959.70, -52997.26, 0.00, 0.00, 0.00
206, 8730.79, 332.19, -11503.01, 4358.39, 8764.45, -25890.31, -36987.82, -53006.13, 0.00, 0.00, 0.00
153, 8723.08, 334.11, -11504.49, 4359.80, 8750.89, -25903.84, -36960.48, -52992.07, 0.00, 0.00, 0.00
204, 8733.74, 334.34, -11500.89, 4358.50, 8767.99, -25888.21, -36983.66, -53007.32, 0.00, 0.00, 0.00
155, 8726.08, 333.44, -11506.61, 4359.93, 8751.31, -25899.86, -36962.56, -52993.44, 0.00, 0.00, 0.00
166, 8723.73, 331.52, -11511.93, 4354.10, 8747.20, -25900.35, -36974.28, -53008.14, 0.00, 0.00, 0.00
202, 8736.58, 337.15, -11500.22, 4357.70, 8769.51, -25888.33, -36981.54, -53006.91, 0.00, 0.00, 0.00
161, 8723.19, 332.50, -11508.71, 4357.74, 8747.85, -25898.88, -36968.55, -52994.29, 0.00, 0.00, 0.00
200, 8734.82, 336.37, -11503.06, 4355.95, 8768.25, -25893.38, -36983.62, -53010.56, 0.00, 0.00, 0.00
162, 8725.88, 333.44, -11508.11, 4355.68, 8748.09, -25898.18, -36969.32, -52994.13, 0.00, 0.00, 0.00
198, 8731.62, 334.72, -11503.77, 4355.48, 8765.86, -25894.03, -36980.31, -53011.05, 0.00, 0.00, 0.00
170, 8731.28, 337.22, -11509.14, 4361.18, 8755.76, -25896.30, -36974.14, -53005.82, 0.02, -0.01, 0.97
171, 8732.80, 337.11, -11508.78, 4362.46, 8756.88, -25895.79, -36973.81, -53005.19, 0.00, 0.00, 0.00
196, 8734.37, 336.13, -11501.65, 4360.18, 8768.03, -25894.88, -36977.16, -53010.02, 0.00, 0.00, 0.00
194, 8732.22, 339.99, -11501.42, 4359.84, 8766.38, -25895.81, -36979.48, -53011.65, 0.00, 0.00, 0.00
183, 8732.98, 340.33, -11506.50, 4362.99, 8759.78, -25892.39, -36974.95, -53010.04, 0.00, 0.00, 0.00
179, 8729.99, 338.23, -11507.46, 4365.88, 8762.67, -25894.21, -36972.06, -53009.44, 0.00, 0.00, 0.00
192, 8729.45, 337.98, -11505.18, 4360.18, 8763.85, -25896.60, -36981.90, -53018.78, 0.00, 0.00, 0.00
190, 8727.28, 336.46, -11505.38, 4357.41, 8764.07, -25896.71, -36983.66, -53016.61, 0.00, 0.00, 0.00
186, 8735.75, 339.01, -11502.14, 4363.48, 8765.04, -25891.81, -36977.18, -53011.38, 0.00, 0.00, 0.00
187, 8733.27, 338.27, -11501.13, 4362.79, 8766.33, -25892.30, -36978.75, -53012.73, 0.00, 0.00, 0.00
188, 8731.37, 338.72, -11502.41, 4359.28, 8766.20, -25894.32, -36981.14, -53014.20, 0.00, 0.00, 0.00
212, 8735.02, 337.76, -11499.86, 4357.38, 8765.04, -25884.88, -36987.24, -53011.38, 0.00, 0.00, 0.00
210, 8735.15, 338.20, -11501.78, 4358.90, 8766.93, -25886.47, -36985.30, -53009.69, 0.00, 0.00, 0.00
213, 8733.47, 336.30, -11499.15, 4355.66, 8765.08, -25886.34, -36990.50, -53014.58, 0.00, 0.00, 0.00
222, 8735.82, 333.85, -11504.15, 4351.24, 8767.61, -25888.84, -36996.74, -53020.79, 0.00, 0.00, 0.00
217, 8735.13, 339.37, -11498.99, 4354.95, 8771.65, -25884.91, -36993.14, -53018.80, 0.00, 0.00, 0.00
218, 8735.91, 338.65, -11500.73, 4353.94, 8772.25, -25885.87, -36994.19, -53018.58, 0.00, 0.00, 0.00
226, 8737.43, 335.52, -11505.67, 4350.95, 8773.95, -25883.70, -36993.30, -53017.00, 0.00, 0.00, 0.00
220, 8736.42, 336.48, -11503.59, 4352.51, 8771.83, -25885.82, -36995.04, -53018.87, 0.00, 0.00, 0.00
223, 8734.46, 333.98, -11505.18, 4349.54, 8768.34, -25889.38, -36995.85, -53021.67, 0.00, 0.00, 0.00
224, 8734.32, 332.84, -11506.43, 4347.95, 8770.80, -25888.53, -36994.80, -53020.71, 0.00, 0.00, 0.00
227, 8738.77, 336.33, -11505.92, 4351.84, 8773.51, -25885.02, -36993.99, -53015.30, 0.00, 0.00, 0.00
228, 8739.24, 335.23, -11506.57, 4352.13, 8772.92, -25887.23, -36994.64, -53014.22, 0.00, 0.00, 0.00
229, 8738.95, 333.58, -11507.77, 4351.62, 8773.13, -25889.73, -36995.80, -53013.98, 0.00, 0.00, 0.00
230, 8739.67, 332.64, -11507.57, 4351.26, 8773.31, -25890.45, -36995.69, -53014.22, 0.00, 0.00, 0.00
231, 8739.04, 332.73, -11508.60, 4351.91, 8773.86, -25890.23, -36994.41, -53013.80, 0.02, -0.01, 0.97
232, 8739.62, 334.40, -11508.38, 4353.63, 8774.53, -25890.05, -36993.57, -53013.62, 0.00, 0.00, 0.00
243, 8743.87, 336.80, -11507.04, 4356.82, 8780.79, -25891.05, -36997.68, -53002.45, 0.00, 0.00, 0.00
234, 8741.59, 336.57, -11506.12, 4356.27, 8776.81, -25888.57, -36992.74, -53007.99, 0.00, 0.00, 0.00
235, 8740.78, 337.89, -11505.09, 4357.38, 8777.13, -25889.76, -36991.44, -53006.13, 0.00, 0.00, 0.00
236, 8739.75, 336.55, -11505.67, 4356.87, 8776.57, -25891.12, -36991.38, -53006.09, 0.00, 0.00, 0.00
241, 8739.60, 338.14, -11504.24, 4356.49, 8780.23, -25890.70, -36997.41, -53001.04, 0.02, -0.01, 0.96
238, 8738.08, 335.45, -11507.48, 4354.83, 8776.52, -25891.19, -36995.64, -53007.07, 0.00, 0.00, 0.00
239, 8737.48, 335.63, -11505.85, 4355.86, 8776.59, -25891.05, -36996.18, -53004.66, 0.00, 0.00, 0.00
244, 8743.76, 336.71, -11507.82, 4357.65, 8782.11, -25891.34, -36999.00, -53002.78, 0.00, 0.00, 0.00
245, 8741.12, 334.85, -11509.74, 4357.65, 8782.07, -25893.40, -37000.45, -53005.84, 0.00, 0.00, 0.00
1, 8744.52, 341.22, -11507.66, 4357.00, 8789.62, -25897.87, -36998.42, -53021.78, 0.00, 0.00, 0.00
251, 8745.43, 336.04, -11511.95, 4355.33, 8785.46, -25893.02, -37001.39, -53011.83, 0.02, -0.00, 0.97
248, 8740.63, 337.60, -11511.86, 4353.47, 8783.74, -25893.33, -37002.46, -53014.29, 0.00, 0.00, 0.00
255, 8742.42, 338.63, -11511.51, 4352.24, 8786.16, -25898.27, -37002.37, -53014.25, 0.00, 0.00, 0.00
252, 8745.23, 336.57, -11512.98, 4355.46, 8785.73, -25894.36, -37000.74, -53010.89, 0.00, 0.00, 0.00
253, 8743.67, 337.69, -11513.18, 4354.25, 8785.08, -25895.88, -37001.88, -53010.42, 0.00, 0.00, 0.00
2, 8744.49, 341.22, -11506.05, 4356.56, 8790.72, -25897.20, -37000.03, -53024.04, 0.00, 0.00, 0.00
3, 8743.60, 341.02, -11505.43, 4356.60, 8791.72, -25896.33, -37000.94, -53025.58, 0.00, 0.00, 0.00
4, 8743.73, 340.28, -11506.30, 4356.62, 8792.15, -25896.08, -37000.61, -53027.30, 0.00, 0.00, 0.00
5, 8743.35, 337.53, -11509.18, 4356.73, 8791.46, -25896.44, -37002.29, -53030.07, 0.02, -0.00, 0.97
6, 8742.42, 336.08, -11511.30, 4356.67, 8792.08, -25897.20, -37002.80, -53031.90, 0.00, 0.00, 0.00
7, 8740.22, 336.13, -11512.98, 4357.20, 8792.13, -25899.90, -37002.95, -53033.67, 0.00, 0.00, 0.00
8, 8740.11, 337.04, -11512.69, 4358.61, 8794.18, -25901.69, -37004.25, -53032.64, 0.00, 0.00, 0.00
9, 8740.34, 340.89, -11511.28, 4360.74, 8796.19, -25901.40, -37004.38, -53031.28, 0.00, 0.00, 0.00
10, 8741.45, 341.11, -11511.51, 4360.47, 8796.51, -25900.17, -37004.59, -53031.43, 0.00, 0.00, 0.00
11, 8742.21, 337.20, -11514.21, 4359.53, 8795.90, -25900.15, -37005.30, -53030.99, 0.00, 0.00, 0.00
12, 8742.30, 336.15, -11515.42, 4360.71, 8794.99, -25900.51, -37006.82, -53030.74, 0.00, 0.00, 0.00
13, 8741.16, 335.30, -11516.09, 4359.80, 8794.34, -25901.78, -37010.44, -53031.97, 0.00, 0.00, 0.00
14, 8740.18, 335.77, -11514.90, 4358.28, 8794.38, -25901.98, -37013.13, -53032.24, 0.00, 0.00, 0.00
33, 8744.47, 331.66, -11508.31, 4362.48, 8799.46, -25907.50, -37015.07, -53027.32, 0.00, 0.00, 0.00
16, 8740.60, 336.35, -11512.62, 4359.46, 8797.56, -25901.56, -37015.58, -53030.05, 0.02, -0.00, 0.97
17, 8743.91, 337.91, -11511.42, 4361.34, 8800.40, -25900.66, -37014.51, -53029.49, 0.00, 0.00, 0.00
18, 8745.37, 339.90, -11512.18, 4361.81, 8801.98, -25902.03, -37013.41, -53030.45, 0.00, 0.00, 0.00
23, 8743.17, 339.72, -11515.48, 4358.21, 8798.50, -25902.79, -37014.29, -53030.76, 0.00, 0.00, 0.00
31, 8745.41, 334.05, -11515.08, 4359.93, 8795.86, -25906.56, -37016.66, -53027.25, 0.00, 0.00, 0.00
21, 8742.88, 340.48, -11514.75, 4358.21, 8799.12, -25903.75, -37013.97, -53032.08, 0.00, 0.00, 0.00
40, 8747.60, 333.64, -11512.09, 4366.64, 8805.22, -25903.21, -37016.32, -53032.44, 0.00, 0.00, 0.00
25, 8745.81, 337.76, -11516.31, 4355.89, 8798.83, -25901.92, -37013.57, -53028.08, 0.00, 0.00, 0.00
26, 8747.71, 337.24, -11516.24, 4354.30, 8798.63, -25902.81, -37013.46, -53029.22, 0.02, -0.01, 0.95
43, 8746.46, 331.10, -11511.39, 4363.17, 8808.55, -25902.34, -37014.80, -53030.32, 0.00, 0.00, 0.00
38, 8747.33, 333.47, -11511.64, 4366.37, 8800.46, -25904.35, -37017.77, -53032.53, 0.00, 0.00, 0.00
35, 8747.33, 333.47, -11509.56, 4366.77, 8799.84, -25905.71, -37016.66, -53028.80, 0.00, 0.00, 0.00
36, 8747.60, 333.09, -11510.63, 4367.51, 8798.27, -25904.60, -37017.26, -53029.94, 0.02, -0.00, 0.96
56, 8740.96, 328.91, -11512.85, 4363.48, 8805.58, -25911.68, -37021.73, -53027.66, 0.02, 0.00, 0.96
44, 8745.88, 329.76, -11512.15, 4362.93, 8808.44, -25902.63, -37015.85, -53030.54, 0.00, 0.00, 0.00
70, 8740.43, 328.12, -11515.55, 4362.79, 8804.60, -25916.42, -37032.97, -53008.57, 0.00, 0.00, 0.00
54, 8740.76, 328.37, -11513.36, 4363.71, 8805.54, -25910.37, -37019.94, -53030.90, 0.00, 0.00, 0.00
47, 8741.63, 330.78, -11514.75, 4364.18, 8807.26, -25906.39, -37014.13, -53031.64, 0.00, 0.00, 0.00
52, 8741.68, 331.19, -11512.40, 4365.50, 8810.34, -25908.60, -37016.70, -53030.38, 0.00, 0.00, 0.00
67, 8744.45, 329.93, -11511.53, 4366.86, 8808.58, -25913.70, -37029.33, -53008.01, 0.00, 0.00, 0.00
50, 8742.95, 332.06, -11511.15, 4366.44, 8810.45, -25908.58, -37016.81, -53031.73, 0.00, 0.00, 0.00
65, 8741.45, 330.78, -11510.92, 4367.78, 8807.19, -25913.70, -37028.73, -53012.73, 0.00, 0.00, 0.00
78, 8738.33, 327.65, -11524.36, 4363.71, 8810.01, -25918.46, -37027.86, -53007.70, 0.00, 0.00, 0.00
63, 8741.23, 332.26, -11512.96, 4368.67, 8804.15, -25914.75, -37029.84, -53016.39, 0.00, 0.00, 0.00
71, 8741.88, 328.48, -11514.37, 4362.55, 8805.45, -25917.25, -37032.52, -53007.99, 0.00, 0.00, 0.00
72, 8742.08, 328.73, -11514.81, 4361.90, 8807.77, -25918.54, -37031.74, -53008.16, 0.00, 0.00, 0.00
76, 8740.36, 330.45, -11520.02, 4362.93, 8813.25, -25916.71, -37026.51, -53006.85, 0.02, -0.00, 0.97
74, 8743.26, 331.68, -11515.66, 4362.59, 8813.83, -25916.87, -37028.21, -53005.57, 0.00, 0.00, 0.00
79, 8736.94, 324.23, -11525.21, 4365.18, 8808.44, -25919.17, -37026.82, -53007.79, 0.00, 0.00, 0.00
85, 8735.73, 327.12, -11525.27, 4363.46, 8807.53, -25922.12, -37029.78, -53010.07, 0.00, 0.00, 0.00
81, 8738.48, 325.96, -11523.20, 4363.82, 8810.10, -25915.91, -37026.29, -53003.90, 0.00, 0.00, 0.00
82, 8739.22, 326.20, -11522.17, 4364.02, 8810.68, -25917.83, -37026.78, -53004.25, 0.00, 0.00, 0.00
83, 8736.89, 326.96, -11522.53, 4364.22, 8810.21, -25920.78, -37027.38, -53003.94, 0.00, 0.00, 0.00
86, 8737.81, 328.97, -11524.36, 4365.41, 8808.22, -25922.48, -37029.91, -53011.32, 0.02, -0.00, 0.98
87, 8739.51, 329.93, -11522.12, 4365.63, 8809.92, -25922.75, -37028.88, -53011.96, 0.00, 0.00, 0.00
88, 8740.22, 330.09, -11520.63, 4364.65, 8811.55, -25922.52, -37027.36, -53012.61, 0.00, 0.00, 0.00
94, 8736.29, 326.58, -11520.51, 4362.01, 8806.25, -25926.44, -37030.71, -53014.16, 0.00, 0.00, 0.00
90, 8741.34, 331.72, -11517.23, 4365.14, 8812.38, -25921.36, -37025.98, -53013.75, 0.00, 0.00, 0.00
91, 8740.74, 330.25, -11515.48, 4367.28, 8810.77, -25921.21, -37026.71, -53014.31, 0.00, 0.00, 0.00
92, 8740.81, 329.58, -11514.72, 4367.71, 8809.02, -25920.67, -37026.89, -53014.16, 0.00, 0.00, 0.00
102, 8739.00, 324.90, -11521.41, 4356.96, 8808.20, -25927.89, -37034.16, -53006.20, 0.00, 0.00, 0.00
96, 8737.39, 326.58, -11520.58, 4362.97, 8807.66, -25926.73, -37032.75, -53010.51, 0.00, 0.00, 0.00
97, 8739.71, 326.13, -11518.32, 4364.98, 8807.06, -25926.35, -37032.23, -53007.18, 0.02, 0.00, 0.97
100, 8741.14, 324.41, -11514.88, 4360.18, 8807.24, -25924.04, -37029.78, -53004.99, 0.00, 0.00, 0.00
103, 8737.77, 326.63, -11523.37, 4358.17, 8808.80, -25928.40, -37034.67, -53006.87, 0.00, 0.00, 0.00
107, 8735.37, 324.32, -11524.25, 4364.45, 8807.88, -25928.07, -37033.46, -53001.50, 0.02, -0.00, 0.96
105, 8735.75, 326.02, -11524.63, 4364.29, 8809.45, -25927.04, -37032.86, -53003.92, 0.00, 0.00, 0.00
114, 8735.13, 324.82, -11521.85, 4357.05, 8812.31, -25928.63, -37039.16, -52997.37, 0.00, 0.00, 0.00
109, 8733.34, 321.35, -11526.24, 4360.18, 8806.63, -25929.90, -37037.71, -53000.59, 0.00, 0.00, 0.00
110, 8733.94, 321.62, -11527.29, 4358.95, 8806.41, -25928.07, -37039.23, -53001.24, 0.00, 0.00, 0.00
111, 8734.86, 322.85, -11525.92, 4359.57, 8806.90, -25927.78, -37040.04, -53000.52, 0.00, 0.00, 0.00
115, 8737.16, 325.64, -11519.93, 4357.38, 8813.81, -25929.63, -37039.05, -52995.47, 0.00, 0.00, 0.00
116, 8738.50, 325.80, -11520.25, 4359.22, 8814.32, -25929.95, -37039.39, -52994.98, 0.00, 0.00, 0.00
117, 8737.03, 323.72, -11522.50, 4359.51, 8812.15, -25931.60, -37041.45, -52996.79, 0.02, 0.00, 0.95
118, 8736.38, 323.36, -11523.06, 4359.44, 8812.11, -25931.91, -37042.52, -52996.57, 0.00, 0.00, 0.00
119, 8736.27, 322.54, -11524.72, 4356.71, 8812.55, -25932.83, -37044.24, -52997.71, 0.00, 0.00, 0.00
120, 8737.92, 321.84, -11524.16, 4356.27, 8813.54, -25934.21, -37043.34, -52997.28, 0.00, 0.00, 0.00
121, 8739.82, 323.68, -11522.37, 4358.66, 8815.39, -25934.33, -37041.64, -52994.22, 0.00, 0.00, 0.00
122, 8741.81, 324.68, -11522.75, 4359.35, 8815.44, -25934.59, -37041.40, -52994.15, 0.00, 0.00, 0.00
123, 8743.04, 324.41, -11523.33, 4357.20, 8815.82, -25934.68, -37042.25, -52995.61, 0.00, 0.00, 0.00
128, 8739.00, 322.89, -11522.64, 4353.14, 8813.07, -25938.80, -37042.25, -52992.09, 0.00, 0.00, 0.00
125, 8739.87, 324.37, -11523.13, 4354.81, 8814.59, -25935.13, -37042.14, -52998.38, 0.00, 0.00, 0.00
126, 8740.11, 323.47, -11522.68, 4353.92, 8814.81, -25936.29, -37043.07, -52996.70, 0.00, 0.00, 0.00
129, 8739.38, 324.41, -11521.94, 4352.96, 8814.05, -25936.99, -37040.13, -52991.16, 0.00, 0.00, 0.00
130, 8740.58, 325.58, -11520.78, 4352.15, 8815.55, -25936.87, -37039.16, -52990.66, 0.00, 0.00, 0.00
131, 8742.37, 325.96, -11519.60, 4352.58, 8817.36, -25937.05, -37039.99, -52989.73, 0.00, 0.00, 0.00
132, 8743.58, 325.24, -11519.33, 4352.47, 8816.96, -25937.03, -37042.58, -52989.37, 0.00, 0.00, 0.00
133, 8742.42, 322.40, -11521.36, 4350.12, 8815.26, -25938.53, -37045.29, -52990.55, 0.00, 0.00, 0.00
134, 8741.68, 321.44, -11520.78, 4348.76, 8814.99, -25939.69, -37046.88, -52991.09, 0.00, 0.00, 0.00
135, 8741.41, 320.03, -11519.44, 4349.52, 8814.99, -25939.62, -37048.06, -52990.31, 0.00, 0.00, 0.00
136, 8742.48, 321.46, -11517.34, 4351.24, 8816.33, -25939.65, -37048.62, -52989.79, 0.00, 0.00, 0.00
137, 8743.87, 323.23, -11515.86, 4352.02, 8818.17, -25939.00, -37045.36, -52989.03, 0.04, -0.00, 0.96
138, 8744.23, 322.11, -11516.74, 4352.80, 8818.23, -25940.74, -37045.33, -52989.52, 0.00, 0.00, 0.00
139, 8742.73, 320.66, -11517.47, 4351.30, 8817.36, -25942.26, -37047.59, -52990.51, 0.00, 0.00, 0.00
140, 8741.21, 321.89, -11517.88, 4351.06, 8815.06, -25943.20, -37049.98, -52989.77, 0.00, 0.00, 0.00
141, 8737.94, 322.51, -11519.24, 4350.16, 8813.09, -25943.13, -37050.96, -52989.10, 0.00, 0.00, 0.00
142, 8737.54, 322.18, -11520.89, 4349.45, 8813.43, -25943.51, -37050.25, -52988.36, 0.00, 0.00, 0.00
143, 8737.36, 321.89, -11522.08, 4349.74, 8814.79, -25943.96, -37049.18, -52986.82, 0.00, 0.00, 0.00
144, 8738.21, 321.35, -11520.78, 4350.12, 8815.08, -25944.21, -37049.40, -52985.10, 0.00, 0.00, 0.00
145, 8739.49, 321.17, -11519.33, 4351.84, 8814.16, -25944.43, -37049.11, -52983.94, 0.00, 0.00, 0.00
146, 8739.71, 320.55, -11520.42, 4350.68, 8812.55, -25945.12, -37049.78, -52983.76, 0.00, 0.00, 0.00
147, 8739.87, 320.21, -11521.47, 4349.90, 8812.47, -25944.03, -37048.55, -52983.49, 0.03, -0.01, 0.97
148, 8739.29, 319.85, -11521.59, 4350.16, 8814.59, -25943.31, -37046.81, -52983.73, 0.00, 0.00, 0.00
149, 8736.60, 320.86, -11523.29, 4347.10, 8816.20, -25944.38, -37047.86, -52984.99, 0.00, 0.00, 0.00
150, 8736.54, 320.50, -11524.13, 4345.09, 8818.61, -25943.76, -37048.39, -52986.29, 0.00, 0.00, 0.00
151, 8736.58, 320.68, -11523.11, 4345.56, 8820.67, -25942.91, -37049.69, -52985.97, 0.00, 0.00, 0.00
152, 8735.26, 320.66, -11522.88, 4345.13, 8822.12, -25942.93, -37050.68, -52987.22, 0.00, 0.00, 0.00
153, 8733.68, 322.74, -11522.59, 4346.36, 8823.44, -25942.10, -37050.00, -52986.57, 0.00, 0.00, 0.00
154, 8733.68, 323.79, -11522.53, 4347.57, 8824.16, -25941.99, -37049.63, -52986.80, 0.00, 0.00, 0.00
155, 8733.05, 324.06, -11523.15, 4349.05, 8824.09, -25941.99, -37049.42, -52988.32, 0.00, 0.00, 0.00
156, 8731.51, 324.19, -11525.99, 4351.06, 8824.71, -25942.60, -37049.67, -52989.99, 0.00, 0.00, 0.00
157, 8730.32, 322.47, -11529.32, 4352.13, 8822.79, -25943.27, -37050.63, -52992.00, 0.03, -0.01, 0.96
158, 8731.04, 320.35, -11531.31, 4351.64, 8821.38, -25944.25, -37051.99, -52993.61, 0.00, 0.00, 0.00
159, 8732.58, 319.47, -11532.09, 4350.01, 8821.18, -25945.39, -37052.42, -52994.78, 0.00, 0.00, 0.00
160, 8732.51, 318.83, -11531.76, 4349.05, 8819.04, -25945.44, -37052.11, -52997.50, 0.00, 0.00, 0.00
161, 8735.04, 319.03, -11531.09, 4349.87, 8818.75, -25945.05, -37051.46, -52997.75, 0.00, 0.00, 0.00
162, 8736.67, 319.67, -11531.20, 4350.95, 8820.02, -25945.14, -37051.75, -52996.68, 0.00, 0.00, 0.00
163, 8735.62, 321.11, -11531.73, 4352.49, 8820.53, -25944.70, -37052.53, -52997.48, 0.00, 0.00, 0.00
164, 8735.49, 320.61, -11531.44, 4354.43, 8820.18, -25944.50, -37051.84, -52997.86, 0.00, 0.00, 0.00
165, 8734.46, 318.42, -11532.52, 4353.43, 8819.19, -25944.67, -37052.13, -52999.32, 0.00, 0.00, 0.00
166, 8734.53, 317.19, -11532.47, 4352.20, 8820.45, -25944.25, -37051.41, -52998.53, 0.00, 0.00, 0.00
167, 8736.04, 316.32, -11531.38, 4352.71, 8821.32, -25944.21, -37050.65, -52997.75, 0.03, -0.00, 0.96
168, 8737.10, 317.31, -11529.86, 4353.99, 8822.59, -25943.45, -37049.85, -52998.09, 0.00, 0.00, 0.00
169, 8739.98, 318.18, -11527.26, 4355.53, 8826.10, -25941.50, -37048.98, -52997.30, 0.00, 0.00, 0.00
170, 8741.28, 318.67, -11526.44, 4355.48, 8828.89, -25940.45, -37047.75, -52997.62, 0.00, 0.00, 0.00
171, 8740.56, 319.88, -11527.71, 4355.62, 8829.97, -25940.34, -37047.21, -52996.81, 0.00, 0.00, 0.00
172, 8739.26, 320.59, -11529.12, 4354.37, 8831.24, -25941.59, -37047.70, -52997.41, 0.00, 0.00, 0.00
173, 8737.72, 318.38, -11530.42, 4353.00, 8830.97, -25943.58, -37049.40, -52999.14, 0.00, 0.00, 0.00
174, 8737.88, 316.86, -11530.10, 4352.18, 8832.09, -25941.72, -37049.27, -52998.60, 0.00, 0.00, 0.00
175, 8739.73, 317.44, -11529.34, 4352.04, 8832.74, -25938.77, -37048.39, -52996.99, 0.00, 0.00, 0.00
176, 8740.54, 317.80, -11529.52, 4350.79, 8832.47, -25937.75, -37046.68, -52994.00, 0.00, 0.00, 0.00
177, 8740.85, 319.38, -11527.75, 4350.01, 8833.83, -25936.90, -37046.00, -52992.16, 0.03, -0.00, 0.97
178, 8740.34, 318.83, -11528.81, 4349.83, 8834.26, -25937.07, -37045.73, -52991.60, 0.00, 0.00, 0.00
179, 8739.55, 318.36, -11529.75, 4349.60, 8834.82, -25937.12, -37045.58, -52992.25, 0.00, 0.00, 0.00
180, 8737.72, 318.29, -11530.35, 4349.47, 8836.00, -25937.03, -37046.36, -52993.39, 0.00, 0.00, 0.00
181, 8735.40, 318.89, -11532.14, 4348.17, 8835.64, -25937.90, -37048.91, -52994.91, 0.00, 0.00, 0.00
182, 8735.08, 319.18, -11533.10, 4347.57, 8836.02, -25937.92, -37049.56, -52994.84, 0.00, 0.00, 0.00
183, 8735.53, 316.97, -11533.48, 4345.80, 8835.22, -25937.54, -37049.51, -52994.11, 0.00, 0.00, 0.00
196, 8735.87, 316.57, -11523.58, 4348.02, 8844.99, -25934.59, -37051.97, -52986.51, 0.00, 0.00, 0.00
185, 8734.93, 315.81, -11530.75, 4349.07, 8836.05, -25934.82, -37047.81, -52992.12, 0.00, 0.00, 0.00
186, 8734.59, 315.85, -11532.23, 4347.91, 8835.93, -25933.52, -37045.04, -52990.87, 0.00, 0.00, 0.00
191, 8732.13, 316.55, -11534.82, 4347.73, 8840.45, -25934.46, -37052.29, -52988.59, 0.00, 0.00, 0.00
188, 8733.27, 316.57, -11534.44, 4346.05, 8838.68, -25933.90, -37047.88, -52988.72, 0.02, -0.01, 0.97
194, 8734.35, 317.01, -11526.41, 4350.90, 8843.96, -25934.97, -37052.04, -52987.85, 0.00, 0.00, 0.00
205, 8734.30, 315.03, -11518.28, 4348.49, 8846.35, -25939.80, -37054.59, -52988.74, 0.00, 0.00, 0.00
212, 8737.16, 320.88, -11513.29, 4351.82, 8853.64, -25933.77, -37048.35, -52981.75, 0.00, 0.00, 0.00
232, 8742.30, 319.21, -11513.18, 4346.05, 8854.78, -25938.55, -37057.13, -52973.72, 0.00, 0.00, 0.00
230, 8743.15, 318.24, -11513.03, 4346.90, 8854.04, -25939.29, -37057.00, -52975.80, 0.00, 0.00, 0.00
210, 8737.68, 322.69, -11510.75, 4350.28, 8853.75, -25934.82, -37049.25, -52982.26, 0.00, 0.00, 0.00
201, 8736.72, 313.57, -11514.21, 4349.36, 8849.06, -25938.62, -37051.68, -52982.95, 0.00, 0.00, 0.00
206, 8733.94, 316.70, -11518.73, 4347.88, 8847.56, -25941.01, -37055.30, -52988.56, 0.00, 0.00, 0.00
207, 8734.59, 318.49, -11516.31, 4347.17, 8849.64, -25941.28, -37054.07, -52986.93, 0.00, 0.00, 0.00
241, 8736.38, 321.57, -11511.86, 4346.27, 8863.34, -25943.36, -37047.55, -52968.92, 0.00, 0.00, 0.00
213, 8736.00, 318.94, -11514.43, 4350.63, 8851.58, -25934.82, -37048.55, -52983.00, 0.00, 0.00, 0.00
226, 8742.57, 319.85, -11509.18, 4352.11, 8853.26, -25937.90, -37050.86, -52975.13, 0.00, 0.00, 0.00
2, 8737.83, 320.35, -11511.93, 4345.00, 8868.41, -25953.26, -37052.64, -52971.93, 0.02, -0.00, 0.97
239, 8735.58, 320.32, -11514.86, 4344.96, 8862.44, -25945.68, -37051.37, -52973.72, 0.00, 0.00, 0.00
224, 8739.78, 318.58, -11513.72, 4350.39, 8850.80, -25940.96, -37050.63, -52976.07, 0.00, 0.00, 0.00
30, 8737.14, 316.05, -11518.84, 4338.67, 8871.92, -25959.92, -37064.96, -52970.30, 0.00, 0.00, 0.00
254, 8740.43, 317.77, -11514.86, 4345.94, 8865.24, -25951.54, -37052.38, -52977.41, 0.00, 0.00, 0.00
222, 8739.06, 318.36, -11514.32, 4349.65, 8848.70, -25942.80, -37048.84, -52975.29, 0.00, 0.00, 0.00
28, 8739.33, 318.71, -11516.15, 4340.95, 8872.59, -25956.70, -37060.78, -52968.58, 0.00, 0.00, 0.00
252, 8741.32, 320.68, -11514.68, 4346.92, 8866.02, -25949.05, -37052.22, -52981.77, 0.00, 0.00, 0.00
7, 8741.79, 315.74, -11515.86, 4341.27, 8867.96, -25952.03, -37054.86, -52966.91, 0.00, 0.00, 0.00
26, 8739.08, 318.94, -11517.43, 4342.79, 8872.77, -25957.24, -37059.28, -52967.73, 0.00, 0.00, 0.00
5, 8739.96, 315.45, -11516.18, 4343.30, 8868.48, -25952.61, -37054.36, -52967.84, 0.00, 0.00, 0.00
24, 8735.51, 319.94, -11518.21, 4339.35, 8872.17, -25957.21, -37058.52, -52965.95, 0.00, 0.00, 0.00
3, 8739.29, 319.65, -11512.38, 4345.76, 8869.91, -25952.47, -37052.46, -52970.05, 0.00, 0.00, 0.00
22, 8735.91, 319.43, -11519.55, 4336.89, 8870.58, -25956.90, -37059.73, -52967.13, 0.00, 0.00, 0.00
13, 8740.29, 320.77, -11518.05, 4340.10, 8869.02, -25954.87, -37058.88, -52964.49, 0.00, 0.00, 0.00
14, 8737.10, 320.01, -11518.86, 4340.28, 8867.83, -25955.22, -37060.27, -52963.93, 0.00, 0.00, 0.00
20, 8737.50, 318.38, -11517.00, 4339.55, 8871.14, -25957.17, -37059.32, -52964.94, 0.00, 0.00, 0.00
16, 8738.39, 317.71, -11518.55, 4339.66, 8867.92, -25954.31, -37060.35, -52962.84, 0.00, 0.00, 0.00
17, 8738.93, 317.60, -11517.54, 4340.78, 8868.97, -25954.08, -37058.57, -52962.84, 0.00, 0.00, 0.00
18, 8739.26, 318.76, -11516.80, 4340.84, 8870.36, -25955.94, -37057.63, -52964.36, 0.00, 0.00, 0.00
31, 8735.35, 315.85, -11519.87, 4338.38, 8872.55, -25962.60, -37065.70, -52970.59, 0.00, 0.00, 0.00
32, 8733.81, 316.23, -11519.87, 4337.11, 8873.71, -25963.81, -37065.94, -52969.92, 0.00, 0.00, 0.00
46, 8744.58, 319.36, -11522.23, 4333.82, 8890.65, -25964.61, -37070.01, -52969.77, 0.00, 0.00, 0.00
34, 8734.59, 317.82, -11518.73, 4337.87, 8875.27, -25961.95, -37065.16, -52969.41, 0.00, 0.00, 0.00
35, 8735.75, 318.24, -11519.28, 4336.24, 8877.42, -25961.10, -37066.01, -52969.07, 0.00, 0.00, 0.00
44, 8744.43, 319.83, -11521.63, 4334.61, 8890.21, -25963.38, -37069.07, -52964.54, 0.00, 0.00, 0.00
64, 8746.48, 322.87, -11523.20, 4338.45, 8891.08, -25965.17, -37076.58, -52976.16, 0.00, 0.00, 0.00
62, 8743.31, 321.89, -11525.43, 4338.88, 8890.05, -25967.56, -37077.16, -52975.55, 0.00, 0.00, 0.00
39, 8740.18, 319.03, -11523.20, 4333.20, 8883.54, -25963.72, -37071.46, -52969.86, 0.00, 0.00, 0.00
60, 8745.79, 322.83, -11523.91, 4337.18, 8893.25, -25965.30, -37074.46, -52974.01, 0.00, 0.00, 0.00
47, 8745.03, 318.15, -11522.30, 4332.08, 8892.44, -25964.57, -37071.71, -52969.65, 0.00, 0.00, 0.00
48, 8745.10, 319.16, -11521.74, 4333.02, 8893.63, -25963.27, -37072.47, -52969.99, 0.00, 0.00, 0.00
58, 8744.32, 320.84, -11523.55, 4334.09, 8894.79, -25964.28, -37074.88, -52974.01, 0.00, 0.00, 0.00
50, 8746.53, 317.75, -11518.77, 4333.78, 8894.34, -25961.42, -37074.26, -52969.18, 0.00, 0.00, 0.00
51, 8746.39, 316.84, -11519.02, 4332.84, 8893.63, -25960.05, -37076.00, -52970.70, 0.00, 0.00, 0.00
52, 8746.30, 316.99, -11520.76, 4332.95, 8894.00, -25959.54, -37077.45, -52971.33, 0.00, 0.00, 0.00
56, 8742.64, 318.31, -11525.79, 4332.37, 8890.90, -25964.99, -37079.24, -52975.24, 0.00, 0.00, 0.00
54, 8743.73, 317.22, -11522.53, 4331.92, 8890.54, -25961.37, -37080.13, -52974.39, 0.00, 0.00, 0.00
65, 8750.91, 324.35, -11520.83, 4337.94, 8892.28, -25962.80, -37074.77, -52974.71, 0.00, 0.00, 0.00
86, 8747.00, 315.14, -11539.89, 4335.75, 8893.29, -25971.14, -37048.82, -52975.67, 0.00, 0.00, 0.00
67, 8752.09, 324.84, -11519.08, 4336.17, 8893.94, -25960.25, -37077.54, -52973.90, 0.00, 0.00, 0.00
68, 8751.02, 323.70, -11520.74, 4335.55, 8893.00, -25959.09, -37078.46, -52973.45, 0.00, 0.00, 0.00
84, 8749.50, 314.89, -11535.11, 4339.37, 8895.61, -25967.94, -37054.36, -52976.40, 0.00, 0.00, 0.00
70, 8749.66, 320.52, -11523.82, 4336.75, 8892.93, -25961.91, -37079.46, -52974.37, 0.00, 0.00, 0.00
80, 8742.57, 316.81, -11530.95, 4339.50, 8894.79, -25968.05, -37066.34, -52975.40, 0.00, 0.00, 0.00
72, 8749.46, 322.83, -11526.19, 4340.17, 8890.70, -25962.67, -37080.67, -52972.94, 0.00, 0.00, 0.00
78, 8743.26, 315.81, -11532.87, 4338.45, 8891.86, -25970.07, -37071.13, -52976.11, 0.00, 0.00, 0.00
74, 8748.47, 323.90, -11525.74, 4343.41, 8892.26, -25964.10, -37076.56, -52971.31, 0.00, 0.00, 0.00
75, 8747.27, 320.77, -11527.15, 4342.94, 8891.72, -25964.30, -37074.52, -52971.57, 0.00, 0.00, 0.00
98, 8755.65, 319.36, -11536.90, 4336.13, 8898.50, -25968.59, -37025.21, -52974.06, 0.00, 0.00, 0.00
87, 8747.22, 314.11, -11539.98, 4336.82, 8892.37, -25972.37, -37047.72, -52975.46, 0.00, 0.00, 0.00
88, 8747.56, 315.34, -11539.36, 4338.18, 8891.99, -25971.88, -37047.34, -52974.73, 0.00, 0.00, 0.00
89, 8749.95, 315.72, -11537.17, 4338.61, 8891.93, -25969.75, -37044.75, -52973.81, 0.00, 0.00, 0.00
96, 8753.43, 318.58, -11540.36, 4336.17, 8895.35, -25968.30, -37030.29, -52975.84, 0.00, 0.00, 0.00
91, 8753.21, 316.88, -11535.06, 4336.42, 8891.70, -25967.03, -37038.20, -52973.45, 0.00, 0.00, 0.00
92, 8755.09, 316.97, -11535.91, 4334.79, 8891.93, -25966.71, -37035.95, -52974.77, 0.00, 0.00, 0.00
93, 8754.42, 315.54, -11539.58, 4333.15, 8890.41, -25968.41, -37035.88, -52975.80, 0.02, -0.00, 0.96
94, 8754.71, 316.39, -11540.23, 4334.18, 8890.85, -25970.47, -37034.52, -52976.27, 0.00, 0.00, 0.00
116, 8752.32, 326.27, -11533.54, 4342.23, 8894.61, -25965.02, -37001.37, -52977.12, 0.00, 0.00, 0.00
110, 8746.93, 319.03, -11536.18, 4336.62, 8892.02, -25970.33, -37007.98, -52985.16, 0.00, 0.00, 0.00
101, 8754.69, 318.67, -11536.41, 4334.09, 8896.17, -25970.42, -37021.21, -52969.74, 0.00, 0.00, 0.00
102, 8754.71, 316.61, -11536.94, 4333.29, 8894.65, -25970.96, -37020.46, -52970.26, 0.00, 0.00, 0.00
114, 8751.69, 325.93, -11532.63, 4341.29, 8893.74, -25966.83, -37002.24, -52979.69, 0.02, -0.00, 0.97
106, 8754.62, 316.93, -11531.58, 4336.64, 8895.17, -25970.45, -37009.23, -52972.18, 0.00, 0.00, 0.00
111, 8747.60, 320.93, -11536.12, 4336.19, 8891.70, -25969.75, -37006.46, -52983.71, 0.00, 0.00, 0.00
129, 8744.92, 320.81, -11535.33, 4339.32, 8900.08, -25973.80, -36986.53, -52979.40, 0.00, 0.00, 0.00
127, 8745.52, 320.17, -11539.02, 4339.79, 8897.92, -25975.54, -36989.25, -52976.47, 0.00, 0.00, 0.00
121, 8752.25, 318.53, -11536.76, 4341.51, 8902.05, -25971.88, -36994.48, -52975.69, 0.00, 0.00, 0.00
119, 8751.94, 321.37, -11538.01, 4338.81, 8897.42, -25971.14, -36998.15, -52977.25, 0.00, 0.00, 0.00
125, 8746.21, 318.49, -11538.10, 4341.45, 8900.35, -25976.75, -36990.17, -52974.30, 0.00, 0.00, 0.00
123, 8751.36, 318.49, -11536.76, 4340.75, 8904.15, -25974.02, -36991.27, -52973.34, 0.00, 0.00, 0.00
130, 8745.63, 322.49, -11534.42, 4338.76, 8902.27, -25973.15, -36983.11, -52979.76, 0.00, 0.00, 0.00
131, 8745.75, 322.40, -11534.93, 4338.12, 8901.94, -25973.20, -36982.12, -52979.85, 0.00, 0.00, 0.00
132, 8746.10, 319.27, -11536.50, 4337.11, 8901.81, -25975.14, -36982.26, -52980.27, 0.00, 0.00, 0.00
133, 8744.74, 316.70, -11538.13, 4335.08, 8900.04, -25978.36, -36984.96, -52982.17, 0.00, 0.00, 0.00
134, 8743.04, 316.88, -11539.36, 4334.25, 8900.53, -25978.63, -36985.05, -52981.97, 0.02, -0.00, 0.96
135, 8741.90, 316.37, -11539.13, 4336.04, 8900.91, -25978.25, -36982.32, -52979.62, 0.00, 0.00, 0.00
136, 8741.43, 316.70, -11538.69, 4337.18, 8901.96, -25976.44, -36979.44, -52977.97, 0.00, 0.00, 0.00
137, 8743.20, 318.04, -11537.25, 4338.50, 8904.91, -25975.97, -36977.83, -52976.67, 0.00, 0.00, 0.00
138, 8742.84, 319.05, -11537.19, 4338.00, 8906.14, -25977.17, -36978.23, -52976.40, 0.00, 0.00, 0.00
139, 8743.42, 320.03, -11538.35, 4337.15, 8907.80, -25977.08, -36979.42, -52977.25, 0.00, 0.00, 0.00
140, 8745.63, 319.81, -11538.51, 4335.43, 8909.56, -25978.04, -36979.02, -52977.19, 0.00, 0.00, 0.00
141, 8746.30, 318.18, -11539.47, 4333.44, 8909.70, -25981.80, -36978.21, -52976.67, 0.00, 0.00, 0.00
142, 8746.44, 317.75, -11540.21, 4334.11, 8908.78, -25983.03, -36976.18, -52976.40, 0.00, 0.00, 0.00
143, 8747.22, 316.39, -11540.18, 4334.20, 8908.98, -25982.54, -36976.85, -52978.04, 0.00, 0.00, 0.00
144, 8748.58, 315.76, -11539.85, 4334.41, 8910.72, -25982.87, -36976.58, -52979.20, 0.03, -0.00, 0.97
145, 8749.90, 315.38, -11539.40, 4335.14, 8913.52, -25982.61, -36973.85, -52976.52, 0.00, 0.00, 0.00
146, 8751.07, 315.85, -11538.73, 4337.13, 8914.81, -25982.27, -36972.55, -52975.49, 0.00, 0.00, 0.00
147, 8751.58, 316.88, -11539.65, 4339.50, 8915.40, -25982.31, -36970.77, -52974.50, 0.00, 0.00, 0.00
148, 8750.39, 316.48, -11540.74, 4339.46, 8915.42, -25982.38, -36970.95, -52974.79, 0.00, 0.00, 0.00
149, 8748.90, 315.14, -11542.57, 4338.72, 8914.48, -25983.39, -36973.23, -52975.24, 0.00, 0.00, 0.00
150, 8748.50, 314.58, -11542.11, 4339.61, 8912.94, -25985.15, -36973.54, -52973.79, 0.00, 0.00, 0.00
151, 8748.65, 313.91, -11541.64, 4339.75, 8911.82, -25987.23, -36973.85, -52971.55, 0.00, 0.00, 0.00
152, 8748.94, 313.84, -11543.27, 4337.67, 8911.66, -25987.95, -36973.54, -52971.78, 0.00, 0.00, 0.00
153, 8748.83, 315.14, -11543.83, 4336.75, 8912.80, -25986.52, -36971.97, -52970.30, 0.00, 0.00, 0.00
154, 8748.65, 315.70, -11544.94, 4335.32, 8913.00, -25986.38, -36970.84, -52968.92, 0.02, -0.00, 0.97
155, 8749.10, 317.64, -11544.61, 4335.81, 8913.63, -25986.03, -36969.61, -52968.40, 0.00, 0.00, 0.00
156, 8749.84, 318.83, -11543.54, 4334.90, 8913.74, -25985.24, -36969.94, -52968.74, 0.00, 0.00, 0.00
157, 8748.20, 316.90, -11545.73, 4333.80, 8911.84, -25986.58, -36972.40, -52970.77, 0.00, 0.00, 0.00
158, 8747.67, 316.08, -11546.96, 4333.69, 8911.39, -25987.14, -36973.67, -52973.03, 0.00, 0.00, 0.00
159, 8747.65, 317.39, -11546.62, 4332.30, 8911.51, -25988.53, -36975.57, -52973.39, 0.00, 0.00, 0.00
160, 8746.48, 318.18, -11543.96, 4331.95, 8912.94, -25990.09, -36974.86, -52972.71, 0.00, 0.00, 0.00
161, 8747.22, 319.09, -11541.08, 4334.00, 8915.64, -25988.37, -36973.23, -52970.84, 0.00, 0.00, 0.00
162, 8748.09, 321.42, -11541.30, 4333.65, 8918.12, -25988.73, -36972.45, -52971.26, 0.00, 0.00, 0.00
163, 8748.32, 322.04, -11542.08, 4333.00, 8919.33, -25989.54, -36973.18, -52971.71, 0.00, 0.00, 0.00
164, 8747.04, 319.61, -11542.19, 4333.09, 8920.02, -25988.73, -36973.58, -52972.94, 0.02, -0.01, 0.97
165, 8746.91, 317.91, -11543.63, 4329.67, 8920.65, -25990.07, -36974.52, -52974.82, 0.00, 0.00, 0.00
166, 8745.95, 318.13, -11543.58, 4328.15, 8920.74, -25990.45, -36972.29, -52974.84, 0.00, 0.00, 0.00
167, 8745.39, 318.29, -11544.00, 4326.85, 8919.66, -25989.89, -36971.62, -52975.02, 0.00, 0.00, 0.00
168, 8745.43, 317.60, -11544.07, 4325.38, 8919.87, -25990.65, -36970.70, -52974.95, 0.00, 0.00, 0.00
169, 8746.28, 317.24, -11544.43, 4325.44, 8920.80, -25991.28, -36969.09, -52973.68, 0.00, 0.00, 0.00
170, 8745.46, 317.64, -11545.77, 4325.91, 8922.28, -25990.41, -36968.31, -52971.60, 0.00, 0.00, 0.00
171, 8744.90, 318.49, -11545.59, 4327.43, 8923.93, -25989.33, -36968.38, -52969.05, 0.00, 0.00, 0.00
172, 8745.08, 319.81, -11545.77, 4327.21, 8924.34, -25990.05, -36970.72, -52967.75, 0.00, 0.00, 0.00
173, 8745.25, 318.94, -11547.38, 4326.31, 8922.32, -25991.17, -36971.50, -52968.25, 0.00, 0.00, 0.00
174, 8746.13, 316.68, -11546.91, 4325.20, 8921.14, -25990.99, -36970.43, -52965.86, 0.02, -0.01, 0.98
175, 8746.33, 314.78, -11546.55, 4323.56, 8920.51, -25991.41, -36968.84, -52962.99, 0.00, 0.00, 0.00
176, 8746.04, 314.06, -11545.59, 4323.14, 8921.43, -25991.70, -36966.68, -52960.71, 0.00, 0.00, 0.00
177, 8748.23, 315.58, -11544.74, 4323.50, 8922.79, -25990.52, -36964.44, -52960.09, 0.00, 0.00, 0.00
178, 8749.01, 316.52, -11545.39, 4322.94, 8924.25, -25989.02, -36964.17, -52960.07, 0.00, 0.00, 0.00
179, 8749.50, 317.64, -11547.34, 4322.80, 8926.24, -25987.95, -36966.12, -52961.41, 0.00, 0.00, 0.00
193, 8748.47, 321.95, -11546.55, 4331.19, 8932.03, -25985.15, -36968.02, -52970.08, 0.00, 0.00, 0.00
181, 8747.15, 318.98, -11549.86, 4321.44, 8925.52, -25991.41, -36970.43, -52966.28, 0.00, 0.00, 0.00
182, 8746.95, 317.71, -11549.95, 4319.99, 8924.85, -25993.27, -36971.48, -52967.98, 0.00, 0.00, 0.00
183, 8746.82, 318.20, -11550.91, 4319.88, 8923.93, -25994.50, -36971.06, -52966.43, 0.00, 0.00, 0.00
196, 8749.30, 324.90, -11545.32, 4334.99, 8933.43, -25984.37, -36966.75, -52970.93, 0.00, 0.00, 0.00
194, 8749.23, 323.23, -11545.28, 4332.57, 8933.54, -25985.78, -36967.08, -52969.52, 0.00, 0.00, 0.00
197, 8748.47, 323.63, -11545.82, 4334.16, 8933.10, -25986.18, -36969.18, -52971.29, 0.00, 0.00, 0.00
198, 8747.87, 321.84, -11545.64, 4334.52, 8933.70, -25988.10, -36970.39, -52972.87, 0.00, 0.00, 0.00
214, 8752.47, 311.72, -11553.21, 4334.92, 8938.66, -25996.13, -36967.19, -52972.83, 0.00, 0.00, 0.00
200, 8751.18, 322.33, -11546.89, 4335.52, 8934.19, -25992.55, -36971.93, -52972.65, 0.00, 0.00, 0.00
215, 8752.67, 310.73, -11552.97, 4332.55, 8938.93, -25997.51, -36966.48, -52971.66, 0.03, 0.00, 0.96
216, 8752.00, 310.44, -11551.54, 4331.03, 8938.46, -25998.86, -36967.59, -52970.55, 0.00, 0.00, 0.00
217, 8753.08, 311.94, -11549.15, 4330.31, 8939.67, -25998.19, -36968.38, -52970.75, 0.00, 0.00, 0.00
218, 8753.59, 312.28, -11549.57, 4330.18, 8939.98, -25998.92, -36968.15, -52971.91, 0.00, 0.00, 0.00
219, 8753.48, 311.67, -11548.07, 4330.49, 8940.50, -25999.08, -36967.41, -52970.77, 0.00, 0.00, 0.00
220, 8753.86, 312.99, -11546.89, 4331.83, 8939.89, -25996.84, -36966.23, -52970.14, 0.00, 0.00, 0.00
251, 8750.84, 311.09, -11550.00, 4328.55, 8949.55, -25987.75, -36956.21, -52964.45, 0.00, 0.00, 0.00
222, 8755.22, 312.66, -11547.60, 4333.00, 8939.49, -25995.21, -36967.77, -52967.57, 0.00, 0.00, 0.00
223, 8755.16, 313.48, -11547.92, 4333.56, 8940.67, -25996.93, -36967.48, -52965.41, 0.00, 0.00, 0.00
224, 8753.68, 313.55, -11548.16, 4333.80, 8941.50, -25997.67, -36967.23, -52964.89, 0.00, 0.00, 0.00
225, 8754.57, 312.99, -11546.24, 4334.20, 8942.15, -25994.99, -36966.50, -52964.00, 0.03, 0.00, 0.97
252, 8752.74, 311.90, -11550.40, 4330.11, 8948.95, -25987.77, -36955.32, -52966.73, 0.00, 0.00, 0.00
253, 8751.40, 309.44, -11551.65, 4329.85, 8947.63, -25989.47, -36954.79, -52967.78, 0.00, 0.00, 0.00
254, 8751.85, 309.15, -11552.36, 4329.78, 8948.48, -25988.62, -36955.70, -52967.29, 0.00, 0.00, 0.00
255, 8751.96, 310.42, -11552.52, 4330.52, 8948.99, -25988.93, -36956.04, -52967.42, 0.02, -0.01, 0.97
0, 8751.85, 311.49, -11551.31, 4331.28, 8949.44, -25988.93, -36956.37, -52967.87, 0.00, 0.00, 0.00
1, 8752.43, 313.51, -11550.89, 4333.44, 8951.58, -25987.66, -36955.46, -52966.39, 0.00, 0.00, 0.00
2, 8753.84, 312.95, -11550.73, 4334.58, 8952.61, -25987.86, -36958.16, -52965.99, 0.00, 0.00, 0.00
3, 8755.16, 311.85, -11552.25, 4334.20, 8953.46, -25988.35, -36962.27, -52965.43, 0.00, 0.00, 0.00
4, 8753.64, 310.87, -11554.22, 4332.33, 8952.97, -25988.75, -36965.11, -52964.16, 0.00, 0.00, 0.00
5, 8751.13, 308.14, -11555.85, 4329.56, 8951.02, -25990.21, -36967.73, -52965.77, 0.00, 0.00, 0.00
6, 8751.58, 306.24, -11556.70, 4326.38, 8950.67, -25989.31, -36969.09, -52968.00, 0.00, 0.00, 0.00
7, 8750.44, 305.21, -11557.80, 4324.44, 8949.64, -25987.08, -36970.36, -52971.11, 0.00, 0.00, 0.00
8, 8749.95, 304.45, -11558.18, 4324.48, 8949.91, -25986.72, -36969.79, -52970.55, 0.00, 0.00, 0.00
9, 8749.30, 304.68, -11557.46, 4325.98, 8951.31, -25985.62, -36969.07, -52968.27, 0.03, -0.01, 0.97
10, 8747.76, 304.56, -11557.73, 4326.58, 8951.63, -25984.35, -36969.36, -52967.57, 0.00, 0.00, 0.00
11, 8747.85, 304.05, -11557.97, 4326.47, 8951.83, -25984.28, -36970.39, -52967.24, 0.00, 0.00, 0.00
12, 8747.80, 303.83, -11557.10, 4328.30, 8951.74, -25984.44, -36971.89, -52966.46, 0.00, 0.00, 0.00
13, 8745.88, 302.22, -11557.62, 4329.18, 8951.18, -25985.58, -36975.26, -52966.68, 0.00, 0.00, 0.00
30, 8753.39, 311.14, -11554.06, 4331.72, 8956.32, -25984.71, -37002.55, -52978.82, 0.03, -0.01, 0.96
25, 8754.02, 311.67, -11551.96, 4335.55, 8957.28, -25988.02, -36995.55, -52978.95, 0.00, 0.00, 0.00
16, 8750.08, 305.12, -11555.45, 4330.45, 8950.89, -25988.53, -36979.51, -52970.82, 0.00, 0.00, 0.00
28, 8754.24, 310.33, -11553.88, 4333.91, 8955.23, -25985.89, -36998.17, -52978.75, 0.00, 0.00, 0.00
18, 8753.12, 305.46, -11554.35, 4331.46, 8952.88, -25989.63, -36983.44, -52973.97, 0.00, 0.00, 0.00
19, 8753.81, 304.90, -11553.86, 4330.11, 8952.97, -25990.27, -36985.07, -52973.88, 0.00, 0.00, 0.00
26, 8755.69, 309.62, -11551.65, 4335.68, 8955.92, -25986.56, -36996.41, -52977.63, 0.00, 0.00, 0.00
31, 8752.03, 310.78, -11552.81, 4333.06, 8956.75, -25982.81, -37003.96, -52978.86, 0.00, 0.00, 0.00
32, 8750.62, 310.09, -11550.64, 4333.02, 8957.68, -25982.09, -37005.70, -52978.73, 0.00, 0.00, 0.00
33, 8750.31, 310.49, -11549.62, 4331.61, 8958.20, -25981.00, -37008.16, -52977.12, 0.00, 0.00, 0.00
34, 8752.67, 311.00, -11549.91, 4330.16, 8958.89, -25981.09, -37011.40, -52977.39, 0.00, 0.00, 0.00
35, 8754.91, 312.19, -11549.06, 4329.18, 8960.28, -25980.68, -37012.99, -52977.34, 0.00, 0.00, 0.00
36, 8753.79, 311.49, -11549.55, 4328.06, 8960.01, -25980.97, -37015.05, -52978.15, 0.00, 0.00, 0.00
37, 8751.20, 309.35, -11551.27, 4325.46, 8959.47, -25981.80, -37019.92, -52979.78, 0.00, 0.00, 0.00
38, 8751.13, 308.12, -11552.88, 4324.66, 8959.58, -25981.49, -37022.18, -52981.77, 0.00, 0.00, 0.00
39, 8750.77, 308.63, -11552.03, 4326.76, 8960.17, -25980.64, -37022.67, -52982.80, 0.00, 0.00, 0.00
55, 8747.38, 299.76, -11544.43, 4328.82, 8966.94, -25978.81, -37040.91, -52972.87, 0.00, 0.00, 0.00
41, 8749.97, 310.00, -11545.82, 4330.90, 8965.20, -25979.81, -37021.15, -52979.24, 0.00, 0.00, 0.00
42, 8748.41, 308.88, -11544.94, 4330.31, 8965.22, -25979.14, -37020.48, -52977.97, 0.00, 0.00, 0.00
53, 8749.17, 301.55, -11544.99, 4325.93, 8966.54, -25979.95, -37041.40, -52976.56, 0.00, 0.00, 0.00
44, 8747.76, 304.86, -11545.10, 4327.61, 8965.15, -25978.69, -37024.19, -52980.38, 0.00, 0.00, 0.00
51, 8752.92, 302.87, -11544.59, 4330.78, 8968.15, -25979.90, -37036.19, -52972.83, 0.00, 0.00, 0.00
46, 8746.04, 302.04, -11550.04, 4324.53, 8965.42, -25979.19, -37030.80, -52978.37, 0.00, 0.00, 0.00
49, 8752.56, 301.82, -11549.33, 4329.60, 8966.09, -25981.20, -37033.35, -52976.00, 0.00, 0.00, 0.00
63, 8749.43, 296.07, -11543.92, 4326.60, 8972.66, -25980.48, -37051.50, -52969.56, 0.00, 0.00, 0.00
57, 8747.58, 300.14, -11542.62, 4327.36, 8967.77, -25978.76, -37042.34, -52971.53, 0.00, 0.00, 0.00
58, 8747.94, 301.28, -11540.92, 4327.52, 8967.79, -25978.58, -37043.68, -52970.93, 0.00, 0.00, 0.00
59, 8749.32, 301.93, -11538.44, 4327.54, 8968.15, -25978.09, -37044.98, -52968.29, 0.00, 0.00, 0.00
60, 8749.43, 301.10, -11539.00, 4326.65, 8970.04, -25978.34, -37047.81, -52965.96, 0.03, -0.00, 0.97
64, 8749.41, 297.14, -11543.63, 4326.76, 8973.91, -25980.17, -37051.73, -52968.83, 0.00, 0.00, 0.00
65, 8751.67, 300.56, -11543.00, 4327.68, 8975.88, -25978.25, -37050.50, -52966.19, 0.00, 0.00, 0.00
66, 8753.28, 301.53, -11542.87, 4329.29, 8976.75, -25978.13, -37051.52, -52966.52, 0.00, 0.00, 0.00
67, 8753.14, 301.28, -11543.36, 4329.73, 8976.30, -25978.02, -37053.43, -52968.25, 0.00, 0.00, 0.00
68, 8751.33, 301.32, -11544.81, 4328.26, 8976.10, -25980.04, -37053.58, -52969.63, 0.00, 0.00, 0.00
69, 8748.09, 299.76, -11546.93, 4327.52, 8974.22, -25982.79, -37054.12, -52970.75, 0.00, 0.00, 0.00
70, 8745.30, 299.16, -11549.62, 4327.95, 8974.43, -25982.58, -37055.46, -52970.37, 0.02, -0.01, 0.96
71, 8745.03, 299.20, -11549.82, 4329.62, 8975.34, -25980.91, -37056.80, -52969.07, 0.00, 0.00, 0.00
72, 8745.14, 299.69, -11550.31, 4329.60, 8975.43, -25979.41, -37056.78, -52967.46, 0.00, 0.00, 0.00
73, 8746.53, 300.94, -11550.15, 4331.41, 8976.19, -25978.25, -37055.57, -52965.18, 0.00, 0.00, 0.00
74, 8748.12, 301.03, -11550.96, 4332.42, 8977.49, -25978.25, -37054.61, -52963.29, 0.00, 0.00, 0.00
75, 8750.77, 301.35, -11549.97, 4333.47, 8978.76, -25978.69, -37055.50, -52961.77, 0.00, 0.00, 0.00
76, 8750.60, 302.73, -11548.68, 4333.80, 8978.00, -25980.13, -37059.50, -52963.98, 0.00, 0.00, 0.00
77, 8748.61, 302.62, -11549.41, 4332.82, 8975.92, -25982.11, -37062.97, -52965.88, 0.00, 0.00, 0.00
78, 8748.09, 301.03, -11549.95, 4332.73, 8974.56, -25982.47, -37063.91, -52965.36, 0.00, 0.00, 0.00
79, 8745.43, 297.50, -11548.83, 4332.55, 8974.87, -25981.94, -37065.05, -52964.51, 0.00, 0.00, 0.00
80, 8744.65, 296.18, -11547.94, 4332.64, 8974.61, -25981.13, -37065.23, -52963.26, 0.02, -0.00, 0.96
81, 8745.32, 298.19, -11546.49, 4331.97, 8974.29, -25980.04, -37065.16, -52959.08, 0.00, 0.00, 0.00
82, 8745.41, 298.02, -11545.28, 4332.24, 8974.09, -25981.06, -37067.10, -52957.02, 0.00, 0.00, 0.00
83, 8744.49, 295.91, -11546.24, 4334.29, 8974.76, -25981.80, -37068.07, -52956.36, 0.00, 0.00, 0.00
