%OpenBCI Raw EEG Data
%Sample Rate = 250.0 Hz
%First Column = SampleIndex
%Other Columns = EEG data in microvolts followed by Accel Data (in G) interleaved with Aux Data
145, 19328.98, 4182.75, -24890.99, 2595.89, -12497.24, -32733.53, -53989.05, -50235.05, 0.00, 0.00, 0.00
146, 19329.74, 4181.59, -24891.21, 2596.96, -12496.88, -32731.83, -53988.20, -50233.29, 0.00, 0.00, 0.00
147, 19330.82, 4182.86, -24892.02, 2595.40, -12496.84, -32730.51, -53987.53, -50232.55, 0.00, 0.00, 0.00
148, 19329.01, 4183.80, -24893.90, 2594.46, -12496.64, -32730.69, -53987.98, -50233.24, 0.00, 0.00, 0.00
149, 19327.33, 4182.84, -24896.29, 2592.94, -12497.04, -32731.80, -53991.33, -50237.20, 0.00, 0.00, 0.00
150, 19327.89, 4182.88, -24897.85, 2592.60, -12496.61, -32731.69, -53993.05, -50239.14, 0.03, -0.01, 0.97
151, 19328.58, 4183.93, -24897.65, 2593.72, -12495.88, -32730.62, -53992.89, -50238.47, 0.00, 0.00, 0.00
152, 19328.07, 4183.22, -24897.29, 2593.88, -12496.79, -32730.37, -53992.87, -50237.27, 0.00, 0.00, 0.00
153, 19329.50, 4183.02, -24895.84, 2593.23, -12497.04, -32729.64, -53992.92, -50236.35, 0.00, 0.00, 0.00
154, 19330.10, 4184.47, -24894.03, 2592.89, -12499.36, -32728.65, -53991.53, -50237.38, 0.00, 0.00, 0.00
155, 19329.86, 4185.65, -24892.94, 2592.89, -12500.46, -32727.33, -53989.81, -50237.98, 0.00, 0.00, 0.00
156, 19329.74, 4185.21, -24895.39, 2595.15, -12501.06, -32727.02, -53988.36, -50236.50, 0.00, 0.00, 0.00
157, 19328.11, 4182.57, -24898.90, 2593.61, -12503.70, -32727.67, -53988.87, -50235.90, 0.00, 0.00, 0.00
158, 19327.31, 4182.68, -24901.00, 2591.15, -12504.84, -32728.25, -53989.59, -50236.68, 0.00, 0.00, 0.00
159, 19327.29, 4183.71, -24901.85, 2589.34, -12504.77, -32727.38, -53989.61, -50239.23, 0.00, 0.00, 0.00
160, 19328.49, 4183.04, -24901.50, 2589.14, -12504.86, -32725.88, -53988.67, -50240.71, 0.02, -0.01, 0.97
161, 19330.95, 4182.86, -24900.65, 2590.03, -12504.35, -32724.56, -53987.64, -50239.10, 0.00, 0.00, 0.00
162, 19331.84, 4182.12, -24900.11, 2592.11, -12503.77, -32725.43, -53987.66, -50237.00, 0.00, 0.00, 0.00
163, 19329.99, 4181.05, -24901.03, 2592.53, -12504.50, -32727.56, -53987.66, -50238.14, 0.00, 0.00, 0.00
164, 19328.85, 4181.21, -24903.62, 2589.87, -12506.63, -32729.37, -53987.35, -50239.88, 0.00, 0.00, 0.00
165, 19329.27, 4180.65, -24907.58, 2586.57, -12508.21, -32729.23, -53987.51, -50241.78, 0.00, 0.00, 0.00
166, 19330.37, 4181.01, -24908.69, 2587.48, -12509.00, -32728.79, -53988.60, -50244.06, 0.00, 0.00, 0.00
167, 19330.41, 4183.11, -24907.96, 2588.94, -12508.46, -32728.12, -53989.68, -50245.22, 0.00, 0.00, 0.00
168, 19330.21, 4181.65, -24905.86, 2588.71, -12508.84, -32726.84, -53990.75, -50244.11, 0.00, 0.00, 0.00
169, 19332.22, 4181.07, -24902.99, 2590.41, -12506.65, -32724.58, -53989.32, -50241.87, 0.00, 0.00, 0.00
170, 19334.97, 4181.63, -24902.44, 2592.76, -12504.86, -32723.53, -53986.64, -50241.60, 0.02, 0.00, 0.97
171, 19336.70, 4182.32, -24902.48, 2594.84, -12503.43, -32722.57, -53984.58, -50240.15, 0.00, 0.00, 0.00
172, 19336.02, 4181.97, -24903.73, 2594.99, -12504.46, -32721.77, -53984.96, -50240.66, 0.00, 0.00, 0.00
173, 19334.10, 4182.03, -24905.86, 2594.81, -12506.94, -32722.71, -53986.41, -50242.32, 0.00, 0.00, 0.00
174, 19333.79, 4181.25, -24906.19, 2594.08, -12508.91, -32723.42, -53987.93, -50242.09, 0.00, 0.00, 0.00
175, 19333.97, 4179.73, -24905.92, 2595.51, -12508.55, -32722.60, -53990.12, -50244.30, 0.00, 0.00, 0.00
176, 19334.79, 4179.69, -24904.96, 2598.17, -12507.46, -32723.36, -53990.44, -50245.47, 0.00, 0.00, 0.00
177, 19336.52, 4180.56, -24902.99, 2599.06, -12506.07, -32723.04, -53988.31, -50243.39, 0.00, 0.00, 0.00
178, 19338.42, 4180.47, -24903.29, 2597.92, -12508.95, -32722.28, -53987.86, -50243.77, 0.00, 0.00, 0.00
179, 19339.64, 4181.68, -24905.34, 2595.73, -12511.70, -32721.07, -53990.32, -50242.70, 0.00, 0.00, 0.00
180, 19339.38, 4183.08, -24905.54, 2597.27, -12512.22, -32719.31, -53993.07, -50240.28, 0.02, 0.00, 0.97
181, 19336.11, 4182.21, -24905.30, 2598.57, -12512.82, -32718.30, -53993.01, -50240.71, 0.00, 0.00, 0.00
182, 19335.17, 4181.07, -24905.86, 2597.21, -12513.65, -32718.06, -53992.58, -50239.03, 0.00, 0.00, 0.00
183, 19335.40, 4180.85, -24907.20, 2596.22, -12514.16, -32718.84, -53992.43, -50238.94, 0.00, 0.00, 0.00
184, 19334.46, 4181.09, -24907.49, 2594.23, -12515.46, -32719.02, -53991.02, -50240.08, 0.00, 0.00, 0.00
185, 19334.08, 4183.08, -24906.28, 2595.44, -12514.72, -32718.95, -53989.52, -50240.77, 0.00, 0.00, 0.00
186, 19333.86, 4183.08, -24907.13, 2597.16, -12513.29, -32718.66, -53988.54, -50240.59, 0.00, 0.00, 0.00
187, 19334.17, 4182.37, -24908.09, 2597.99, -12513.33, -32718.97, -53987.80, -50240.37, 0.00, 0.00, 0.00
188, 19334.66, 4182.53, -24908.65, 2597.70, -12514.43, -32718.68, -53986.93, -50240.33, 0.00, 0.00, 0.00
189, 19333.36, 4182.57, -24911.35, 2597.45, -12514.72, -32720.31, -53989.14, -50242.96, 0.00, 0.00, 0.00
190, 19333.50, 4183.71, -24911.17, 2598.93, -12513.11, -32720.40, -53988.65, -50243.41, 0.02, 0.00, 0.97
191, 19331.96, 4183.53, -24909.61, 2600.94, -12511.32, -32719.53, -53988.85, -50242.72, 0.00, 0.00, 0.00
192, 19330.88, 4184.31, -24907.76, 2601.63, -12510.72, -32719.73, -53990.23, -50241.49, 0.00, 0.00, 0.00
193, 19331.89, 4187.22, -24905.65, 2603.71, -12508.53, -32718.82, -53990.75, -50239.03, 0.00, 0.00, 0.00
194, 19332.94, 4189.25, -24905.45, 2604.58, -12507.52, -32718.39, -53991.24, -50239.48, 0.00, 0.00, 0.00
195, 19333.50, 4190.80, -24905.21, 2604.43, -12507.41, -32718.17, -53991.91, -50240.21, 0.00, 0.00, 0.00
196, 19334.91, 4191.89, -24906.26, 2604.02, -12506.99, -32719.06, -53992.45, -50241.96, 0.00, 0.00, 0.00
197, 19334.68, 4191.91, -24908.49, 2602.77, -12507.70, -32720.83, -53993.65, -50243.12, 0.00, 0.00, 0.00
198, 19333.45, 4192.05, -24908.20, 2603.22, -12509.82, -32722.77, -53993.63, -50242.92, 0.00, 0.00, 0.00
199, 19332.80, 4192.70, -24908.29, 2605.16, -12512.26, -32725.26, -53993.92, -50243.01, 0.00, 0.00, 0.00
200, 19334.64, 4194.22, -24908.43, 2607.35, -12512.73, -32726.35, -53992.92, -50242.70, 0.02, 0.00, 0.96
201, 19337.37, 4198.31, -24905.63, 2609.19, -12510.29, -32726.93, -53989.65, -50238.63, 0.00, 0.00, 0.00
202, 19337.63, 4198.91, -24906.44, 2608.09, -12510.43, -32727.80, -53989.88, -50236.33, 0.00, 0.00, 0.00
203, 19337.88, 4198.06, -24908.69, 2605.72, -12511.57, -32726.64, -53992.20, -50235.28, 0.00, 0.00, 0.00
204, 19337.83, 4196.27, -24910.17, 2604.63, -12512.64, -32726.28, -53994.57, -50234.85, 0.00, 0.00, 0.00
205, 19338.55, 4195.40, -24913.63, 2602.82, -12514.45, -32728.63, -53996.71, -50237.11, 0.00, 0.00, 0.00
206, 19339.20, 4196.12, -24915.76, 2600.42, -12514.43, -32729.41, -53996.61, -50238.23, 0.00, 0.00, 0.00
207, 19339.47, 4195.69, -24917.97, 2598.66, -12514.45, -32729.39, -53995.31, -50237.36, 0.00, 0.00, 0.00
208, 19340.70, 4193.77, -24919.56, 2597.94, -12515.41, -32730.04, -53995.75, -50235.68, 0.00, 0.00, 0.00
209, 19343.51, 4192.32, -24918.60, 2597.74, -12515.28, -32728.96, -53994.79, -50233.58, 0.00, 0.00, 0.00
210, 19345.03, 4192.16, -24916.25, 2599.08, -12516.48, -32729.08, -53994.19, -50232.82, 0.02, 0.00, 0.97
211, 19344.61, 4190.53, -24915.40, 2600.29, -12517.20, -32729.35, -53993.34, -50231.43, 0.00, 0.00, 0.00
212, 19343.51, 4189.23, -24915.27, 2599.78, -12516.35, -32728.21, -53993.86, -50230.63, 0.00, 0.00, 0.00
213, 19343.60, 4189.41, -24916.20, 2597.50, -12516.33, -32727.69, -53995.98, -50232.17, 0.00, 0.00, 0.00
214, 19343.38, 4189.23, -24915.42, 2597.27, -12514.61, -32727.69, -53996.58, -50233.06, 0.00, 0.00, 0.00
215, 19342.95, 4190.19, -24914.24, 2596.89, -12514.09, -32727.45, -53996.23, -50232.57, 0.00, 0.00, 0.00
216, 19343.40, 4191.31, -24914.15, 2596.09, -12514.76, -32727.40, -53996.40, -50232.23, 0.00, 0.00, 0.00
217, 19345.46, 4192.09, -24914.39, 2595.35, -12514.38, -32726.10, -53994.75, -50232.64, 0.00, 0.00, 0.00
218, 19345.30, 4192.87, -24915.44, 2594.84, -12513.80, -32726.17, -53993.21, -50233.64, 0.00, 0.00, 0.00
219, 19345.28, 4192.70, -24915.64, 2595.24, -12513.56, -32725.72, -53992.25, -50232.14, 0.00, 0.00, 0.00
220, 19344.56, 4192.58, -24915.67, 2594.75, -12513.67, -32725.21, -53993.03, -50232.23, 0.00, 0.00, 0.00
221, 19344.70, 4192.38, -24917.37, 2592.94, -12513.65, -32726.22, -53994.68, -50234.65, 0.02, -0.01, 0.96
222, 19345.10, 4191.94, -24918.33, 2593.05, -12513.71, -32726.66, -53994.05, -50235.23, 0.00, 0.00, 0.00
223, 19344.50, 4192.09, -24919.89, 2592.89, -12514.79, -32727.42, -53993.18, -50235.90, 0.00, 0.00, 0.00
224, 19344.88, 4193.19, -24920.16, 2593.16, -12515.66, -32727.36, -53993.12, -50235.34, 0.00, 0.00, 0.00
225, 19346.08, 4194.98, -24917.86, 2594.81, -12514.79, -32724.72, -53992.85, -50231.77, 0.00, 0.00, 0.00
226, 19345.86, 4196.52, -24917.37, 2595.15, -12513.98, -32724.83, -53993.74, -50228.93, 0.00, 0.00, 0.00
227, 19345.93, 4196.72, -24919.00, 2594.52, -12514.25, -32725.68, -53995.46, -50227.43, 0.00, 0.00, 0.00
228, 19347.02, 4195.78, -24920.32, 2593.43, -12514.67, -32726.95, -53997.05, -50227.41, 0.00, 0.00, 0.00
229, 19346.84, 4194.08, -24923.54, 2590.70, -12516.80, -32727.96, -53999.58, -50229.53, 0.00, 0.00, 0.00
230, 19346.66, 4193.70, -24925.26, 2591.33, -12516.64, -32727.76, -53999.58, -50229.31, 0.00, 0.00, 0.00
231, 19346.33, 4194.15, -24926.66, 2592.76, -12517.11, -32727.69, -54000.65, -50229.69, 0.02, -0.01, 0.97
232, 19348.12, 4193.32, -24928.47, 2592.65, -12518.81, -32726.95, -54002.24, -50229.98, 0.00, 0.00, 0.00
233, 19349.21, 4191.40, -24928.16, 2592.31, -12519.90, -32725.86, -54002.55, -50229.33, 0.00, 0.00, 0.00
234, 19347.92, 4190.53, -24927.69, 2592.42, -12522.16, -32725.23, -54002.13, -50230.27, 0.00, 0.00, 0.00
235, 19347.47, 4191.85, -24928.30, 2592.56, -12523.55, -32726.66, -54002.39, -50232.35, 0.00, 0.00, 0.00
236, 19348.81, 4192.72, -24927.58, 2592.80, -12524.02, -32728.52, -54001.63, -50232.95, 0.00, 0.00, 0.00
237, 19346.73, 4191.53, -24930.06, 2591.75, -12525.69, -32730.15, -54003.11, -50233.91, 0.00, 0.00, 0.00
238, 19346.17, 4189.79, -24932.23, 2591.75, -12527.59, -32731.09, -54003.40, -50234.61, 0.00, 0.00, 0.00
239, 19344.90, 4189.12, -24933.64, 2592.02, -12528.04, -32732.59, -54004.85, -50234.43, 0.00, 0.00, 0.00
240, 19345.12, 4190.62, -24934.98, 2591.86, -12528.13, -32734.60, -54006.39, -50233.80, 0.00, 0.00, 0.00
241, 19347.09, 4190.93, -24934.13, 2593.27, -12527.53, -32734.82, -54004.67, -50232.46, 0.02, -0.01, 0.97
242, 19346.13, 4189.75, -24935.14, 2592.74, -12528.76, -32735.36, -54006.37, -50233.64, 0.00, 0.00, 0.00
243, 19344.79, 4189.01, -24936.43, 2590.46, -12529.29, -32736.77, -54008.34, -50235.81, 0.00, 0.00, 0.00
244, 19344.29, 4189.30, -24938.20, 2588.40, -12529.47, -32738.53, -54009.12, -50237.60, 0.00, 0.00, 0.00
245, 19342.08, 4188.00, -24939.12, 2588.29, -12530.66, -32741.08, -54011.02, -50238.98, 0.00, 0.00, 0.00
246, 19342.75, 4189.36, -24938.15, 2590.68, -12531.95, -32741.95, -54011.31, -50238.58, 0.00, 0.00, 0.00
247, 19343.38, 4191.53, -24937.30, 2590.52, -12533.83, -32742.33, -54011.83, -50239.28, 0.00, 0.00, 0.00
248, 19342.04, 4194.04, -24936.46, 2589.34, -12536.22, -32740.63, -54011.51, -50239.32, 0.00, 0.00, 0.00
249, 19342.93, 4196.07, -24933.95, 2589.74, -12535.42, -32740.79, -54011.25, -50239.23, 0.00, 0.00, 0.00
250, 19343.33, 4196.05, -24933.35, 2589.96, -12535.62, -32743.65, -54011.47, -50240.48, 0.00, 0.00, 0.00
251, 19342.95, 4195.82, -24934.29, 2590.79, -12536.38, -32745.17, -54010.69, -50239.34, 0.02, -0.01, 0.96
252, 19341.72, 4194.84, -24935.47, 2591.48, -12537.36, -32744.70, -54009.90, -50238.50, 0.00, 0.00, 0.00
253, 19339.29, 4193.32, -24938.20, 2591.89, -12539.35, -32744.63, -54011.02, -50240.80, 0.00, 0.00, 0.00
254, 19338.26, 4191.67, -24938.18, 2591.77, -12540.92, -32745.10, -54010.80, -50243.37, 0.00, 0.00, 0.00
255, 19339.98, 4190.48, -24937.59, 2592.02, -12542.79, -32746.22, -54011.36, -50243.28, 0.00, 0.00, 0.00
0, 19342.15, 4191.35, -24936.25, 2593.58, -12543.28, -32745.91, -54011.94, -50240.55, 0.00, 0.00, 0.00
1, 19342.28, 4194.60, -24934.76, 2595.53, -12543.42, -32744.50, -54010.95, -50239.72, 0.00, 0.00, 0.00
2, 19341.72, 4195.91, -24936.63, 2595.86, -12544.09, -32744.95, -54010.93, -50240.62, 0.00, 0.00, 0.00
3, 19342.93, 4195.40, -24937.55, 2595.95, -12545.63, -32745.95, -54012.07, -50240.44, 0.00, 0.00, 0.00
4, 19344.29, 4194.64, -24936.95, 2596.83, -12547.06, -32746.20, -54013.23, -50241.00, 0.00, 0.00, 0.00
5, 19344.03, 4195.36, -24936.39, 2597.45, -12549.36, -32747.23, -54014.71, -50240.24, 0.02, -0.00, 0.96
6, 19344.96, 4196.00, -24936.86, 2596.69, -12551.51, -32749.64, -54015.69, -50239.50, 0.00, 0.00, 0.00
7, 19345.59, 4195.56, -24936.81, 2596.33, -12552.78, -32750.69, -54016.25, -50237.71, 0.00, 0.00, 0.00
8, 19346.02, 4195.82, -24936.54, 2595.55, -12554.30, -32751.79, -54016.88, -50235.14, 0.00, 0.00, 0.00
9, 19347.92, 4195.06, -24935.67, 2596.36, -12554.26, -32750.96, -54016.16, -50232.84, 0.00, 0.00, 0.00
10, 19350.11, 4195.27, -24934.78, 2597.14, -12554.71, -32749.80, -54014.26, -50232.06, 0.00, 0.00, 0.00
11, 19351.83, 4195.22, -24934.29, 2597.61, -12553.83, -32749.86, -54014.57, -50231.27, 0.00, 0.00, 0.00
12, 19351.94, 4193.08, -24934.17, 2595.93, -12553.70, -32751.34, -54016.16, -50230.78, 0.00, 0.00, 0.00
13, 19350.04, 4191.15, -24935.58, 2592.76, -12556.11, -32755.23, -54020.16, -50232.21, 0.00, 0.00, 0.00
14, 19349.88, 4192.61, -24934.96, 2592.20, -12556.81, -32756.41, -54020.39, -50232.08, 0.00, 0.00, 0.00
15, 19350.46, 4192.36, -24933.57, 2591.82, -12556.85, -32755.83, -54018.42, -50232.04, 0.02, -0.01, 0.97
16, 19349.50, 4192.83, -24933.73, 2590.46, -12556.56, -32755.09, -54019.20, -50233.91, 0.00, 0.00, 0.00
17, 19348.14, 4193.84, -24932.12, 2591.48, -12556.14, -32755.05, -54019.05, -50234.52, 0.00, 0.00, 0.00
18, 19347.89, 4193.95, -24932.88, 2591.22, -12557.30, -32756.28, -54018.49, -50235.32, 0.00, 0.00, 0.00
19, 19349.08, 4194.26, -24932.70, 2592.29, -12557.14, -32757.20, -54016.72, -50235.41, 0.00, 0.00, 0.00
20, 19348.27, 4194.82, -24932.34, 2592.94, -12558.39, -32757.29, -54016.83, -50236.10, 0.00, 0.00, 0.00
21, 19346.33, 4193.92, -24933.35, 2591.55, -12561.25, -32758.71, -54016.95, -50237.22, 0.00, 0.00, 0.00
22, 19346.44, 4193.90, -24932.54, 2590.95, -12563.07, -32759.32, -54016.86, -50239.03, 0.00, 0.00, 0.00
23, 19346.19, 4195.20, -24932.30, 2589.81, -12563.74, -32759.30, -54017.59, -50239.97, 0.00, 0.00, 0.00
24, 19347.04, 4194.71, -24932.61, 2589.34, -12563.51, -32757.78, -54016.01, -50239.93, 0.00, 0.00, 0.00
25, 19349.35, 4198.40, -24930.53, 2591.30, -12561.75, -32756.57, -54012.92, -50238.74, 0.03, -0.00, 0.97
26, 19348.56, 4199.98, -24929.30, 2592.31, -12562.84, -32756.77, -54013.04, -50238.14, 0.00, 0.00, 0.00
27, 19348.18, 4200.34, -24927.92, 2592.58, -12564.34, -32756.05, -54012.90, -50237.04, 0.00, 0.00, 0.00
28, 19348.99, 4200.94, -24927.20, 2590.88, -12565.84, -32755.83, -54013.73, -50236.04, 0.00, 0.00, 0.00
29, 19347.94, 4200.65, -24929.08, 2589.65, -12567.89, -32757.24, -54015.58, -50236.41, 0.00, 0.00, 0.00
30, 19347.36, 4200.81, -24930.06, 2589.45, -12568.16, -32756.44, -54016.48, -50236.13, 0.00, 0.00, 0.00
31, 19347.11, 4200.36, -24930.11, 2589.36, -12568.03, -32756.57, -54016.70, -50237.91, 0.00, 0.00, 0.00
32, 19346.91, 4199.15, -24931.65, 2589.43, -12568.54, -32757.73, -54017.46, -50241.00, 0.00, 0.00, 0.00
33, 19349.21, 4200.14, -24932.03, 2590.68, -12568.85, -32757.75, -54017.50, -50240.84, 0.00, 0.00, 0.00
34, 19350.98, 4198.24, -24932.59, 2592.69, -12570.13, -32757.04, -54017.44, -50241.33, 0.00, 0.00, 0.00
35, 19351.83, 4196.61, -24932.74, 2595.19, -12571.74, -32756.84, -54016.70, -50241.54, 0.03, -0.01, 0.96
36, 19353.95, 4195.00, -24932.63, 2596.78, -12573.57, -32758.92, -54018.53, -50241.78, 0.00, 0.00, 0.00
37, 19352.61, 4192.87, -24932.81, 2595.13, -12575.96, -32762.98, -54020.90, -50242.88, 0.00, 0.00, 0.00
38, 19352.32, 4192.65, -24931.67, 2594.39, -12577.01, -32764.08, -54022.29, -50242.38, 0.00, 0.00, 0.00
39, 19351.76, 4193.25, -24928.74, 2595.10, -12576.79, -32764.10, -54022.60, -50242.34, 0.00, 0.00, 0.00
40, 19351.13, 4192.96, -24928.43, 2596.40, -12575.05, -32764.77, -54022.15, -50240.71, 0.00, 0.00, 0.00
41, 19350.87, 4194.13, -24930.80, 2599.33, -12574.02, -32764.24, -54021.13, -50240.19, 0.00, 0.00, 0.00
42, 19350.60, 4195.87, -24932.65, 2600.42, -12575.14, -32765.35, -54022.55, -50241.24, 0.00, 0.00, 0.00
43, 19349.84, 4196.27, -24933.46, 2600.22, -12576.37, -32765.24, -54022.87, -50242.79, 0.00, 0.00, 0.00
44, 19349.97, 4196.92, -24934.94, 2599.60, -12576.68, -32765.29, -54021.75, -50242.27, 0.00, 0.00, 0.00
45, 19349.23, 4196.54, -24936.41, 2601.07, -12576.25, -32767.61, -54021.37, -50242.45, 0.03, -0.00, 0.97
46, 19347.94, 4195.47, -24936.48, 2601.79, -12574.91, -32770.07, -54022.84, -50242.32, 0.00, 0.00, 0.00
47, 19346.82, 4193.59, -24936.43, 2601.43, -12574.46, -32772.60, -54024.10, -50243.48, 0.00, 0.00, 0.00
48, 19347.87, 4193.77, -24935.52, 2601.61, -12574.06, -32773.11, -54023.76, -50243.95, 0.00, 0.00, 0.00
49, 19353.08, 4196.29, -24932.03, 2603.17, -12571.72, -32772.17, -54021.86, -50242.23, 0.00, 0.00, 0.00
50, 19354.87, 4198.08, -24931.29, 2603.75, -12570.89, -32772.20, -54020.30, -50241.55, 0.00, 0.00, 0.00
51, 19352.77, 4199.74, -24932.36, 2603.22, -12570.98, -32774.36, -54020.75, -50242.79, 0.00, 0.00, 0.00
52, 19349.97, 4198.37, -24933.91, 2601.85, -12571.94, -32778.21, -54020.66, -50245.00, 0.00, 0.00, 0.00
53, 19347.02, 4196.72, -24935.29, 2600.49, -12572.72, -32779.68, -54021.46, -50246.41, 0.00, 0.00, 0.00
54, 19345.86, 4198.40, -24934.29, 2600.16, -12572.77, -32779.30, -54021.41, -50245.56, 0.00, 0.00, 0.00
55, 19346.06, 4199.02, -24933.35, 2599.80, -12573.53, -32780.06, -54021.62, -50244.66, 0.00, 0.00, 0.00
56, 19345.84, 4200.25, -24932.68, 2599.84, -12572.74, -32780.69, -54021.88, -50243.32, 0.03, -0.01, 0.97
57, 19346.22, 4201.86, -24931.29, 2602.21, -12569.70, -32781.45, -54021.41, -50242.79, 0.00, 0.00, 0.00
58, 19347.69, 4200.81, -24931.36, 2604.02, -12568.65, -32782.92, -54021.62, -50243.95, 0.00, 0.00, 0.00
59, 19347.51, 4200.03, -24930.20, 2605.43, -12567.54, -32783.50, -54023.25, -50243.21, 0.00, 0.00, 0.00
60, 19345.23, 4199.80, -24930.71, 2606.10, -12567.40, -32784.73, -54026.87, -50242.52, 0.00, 0.00, 0.00
61, 19345.46, 4198.84, -24931.89, 2605.86, -12570.62, -32786.75, -54029.02, -50243.90, 0.00, 0.00, 0.00
62, 19347.04, 4198.91, -24933.24, 2606.84, -12572.72, -32788.09, -54029.33, -50244.17, 0.00, 0.00, 0.00
63, 19347.09, 4198.13, -24933.62, 2609.61, -12572.81, -32789.14, -54028.01, -50245.96, 0.00, 0.00, 0.00
64, 19348.29, 4197.99, -24930.80, 2612.25, -12570.87, -32787.64, -54025.66, -50245.13, 0.00, 0.00, 0.00
65, 19349.26, 4200.32, -24928.77, 2614.08, -12568.39, -32785.25, -54022.73, -50242.85, 0.00, 0.00, 0.00
66, 19348.59, 4199.07, -24929.44, 2614.33, -12566.91, -32784.96, -54022.49, -50242.45, 0.03, -0.01, 0.97
67, 19349.84, 4197.05, -24929.71, 2613.99, -12567.22, -32785.85, -54024.30, -50242.34, 0.00, 0.00, 0.00
68, 19350.69, 4196.45, -24929.95, 2614.28, -12567.00, -32786.12, -54023.29, -50241.51, 0.00, 0.00, 0.00
69, 19348.68, 4196.12, -24930.89, 2613.16, -12568.05, -32787.53, -54022.42, -50241.31, 0.00, 0.00, 0.00
70, 19347.98, 4196.74, -24930.76, 2610.86, -12569.21, -32788.44, -54021.80, -50240.51, 0.00, 0.00, 0.00
71, 19348.14, 4196.47, -24930.42, 2608.43, -12570.55, -32790.10, -54021.26, -50240.55, 0.00, 0.00, 0.00
72, 19348.74, 4196.27, -24930.15, 2608.07, -12570.53, -32790.54, -54021.93, -50240.84, 0.00, 0.00, 0.00
73, 19349.75, 4198.60, -24928.83, 2607.69, -12570.15, -32790.52, -54021.75, -50241.18, 0.00, 0.00, 0.00
74, 19349.88, 4200.09, -24929.28, 2606.62, -12570.17, -32790.45, -54021.86, -50242.56, 0.00, 0.00, 0.00
75, 19347.74, 4199.69, -24930.64, 2606.93, -12571.09, -32791.82, -54022.06, -50244.15, 0.00, 0.00, 0.00
76, 19345.26, 4198.84, -24932.16, 2607.44, -12572.32, -32793.07, -54022.62, -50244.53, 0.02, -0.00, 0.97
77, 19342.95, 4196.83, -24935.47, 2606.48, -12573.39, -32795.75, -54024.57, -50245.96, 0.00, 0.00, 0.00
78, 19342.46, 4196.12, -24936.81, 2604.22, -12573.08, -32797.32, -54024.68, -50248.42, 0.00, 0.00, 0.00
79, 19342.69, 4196.12, -24937.55, 2601.81, -12574.29, -32797.34, -54025.15, -50249.71, 0.00, 0.00, 0.00
80, 19344.52, 4195.94, -24938.73, 2600.20, -12575.72, -32796.80, -54024.50, -50250.95, 0.00, 0.00, 0.00
81, 19346.91, 4195.94, -24938.49, 2600.69, -12574.38, -32794.97, -54023.54, -50249.76, 0.00, 0.00, 0.00
82, 19348.36, 4197.81, -24938.31, 2601.72, -12574.20, -32794.63, -54023.52, -50248.08, 0.00, 0.00, 0.00
83, 19347.98, 4200.07, -24937.88, 2601.83, -12575.58, -32796.73, -54024.32, -50248.55, 0.00, 0.00, 0.00
84, 19347.18, 4201.14, -24938.31, 2599.80, -12576.63, -32799.04, -54025.75, -50247.99, 0.00, 0.00, 0.00
85, 19345.28, 4200.34, -24938.38, 2598.48, -12579.20, -32802.05, -54026.94, -50247.97, 0.00, 0.00, 0.00
86, 19344.65, 4199.02, -24937.04, 2598.32, -12579.23, -32803.66, -54026.58, -50247.32, 0.02, -0.00, 0.96
87, 19344.74, 4199.24, -24937.82, 2598.26, -12579.18, -32803.00, -54026.15, -50246.41, 0.00, 0.00, 0.00
88, 19344.50, 4199.42, -24939.12, 2597.29, -12579.38, -32800.98, -54024.10, -50244.30, 0.00, 0.00, 0.00
89, 19346.66, 4201.88, -24937.79, 2599.31, -12577.28, -32797.77, -54021.41, -50241.07, 0.00, 0.00, 0.00
90, 19349.08, 4202.02, -24938.04, 2601.63, -12575.18, -32795.91, -54019.94, -50238.25, 0.00, 0.00, 0.00
91, 19351.20, 4201.52, -24938.20, 2601.25, -12574.08, -32795.30, -54018.00, -50235.66, 0.00, 0.00, 0.00
92, 19350.04, 4201.84, -24938.22, 2600.65, -12573.66, -32796.29, -54016.14, -50234.80, 0.00, 0.00, 0.00
93, 19350.40, 4200.61, -24940.05, 2599.62, -12574.31, -32797.72, -54016.50, -50236.01, 0.00, 0.00, 0.00
94, 19350.98, 4200.27, -24940.30, 2599.31, -12575.34, -32798.30, -54016.45, -50236.37, 0.00, 0.00, 0.00
95, 19348.96, 4200.70, -24938.98, 2601.36, -12575.27, -32799.04, -54016.88, -50234.96, 0.00, 0.00, 0.00
96, 19349.55, 4200.94, -24938.76, 2602.55, -12575.69, -32800.76, -54017.08, -50232.59, 0.02, -0.00, 0.97
97, 19349.66, 4200.36, -24939.96, 2601.25, -12576.81, -32802.21, -54016.14, -50232.30, 0.00, 0.00, 0.00
98, 19349.59, 4199.80, -24940.79, 2600.31, -12577.66, -32802.21, -54016.79, -50231.90, 0.00, 0.00, 0.00
99, 19350.08, 4201.57, -24941.24, 2601.52, -12578.15, -32801.41, -54016.45, -50233.02, 0.00, 0.00, 0.00
100, 19351.02, 4201.84, -24941.60, 2601.74, -12578.26, -32800.67, -54013.59, -50233.64, 0.00, 0.00, 0.00
101, 19350.29, 4199.38, -24942.94, 2600.54, -12579.52, -32802.61, -54015.71, -50235.72, 0.00, 0.00, 0.00
102, 19348.56, 4198.86, -24943.16, 2600.58, -12578.91, -32804.11, -54018.89, -50236.48, 0.00, 0.00, 0.00
103, 19349.41, 4200.21, -24943.18, 2601.45, -12578.20, -32805.21, -54020.95, -50236.19, 0.00, 0.00, 0.00
104, 19352.03, 4200.92, -24942.13, 2602.37, -12576.52, -32805.45, -54022.24, -50236.53, 0.00, 0.00, 0.00
105, 19354.80, 4201.35, -24941.17, 2604.29, -12574.33, -32804.63, -54024.19, -50236.64, 0.00, 0.00, 0.00
106, 19354.67, 4201.73, -24943.03, 2603.46, -12574.00, -32803.98, -54027.41, -50236.71, 0.02, -0.00, 0.97
107, 19353.86, 4203.45, -24943.74, 2602.82, -12573.33, -32803.55, -54028.25, -50235.97, 0.00, 0.00, 0.00
108, 19352.18, 4204.59, -24944.55, 2601.47, -12573.30, -32803.80, -54029.60, -50235.25, 0.00, 0.00, 0.00
109, 19350.69, 4204.36, -24945.17, 2598.77, -12574.53, -32804.83, -54031.16, -50237.24, 0.00, 0.00, 0.00
110, 19351.27, 4204.59, -24943.65, 2597.63, -12574.62, -32805.61, -54031.59, -50237.40, 0.00, 0.00, 0.00
111, 19351.27, 4204.97, -24943.92, 2597.29, -12575.07, -32805.34, -54031.23, -50236.35, 0.00, 0.00, 0.00
112, 19351.02, 4205.37, -24944.03, 2597.45, -12574.91, -32805.68, -54031.23, -50235.32, 0.00, 0.00, 0.00
113, 19351.65, 4205.93, -24942.56, 2600.18, -12574.08, -32804.11, -54030.31, -50233.29, 0.00, 0.00, 0.00
114, 19351.54, 4204.68, -24940.12, 2602.10, -12574.02, -32803.11, -54029.95, -50232.86, 0.00, 0.00, 0.00
115, 19349.48, 4203.45, -24939.36, 2601.14, -12574.11, -32804.58, -54029.77, -50231.66, 0.00, 0.00, 0.00
116, 19347.09, 4202.75, -24940.72, 2598.93, -12574.84, -32806.41, -54029.89, -50232.73, 0.03, -0.01, 0.96
117, 19344.74, 4202.37, -24943.94, 2597.63, -12576.12, -32808.49, -54031.12, -50233.73, 0.00, 0.00, 0.00
118, 19343.20, 4202.51, -24946.80, 2597.74, -12578.15, -32810.59, -54031.96, -50234.67, 0.00, 0.00, 0.00
119, 19342.08, 4202.82, -24949.22, 2596.69, -12579.16, -32811.73, -54032.66, -50235.79, 0.00, 0.00, 0.00
120, 19343.82, 4204.41, -24949.62, 2597.79, -12577.64, -32811.06, -54031.59, -50234.29, 0.00, 0.00, 0.00
121, 19346.02, 4205.10, -24947.96, 2599.40, -12575.07, -32809.72, -54030.13, -50232.57, 0.00, 0.00, 0.00
122, 19346.08, 4204.68, -24947.59, 2601.30, -12575.47, -32809.72, -54031.21, -50232.14, 0.00, 0.00, 0.00
123, 19346.80, 4203.94, -24947.54, 2603.96, -12576.30, -32810.39, -54032.59, -50232.06, 0.00, 0.00, 0.00
124, 19347.31, 4203.49, -24947.16, 2605.43, -12578.31, -32810.82, -54033.69, -50232.57, 0.00, 0.00, 0.00
125, 19347.02, 4202.69, -24948.61, 2605.23, -12580.90, -32811.93, -54035.39, -50234.36, 0.00, 0.00, 0.00
126, 19348.32, 4203.20, -24949.44, 2604.58, -12583.09, -32812.16, -54037.66, -50234.76, 0.02, -0.01, 0.96
127, 19348.29, 4202.31, -24948.70, 2603.55, -12584.23, -32812.38, -54039.81, -50235.25, 0.00, 0.00, 0.00
128, 19347.76, 4201.66, -24948.21, 2605.74, -12585.02, -32812.56, -54039.92, -50234.09, 0.00, 0.00, 0.00
129, 19351.00, 4203.45, -24945.26, 2607.64, -12584.68, -32808.80, -54040.21, -50233.27, 0.00, 0.00, 0.00
130, 19352.23, 4204.88, -24943.90, 2608.20, -12585.71, -32807.09, -54041.82, -50233.09, 0.00, 0.00, 0.00
131, 19352.45, 4205.50, -24944.77, 2608.07, -12586.31, -32808.18, -54042.98, -50234.18, 0.00, 0.00, 0.00
132, 19352.03, 4204.36, -24949.57, 2604.07, -12589.15, -32809.92, -54044.75, -50235.86, 0.00, 0.00, 0.00
133, 19352.94, 4203.18, -24954.16, 2601.36, -12592.03, -32811.60, -54048.37, -50238.16, 0.00, 0.00, 0.00
134, 19353.46, 4203.36, -24956.26, 2603.06, -12592.82, -32810.95, -54049.45, -50236.86, 0.00, 0.00, 0.00
135, 19355.45, 4203.65, -24956.19, 2604.78, -12593.24, -32811.24, -54050.81, -50236.37, 0.00, 0.00, 0.00
136, 19356.32, 4204.88, -24955.23, 2605.23, -12592.93, -32811.22, -54052.02, -50236.97, 0.02, -0.01, 0.96
137, 19358.42, 4207.89, -24954.00, 2605.45, -12591.21, -32809.54, -54052.15, -50235.19, 0.00, 0.00, 0.00
138, 19359.63, 4207.96, -24953.53, 2605.79, -12592.10, -32810.48, -54051.75, -50233.13, 0.00, 0.00, 0.00
139, 19360.52, 4206.02, -24952.55, 2607.20, -12591.99, -32810.21, -54050.27, -50233.22, 0.00, 0.00, 0.00
140, 19359.72, 4205.12, -24953.22, 2607.98, -12592.35, -32810.17, -54050.76, -50235.48, 0.00, 0.00, 0.00
141, 19358.49, 4205.91, -24954.94, 2608.63, -12593.87, -32812.23, -54052.28, -50236.89, 0.00, 0.00, 0.00
142, 19357.37, 4206.78, -24955.86, 2609.43, -12595.65, -32811.71, -54052.48, -50236.91, 0.00, 0.00, 0.00
143, 19357.04, 4208.41, -24958.20, 2608.94, -12596.48, -32810.48, -54053.38, -50239.21, 0.00, 0.00, 0.00
144, 19357.33, 4208.34, -24960.33, 2609.77, -12595.50, -32809.10, -54053.49, -50238.98, 0.00, 0.00, 0.00
145, 19357.95, 4208.92, -24959.39, 2610.77, -12592.66, -32807.04, -54051.84, -50236.93, 0.00, 0.00, 0.00
146, 19358.76, 4209.53, -24958.22, 2610.93, -12591.72, -32805.48, -54050.34, -50235.84, 0.00, 0.00, 0.00
147, 19360.95, 4211.54, -24958.43, 2609.28, -12592.19, -32805.57, -54050.02, -50236.01, 0.03, -0.00, 0.97
148, 19361.04, 4211.25, -24959.57, 2606.84, -12592.84, -32806.55, -54050.36, -50235.86, 0.00, 0.00, 0.00
149, 19359.05, 4209.79, -24961.33, 2604.89, -12593.49, -32806.97, -54050.41, -50234.07, 0.00, 0.00, 0.00
150, 19357.57, 4209.64, -24962.90, 2604.56, -12593.73, -32807.75, -54048.77, -50232.32, 0.00, 0.00, 0.00
151, 19356.70, 4208.16, -24964.69, 2603.71, -12594.36, -32809.05, -54048.50, -50232.06, 0.00, 0.00, 0.00
152, 19356.74, 4208.97, -24963.41, 2603.73, -12594.81, -32809.63, -54047.88, -50232.46, 0.00, 0.00, 0.00
173, 19361.77, 4213.73, -24955.99, 2604.40, -12610.92, -32807.46, -54056.55, -50230.94, 0.00, 0.00, 0.00
154, 19357.62, 4211.60, -24961.33, 2607.13, -12593.40, -32807.80, -54047.28, -50229.04, 0.00, 0.00, 0.00
171, 19361.62, 4215.70, -24952.53, 2603.22, -12608.10, -32805.74, -54054.92, -50229.49, 0.00, 0.00, 0.00
156, 19358.15, 4211.07, -24958.58, 2607.93, -12593.24, -32804.52, -54047.90, -50227.81, 0.00, 0.00, 0.00
157, 19357.82, 4209.26, -24956.17, 2605.41, -12594.60, -32804.69, -54049.55, -50228.44, 0.03, -0.01, 0.96
169, 19358.58, 4215.40, -24951.32, 2603.64, -12604.15, -32806.26, -54055.03, -50229.87, 0.00, 0.00, 0.00
167, 19355.45, 4213.57, -24953.13, 2600.98, -12602.41, -32806.28, -54054.47, -50232.39, 0.02, -0.01, 0.97
160, 19359.16, 4210.31, -24955.19, 2604.11, -12595.19, -32804.89, -54048.82, -50228.75, 0.00, 0.00, 0.00
161, 19361.51, 4211.31, -24953.08, 2603.91, -12595.81, -32802.50, -54049.40, -50227.21, 0.00, 0.00, 0.00
165, 19354.51, 4211.72, -24955.10, 2602.79, -12600.10, -32804.96, -54052.55, -50231.21, 0.00, 0.00, 0.00
163, 19359.36, 4211.67, -24953.96, 2602.93, -12597.29, -32802.55, -54052.28, -50227.32, 0.00, 0.00, 0.00
184, 19362.94, 4206.58, -24959.61, 2601.92, -12609.85, -32815.04, -54055.43, -50226.54, 0.00, 0.00, 0.00
175, 19360.34, 4213.10, -24956.93, 2604.11, -12609.83, -32810.21, -54055.84, -50228.19, 0.00, 0.00, 0.00
176, 19361.44, 4212.57, -24956.82, 2604.49, -12609.56, -32810.88, -54057.45, -50226.85, 0.00, 0.00, 0.00
177, 19360.92, 4212.86, -24955.43, 2604.11, -12608.04, -32810.84, -54057.65, -50225.06, 0.02, -0.01, 0.97
178, 19360.88, 4211.94, -24955.92, 2603.44, -12607.41, -32812.05, -54057.31, -50224.79, 0.00, 0.00, 0.00
182, 19360.46, 4207.85, -24962.36, 2599.80, -12609.33, -32812.83, -54057.02, -50226.29, 0.00, 0.00, 0.00
180, 19360.63, 4211.92, -24957.89, 2603.26, -12607.97, -32812.02, -54056.22, -50224.41, 0.00, 0.00, 0.00
185, 19364.50, 4208.90, -24956.24, 2603.82, -12607.97, -32815.73, -54054.63, -50224.77, 0.00, 0.00, 0.00
186, 19363.92, 4211.05, -24956.66, 2604.74, -12606.58, -32815.94, -54055.43, -50223.79, 0.00, 0.00, 0.00
187, 19361.82, 4213.44, -24957.31, 2605.74, -12606.85, -32816.83, -54057.04, -50223.14, 0.02, -0.01, 0.97
188, 19360.61, 4214.29, -24958.52, 2605.39, -12607.21, -32817.28, -54059.75, -50223.18, 0.00, 0.00, 0.00
189, 19359.87, 4212.52, -24961.00, 2603.73, -12609.60, -32816.54, -54062.74, -50223.47, 0.00, 0.00, 0.00
190, 19361.37, 4211.74, -24961.27, 2604.22, -12611.08, -32816.54, -54062.16, -50222.56, 0.00, 0.00, 0.00
191, 19359.83, 4211.16, -24961.24, 2604.67, -12611.32, -32817.93, -54062.36, -50223.03, 0.00, 0.00, 0.00
192, 19358.02, 4211.90, -24959.34, 2603.29, -12610.90, -32817.41, -54063.14, -50223.74, 0.00, 0.00, 0.00
193, 19358.64, 4214.78, -24957.80, 2602.99, -12608.80, -32815.04, -54063.86, -50222.25, 0.00, 0.00, 0.00
194, 19357.86, 4216.95, -24956.30, 2602.70, -12608.40, -32813.30, -54064.15, -50220.97, 0.00, 0.00, 0.00
195, 19358.60, 4216.90, -24955.81, 2602.37, -12609.42, -32811.55, -54062.99, -50219.03, 0.00, 0.00, 0.00
196, 19360.50, 4216.08, -24955.68, 2601.54, -12609.56, -32810.46, -54063.08, -50219.41, 0.00, 0.00, 0.00
197, 19359.25, 4213.57, -24956.66, 2600.65, -12609.83, -32810.97, -54062.92, -50221.75, 0.02, -0.00, 0.97
198, 19359.76, 4212.28, -24959.43, 2601.72, -12610.16, -32811.98, -54062.88, -50222.65, 0.00, 0.00, 0.00
199, 19361.33, 4212.54, -24960.33, 2603.44, -12609.78, -32812.58, -54062.41, -50221.37, 0.00, 0.00, 0.00
200, 19363.16, 4213.91, -24957.55, 2605.83, -12608.42, -32812.61, -54061.34, -50219.70, 0.00, 0.00, 0.00
201, 19365.77, 4217.17, -24955.70, 2607.62, -12606.92, -32811.67, -54060.13, -50218.94, 0.00, 0.00, 0.00
202, 19367.47, 4217.62, -24956.55, 2606.71, -12606.67, -32810.35, -54061.07, -50218.42, 0.00, 0.00, 0.00
203, 19366.85, 4217.57, -24956.75, 2605.48, -12607.03, -32809.14, -54061.43, -50217.53, 0.00, 0.00, 0.00
204, 19365.86, 4217.48, -24955.99, 2605.59, -12605.98, -32807.29, -54060.73, -50217.17, 0.00, 0.00, 0.00
205, 19364.57, 4218.76, -24955.43, 2605.86, -12605.15, -32806.08, -54061.69, -50217.51, 0.00, 0.00, 0.00
206, 19364.72, 4219.70, -24954.80, 2606.32, -12603.14, -32806.01, -54061.13, -50216.79, 0.00, 0.00, 0.00
207, 19364.52, 4220.10, -24956.73, 2605.83, -12603.79, -32806.82, -54062.27, -50216.57, 0.02, -0.01, 0.97
208, 19365.08, 4221.02, -24959.37, 2605.45, -12604.66, -32807.22, -54062.63, -50216.50, 0.00, 0.00, 0.00
209, 19366.87, 4222.04, -24959.05, 2606.62, -12603.01, -32805.01, -54060.51, -50215.36, 0.00, 0.00, 0.00
210, 19367.65, 4223.72, -24957.76, 2609.72, -12600.28, -32802.61, -54059.64, -50215.11, 0.00, 0.00, 0.00
211, 19367.00, 4224.50, -24958.18, 2611.11, -12599.48, -32801.45, -54059.61, -50215.11, 0.00, 0.00, 0.00
212, 19366.98, 4225.73, -24957.94, 2609.79, -12599.95, -32803.31, -54060.48, -50214.36, 0.00, 0.00, 0.00
213, 19367.50, 4225.91, -24958.87, 2607.20, -12602.74, -32805.41, -54064.00, -50215.45, 0.00, 0.00, 0.00
214, 19368.70, 4225.87, -24959.05, 2608.45, -12603.30, -32805.68, -54065.54, -50214.73, 0.00, 0.00, 0.00
215, 19370.02, 4226.40, -24959.95, 2610.86, -12601.15, -32806.68, -54063.75, -50213.24, 0.00, 0.00, 0.00
216, 19369.91, 4226.98, -24959.88, 2612.94, -12600.91, -32807.15, -54063.88, -50213.17, 0.00, 0.00, 0.00
217, 19370.56, 4228.30, -24957.44, 2615.06, -12600.26, -32805.57, -54062.43, -50212.45, 0.02, -0.00, 0.97
218, 19369.02, 4227.34, -24956.39, 2616.74, -12599.77, -32804.56, -54061.69, -50212.03, 0.00, 0.00, 0.00
219, 19370.02, 4226.00, -24955.52, 2617.43, -12598.14, -32803.66, -54061.25, -50212.05, 0.00, 0.00, 0.00
220, 19371.68, 4226.07, -24955.12, 2617.90, -12597.42, -32802.68, -54061.47, -50212.43, 0.00, 0.00, 0.00
221, 19371.34, 4224.28, -24955.54, 2617.86, -12598.31, -32802.66, -54060.87, -50213.44, 0.00, 0.00, 0.00
222, 19373.51, 4224.28, -24955.10, 2616.45, -12598.69, -32801.34, -54059.95, -50213.62, 0.00, 0.00, 0.00
223, 19375.88, 4223.65, -24954.63, 2614.42, -12598.38, -32801.21, -54061.36, -50213.89, 0.00, 0.00, 0.00
224, 19376.84, 4222.71, -24954.43, 2614.39, -12597.22, -32801.56, -54061.43, -50214.46, 0.00, 0.00, 0.00
225, 19378.09, 4225.06, -24952.50, 2616.74, -12595.81, -32800.27, -54060.60, -50213.35, 0.00, 0.00, 0.00
226, 19377.29, 4224.93, -24952.28, 2617.21, -12596.68, -32799.20, -54060.15, -50213.97, 0.00, 0.00, 0.00
227, 19376.35, 4223.38, -24952.17, 2616.88, -12596.86, -32798.70, -54060.00, -50215.11, 0.00, 0.00, 0.00
228, 19376.06, 4221.48, -24951.68, 2616.23, -12596.44, -32798.70, -54060.69, -50215.85, 0.02, -0.01, 0.97
229, 19374.63, 4219.07, -24953.78, 2615.18, -12597.84, -32799.15, -54061.36, -50215.36, 0.00, 0.00, 0.00
230, 19375.47, 4218.06, -24952.95, 2615.13, -12598.16, -32797.32, -54060.48, -50213.82, 0.00, 0.00, 0.00
231, 19376.64, 4219.14, -24952.53, 2616.14, -12598.45, -32797.18, -54059.91, -50213.86, 0.00, 0.00, 0.00
232, 19376.46, 4219.83, -24952.91, 2618.69, -12597.64, -32798.52, -54059.46, -50213.62, 0.00, 0.00, 0.00
233, 19376.26, 4222.89, -24951.30, 2619.22, -12598.05, -32800.27, -54059.19, -50212.25, 0.00, 0.00, 0.00
234, 19376.84, 4225.33, -24949.51, 2620.23, -12598.81, -32801.14, -54059.35, -50210.93, 0.00, 0.00, 0.00
235, 19376.01, 4226.51, -24950.65, 2620.47, -12599.45, -32801.47, -54059.75, -50211.38, 0.00, 0.00, 0.00
236, 19376.26, 4226.58, -24953.78, 2620.52, -12600.33, -32802.08, -54060.08, -50213.13, 0.00, 0.00, 0.00
237, 19373.62, 4226.33, -24956.97, 2619.47, -12601.62, -32803.44, -54061.04, -50214.91, 0.00, 0.00, 0.00
238, 19372.55, 4227.70, -24956.77, 2618.93, -12601.58, -32804.78, -54061.83, -50215.32, 0.02, -0.01, 0.96
239, 19371.61, 4229.31, -24957.44, 2618.64, -12600.86, -32805.97, -54062.97, -50215.27, 0.00, 0.00, 0.00
240, 19370.98, 4228.82, -24957.40, 2618.24, -12600.55, -32807.02, -54063.97, -50214.78, 0.00, 0.00, 0.00
241, 19371.38, 4230.04, -24957.26, 2621.14, -12600.97, -32806.41, -54063.04, -50213.10, 0.00, 0.00, 0.00
242, 19371.50, 4231.05, -24958.87, 2622.04, -12601.11, -32805.90, -54062.59, -50213.48, 0.00, 0.00, 0.00
243, 19371.70, 4231.77, -24960.73, 2621.17, -12600.37, -32805.83, -54062.57, -50214.29, 0.00, 0.00, 0.00
244, 19373.62, 4232.15, -24961.13, 2620.97, -12598.92, -32805.61, -54063.01, -50214.98, 0.00, 0.00, 0.00
245, 19373.89, 4231.25, -24965.22, 2620.00, -12599.14, -32806.86, -54064.62, -50216.21, 0.00, 0.00, 0.00
246, 19374.56, 4231.30, -24966.99, 2617.32, -12600.62, -32807.98, -54065.11, -50216.03, 0.00, 0.00, 0.00
247, 19374.25, 4232.44, -24968.62, 2615.36, -12602.14, -32808.52, -54065.76, -50215.81, 0.00, 0.00, 0.00
248, 19373.84, 4232.84, -24969.11, 2613.72, -12603.50, -32807.93, -54065.49, -50215.50, 0.02, -0.01, 0.96
249, 19375.38, 4233.64, -24966.25, 2615.65, -12602.09, -32806.26, -54064.49, -50214.40, 0.00, 0.00, 0.00
250, 19379.14, 4232.44, -24965.58, 2617.48, -12600.17, -32806.30, -54062.99, -50213.75, 0.00, 0.00, 0.00
251, 19380.04, 4233.22, -24965.62, 2617.97, -12599.21, -32806.73, -54062.43, -50212.79, 0.00, 0.00, 0.00
252, 19380.04, 4234.96, -24967.39, 2617.19, -12598.69, -32807.38, -54062.61, -50212.36, 0.00, 0.00, 0.00
253, 19377.75, 4233.62, -24970.63, 2616.36, -12602.47, -32810.15, -54065.09, -50214.24, 0.00, 0.00, 0.00
254, 19377.58, 4232.73, -24970.56, 2619.02, -12603.68, -32811.15, -54065.94, -50213.33, 0.00, 0.00, 0.00
255, 19378.25, 4232.21, -24970.45, 2619.60, -12602.38, -32812.34, -54066.23, -50211.94, 0.00, 0.00, 0.00
0, 19378.83, 4232.41, -24970.16, 2618.53, -12600.75, -32812.85, -54065.20, -50211.49, 0.00, 0.00, 0.00
1, 19381.26, 4234.07, -24966.63, 2618.91, -12597.98, -32813.03, -54061.96, -50211.32, 0.00, 0.00, 0.00
2, 19382.78, 4234.96, -24965.02, 2619.31, -12597.80, -32813.97, -54060.02, -50211.43, 0.02, -0.01, 0.96
3, 19382.29, 4234.83, -24964.57, 2619.11, -12597.08, -32812.34, -54059.08, -50212.23, 0.00, 0.00, 0.00
4, 19381.53, 4233.64, -24965.82, 2619.65, -12596.15, -32811.40, -54059.95, -50213.24, 0.00, 0.00, 0.00
5, 19379.05, 4230.83, -24968.71, 2618.91, -12596.21, -32813.30, -54062.21, -50215.85, 0.00, 0.00, 0.00
6, 19378.72, 4229.84, -24970.34, 2618.86, -12594.92, -32814.62, -54062.86, -50216.12, 0.00, 0.00, 0.00
7, 19378.49, 4230.20, -24971.86, 2618.48, -12595.12, -32814.02, -54063.53, -50216.77, 0.00, 0.00, 0.00
8, 19377.89, 4230.27, -24972.82, 2619.24, -12595.63, -32813.05, -54063.19, -50218.94, 0.00, 0.00, 0.00
9, 19379.10, 4231.77, -24971.79, 2621.46, -12595.72, -32811.58, -54060.15, -50217.71, 0.00, 0.00, 0.00
10, 19380.59, 4234.07, -24970.63, 2623.11, -12597.80, -32810.77, -54058.83, -50216.77, 0.00, 0.00, 0.00
11, 19381.67, 4236.93, -24970.16, 2624.03, -12600.24, -32810.08, -54059.14, -50218.15, 0.00, 0.00, 0.00
12, 19380.95, 4236.91, -24971.77, 2624.16, -12602.72, -32810.55, -54059.59, -50220.64, 0.03, -0.01, 0.96
13, 19378.94, 4236.01, -24974.79, 2624.03, -12604.39, -32811.96, -54062.39, -50222.85, 0.00, 0.00, 0.00
14, 19378.34, 4236.17, -24974.05, 2623.65, -12604.06, -32812.49, -54063.91, -50224.12, 0.00, 0.00, 0.00
15, 19377.04, 4235.41, -24974.07, 2624.23, -12603.83, -32812.11, -54062.25, -50222.40, 0.00, 0.00, 0.00
16, 19376.35, 4235.79, -24975.30, 2624.61, -12603.34, -32811.29, -54059.30, -50220.70, 0.00, 0.00, 0.00
17, 19376.97, 4237.20, -24975.10, 2626.98, -12602.14, -32809.77, -54059.05, -50219.88, 0.00, 0.00, 0.00
18, 19377.96, 4238.02, -24974.70, 2627.60, -12602.32, -32809.99, -54061.13, -50220.52, 0.00, 0.00, 0.00
19, 19378.54, 4239.52, -24974.14, 2628.30, -12603.63, -32810.23, -54061.40, -50221.15, 0.00, 0.00, 0.00
20, 19378.02, 4238.99, -24973.87, 2628.36, -12605.49, -32809.16, -54062.16, -50221.06, 0.00, 0.00, 0.00
21, 19375.63, 4236.24, -24973.49, 2627.07, -12608.01, -32810.88, -54064.20, -50220.34, 0.00, 0.00, 0.00
22, 19373.91, 4234.83, -24972.84, 2625.79, -12608.82, -32811.82, -54065.31, -50219.90, 0.03, -0.00, 0.97
23, 19372.05, 4236.24, -24972.55, 2626.98, -12608.69, -32812.29, -54064.58, -50219.25, 0.00, 0.00, 0.00
24, 19372.17, 4235.86, -24971.79, 2628.72, -12610.00, -32811.62, -54063.37, -50217.53, 0.00, 0.00, 0.00
25, 19374.78, 4234.00, -24971.28, 2630.04, -12610.74, -32811.06, -54062.16, -50215.88, 0.00, 0.00, 0.00
26, 19376.23, 4231.81, -24972.13, 2629.57, -12612.40, -32812.74, -54063.28, -50217.24, 0.00, 0.00, 0.00
27, 19378.09, 4232.82, -24971.32, 2630.24, -12612.78, -32814.15, -54065.20, -50218.04, 0.00, 0.00, 0.00
28, 19378.74, 4233.24, -24971.55, 2630.91, -12611.84, -32813.72, -54066.01, -50216.99, 0.00, 0.00, 0.00
29, 19376.64, 4232.86, -24974.14, 2631.87, -12612.84, -32814.13, -54067.80, -50216.84, 0.00, 0.00, 0.00
30, 19375.30, 4233.24, -24973.87, 2632.12, -12614.54, -32814.59, -54067.44, -50214.73, 0.00, 0.00, 0.00
31, 19375.12, 4234.27, -24972.53, 2633.01, -12617.16, -32814.98, -54066.72, -50212.43, 0.00, 0.00, 0.00
32, 19375.38, 4237.15, -24971.39, 2633.01, -12618.25, -32815.46, -54069.09, -50211.09, 0.02, -0.01, 0.97
33, 19378.89, 4238.32, -24968.93, 2632.59, -12618.03, -32813.86, -54068.29, -50209.82, 0.00, 0.00, 0.00
34, 19380.93, 4236.28, -24968.08, 2632.88, -12618.59, -32813.01, -54065.45, -50209.19, 0.00, 0.00, 0.00
35, 19381.80, 4235.97, -24968.82, 2633.57, -12619.44, -32813.10, -54064.04, -50208.63, 0.00, 0.00, 0.00
36, 19383.32, 4235.90, -24970.25, 2632.90, -12621.94, -32813.21, -54064.64, -50209.06, 0.00, 0.00, 0.00
37, 19382.49, 4235.90, -24971.55, 2632.97, -12624.06, -32816.16, -54066.27, -50211.11, 0.00, 0.00, 0.00
38, 19381.51, 4236.35, -24970.25, 2635.78, -12624.53, -32817.48, -54064.93, -50213.17, 0.00, 0.00, 0.00
39, 19381.73, 4235.52, -24969.13, 2637.57, -12624.80, -32818.11, -54063.53, -50214.18, 0.00, 0.00, 0.00
40, 19382.45, 4235.45, -24968.66, 2637.13, -12624.35, -32818.30, -54063.30, -50213.39, 0.00, 0.00, 0.00
41, 19384.15, 4238.23, -24967.39, 2637.22, -12622.39, -32817.39, -54062.34, -50212.07, 0.00, 0.00, 0.00
42, 19382.56, 4238.36, -24968.06, 2636.03, -12621.52, -32816.47, -54061.36, -50212.43, 0.02, -0.01, 0.97
43, 19379.63, 4236.08, -24968.91, 2636.63, -12622.81, -32815.29, -54060.20, -50212.21, 0.00, 0.00, 0.00
44, 19378.02, 4235.14, -24969.85, 2636.01, -12624.98, -32814.24, -54060.02, -50212.84, 0.00, 0.00, 0.00
45, 19375.14, 4234.81, -24971.39, 2635.02, -12627.19, -32815.55, -54061.56, -50214.69, 0.00, 0.00, 0.00
46, 19373.55, 4234.07, -24971.68, 2634.15, -12627.06, -32817.88, -54063.04, -50214.29, 0.00, 0.00, 0.00
47, 19372.68, 4233.29, -24973.58, 2633.17, -12626.88, -32819.47, -54065.71, -50215.14, 0.00, 0.00, 0.00
48, 19371.94, 4234.67, -24974.65, 2633.46, -12628.18, -32820.43, -54066.72, -50215.58, 0.00, 0.00, 0.00
49, 19373.66, 4236.33, -24972.98, 2634.13, -12628.22, -32819.20, -54064.80, -50214.85, 0.00, 0.00, 0.00
50, 19376.21, 4235.74, -24972.96, 2635.23, -12627.64, -32818.42, -54065.38, -50215.54, 0.00, 0.00, 0.00
51, 19377.13, 4236.28, -24972.55, 2638.38, -12628.89, -32819.49, -54066.79, -50215.70, 0.00, 0.00, 0.00
53, 19378.02, 4234.90, -24974.18, 2639.18, -12632.85, -32818.30, -54068.60, -50217.30, 0.00, 0.00, 0.00
54, 19377.89, 4235.19, -24973.36, 2638.38, -12633.12, -32819.16, -54070.34, -50218.15, 0.00, 0.00, 0.00
55, 19377.42, 4234.96, -24972.02, 2638.65, -12633.74, -32820.27, -54070.52, -50219.94, 0.00, 0.00, 0.00
56, 19377.08, 4234.18, -24972.96, 2638.38, -12634.26, -32819.60, -54070.75, -50219.63, 0.00, 0.00, 0.00
57, 19378.02, 4233.26, -24972.98, 2638.91, -12635.87, -32819.60, -54071.26, -50219.70, 0.00, 0.00, 0.00
58, 19380.57, 4234.34, -24972.57, 2641.91, -12638.37, -32819.78, -54072.04, -50221.26, 0.00, 0.00, 0.00
59, 19381.17, 4234.45, -24972.93, 2643.50, -12639.58, -32818.30, -54072.94, -50220.97, 0.00, 0.00, 0.00
60, 19380.44, 4232.91, -24975.66, 2643.07, -12639.84, -32817.88, -54076.38, -50221.66, 0.00, 0.00, 0.00
61, 19380.44, 4231.61, -24978.05, 2641.35, -12642.62, -32819.11, -54079.80, -50222.96, 0.00, 0.00, 0.00
62, 19380.46, 4230.69, -24979.06, 2640.03, -12644.85, -32818.44, -54080.02, -50224.28, 0.00, 0.00, 0.00
63, 19379.79, 4231.30, -24979.17, 2641.55, -12645.79, -32817.79, -54079.02, -50224.66, 0.02, -0.01, 0.97
64, 19379.92, 4233.40, -24978.50, 2643.74, -12644.65, -32816.99, -54077.09, -50223.30, 0.00, 0.00, 0.00
65, 19382.11, 4235.95, -24975.99, 2646.36, -12642.39, -32814.35, -54072.09, -50220.81, 0.00, 0.00, 0.00
66, 19382.92, 4238.20, -24974.68, 2647.30, -12641.88, -32813.21, -54069.52, -50219.05, 0.00, 0.00, 0.00
67, 19383.23, 4238.61, -24974.74, 2647.74, -12643.06, -32812.85, -54068.42, -50219.38, 0.00, 0.00, 0.00
68, 19384.30, 4238.63, -24975.21, 2647.99, -12645.10, -32812.79, -54068.49, -50219.81, 0.00, 0.00, 0.00
69, 19384.13, 4237.00, -24977.31, 2647.36, -12646.64, -32814.98, -54069.36, -50219.16, 0.00, 0.00, 0.00
70, 19384.86, 4235.68, -24976.15, 2646.78, -12645.88, -32816.18, -54068.18, -50218.40, 0.00, 0.00, 0.00
71, 19384.93, 4235.88, -24974.21, 2645.51, -12645.30, -32815.85, -54067.59, -50217.55, 0.00, 0.00, 0.00
72, 19383.79, 4235.54, -24973.00, 2643.81, -12645.45, -32814.39, -54068.20, -50215.74, 0.00, 0.00, 0.00
73, 19385.44, 4236.19, -24970.52, 2644.59, -12645.88, -32812.00, -54067.80, -50212.79, 0.02, -0.01, 0.97
74, 19387.88, 4237.40, -24969.83, 2646.47, -12646.50, -32812.18, -54066.99, -50209.57, 0.00, 0.00, 0.00
75, 19388.42, 4238.23, -24968.82, 2646.40, -12647.96, -32812.85, -54066.57, -50209.75, 0.00, 0.00, 0.00
76, 19388.33, 4237.22, -24968.66, 2646.51, -12647.78, -32812.76, -54066.86, -50209.77, 0.00, 0.00, 0.00
77, 19385.29, 4234.45, -24970.38, 2645.08, -12650.35, -32813.75, -54068.11, -50210.04, 0.00, 0.00, 0.00
78, 19382.92, 4234.23, -24971.53, 2644.28, -12651.62, -32813.30, -54067.08, -50210.69, 0.00, 0.00, 0.00
79, 19382.29, 4235.81, -24972.75, 2645.44, -12651.65, -32812.32, -54066.66, -50210.55, 0.00, 0.00, 0.00
80, 19384.86, 4236.64, -24971.73, 2645.26, -12651.82, -32810.84, -54065.83, -50209.44, 0.00, 0.00, 0.00
81, 19386.40, 4238.54, -24970.23, 2647.61, -12651.51, -32810.71, -54063.50, -50208.03, 0.00, 0.00, 0.00
82, 19385.38, 4240.08, -24970.23, 2649.24, -12652.03, -32811.11, -54063.66, -50208.81, 0.00, 0.00, 0.00
91, 19386.47, 4241.98, -24958.78, 2658.87, -12658.89, -32813.77, -54073.59, -50210.53, 0.00, 0.00, 0.00
89, 19385.76, 4240.82, -24960.75, 2656.12, -12658.17, -32813.14, -54069.70, -50209.08, 0.00, 0.00, 0.00
85, 19382.22, 4241.33, -24966.47, 2652.97, -12655.11, -32813.61, -54068.02, -50212.32, 0.00, 0.00, 0.00
86, 19382.52, 4240.30, -24965.67, 2653.42, -12655.54, -32814.46, -54069.41, -50211.80, 0.00, 0.00, 0.00
99, 19388.33, 4244.46, -24959.54, 2660.33, -12658.40, -32818.11, -54076.07, -50210.40, 0.00, 0.00, 0.00
92, 19385.51, 4242.54, -24958.67, 2657.76, -12658.37, -32814.64, -54075.39, -50212.72, 0.00, 0.00, 0.00
95, 19384.06, 4242.43, -24960.62, 2656.77, -12659.45, -32817.50, -54078.68, -50215.23, 0.00, 0.00, 0.00
96, 19384.17, 4240.93, -24960.84, 2656.48, -12658.89, -32816.92, -54078.97, -50214.40, 0.00, 0.00, 0.00
97, 19386.07, 4242.16, -24959.79, 2658.25, -12657.17, -32817.03, -54078.23, -50212.25, 0.00, 0.00, 0.00
100, 19389.49, 4243.50, -24958.49, 2659.90, -12657.84, -32818.48, -54075.60, -50210.44, 0.00, 0.00, 0.00
101, 19389.27, 4241.44, -24959.77, 2657.78, -12660.34, -32820.25, -54077.03, -50213.57, 0.00, 0.00, 0.00
102, 19388.13, 4240.84, -24960.48, 2656.64, -12662.75, -32821.43, -54079.73, -50215.90, 0.00, 0.00, 0.00
103, 19387.75, 4241.73, -24961.40, 2656.57, -12663.51, -32821.84, -54081.72, -50214.46, 0.03, -0.01, 0.97
104, 19388.48, 4242.74, -24959.99, 2658.40, -12662.98, -32820.99, -54080.80, -50212.79, 0.00, 0.00, 0.00
105, 19390.56, 4243.03, -24957.73, 2660.17, -12661.26, -32819.29, -54079.82, -50211.23, 0.00, 0.00, 0.00
106, 19391.43, 4241.71, -24958.98, 2661.85, -12662.06, -32819.24, -54079.57, -50209.37, 0.00, 0.00, 0.00
107, 19390.72, 4240.80, -24960.26, 2661.67, -12664.01, -32819.27, -54080.85, -50208.88, 0.00, 0.00, 0.00
108, 19390.07, 4240.55, -24962.47, 2658.45, -12666.17, -32822.24, -54082.82, -50208.57, 0.00, 0.00, 0.00
109, 19389.73, 4240.86, -24963.93, 2657.04, -12667.98, -32824.95, -54084.31, -50210.98, 0.00, 0.00, 0.00
110, 19389.89, 4241.24, -24963.14, 2657.26, -12668.34, -32825.88, -54084.67, -50211.76, 0.00, 0.00, 0.00
111, 19390.32, 4241.38, -24963.61, 2657.26, -12669.04, -32827.31, -54084.20, -50211.40, 0.00, 0.00, 0.00
112, 19390.58, 4242.72, -24963.59, 2658.09, -12670.58, -32828.16, -54084.16, -50211.56, 0.00, 0.00, 0.00
113, 19391.10, 4244.02, -24960.19, 2660.98, -12669.68, -32827.87, -54082.95, -50211.32, 0.03, -0.00, 0.97
114, 19390.43, 4245.67, -24959.23, 2661.11, -12668.77, -32829.14, -54081.32, -50210.78, 0.00, 0.00, 0.00
115, 19388.15, 4246.70, -24961.38, 2660.84, -12668.79, -32830.38, -54081.03, -50211.58, 0.00, 0.00, 0.00
116, 19386.85, 4247.86, -24963.19, 2660.46, -12669.46, -32831.52, -54081.03, -50211.98, 0.00, 0.00, 0.00
117, 19385.60, 4247.75, -24965.51, 2659.54, -12669.77, -32831.61, -54080.65, -50212.88, 0.00, 0.00, 0.00
118, 19385.76, 4248.49, -24966.76, 2660.10, -12669.50, -32830.24, -54080.40, -50212.45, 0.00, 0.00, 0.00
119, 19386.74, 4248.73, -24967.10, 2659.95, -12669.53, -32830.49, -54079.73, -50212.97, 0.00, 0.00, 0.00
120, 19385.85, 4248.37, -24966.54, 2659.21, -12669.26, -32831.00, -54079.53, -50212.10, 0.00, 0.00, 0.00
121, 19386.43, 4247.57, -24965.47, 2658.67, -12667.05, -32831.70, -54078.41, -50210.35, 0.00, 0.00, 0.00
122, 19386.99, 4247.12, -24965.15, 2657.76, -12667.45, -32832.75, -54077.34, -50209.82, 0.00, 0.00, 0.00
123, 19387.52, 4248.53, -24964.75, 2657.64, -12668.54, -32833.59, -54077.29, -50209.97, 0.02, 0.00, 0.97
124, 19388.42, 4249.36, -24965.00, 2658.83, -12668.99, -32835.47, -54077.88, -50209.93, 0.00, 0.00, 0.00
125, 19389.20, 4249.80, -24966.92, 2658.81, -12671.25, -32836.57, -54079.51, -50208.95, 0.00, 0.00, 0.00
126, 19389.56, 4250.52, -24968.82, 2659.52, -12672.14, -32837.26, -54080.87, -50208.70, 0.00, 0.00, 0.00
127, 19388.66, 4249.67, -24970.18, 2658.36, -12673.08, -32838.42, -54080.65, -50209.71, 0.00, 0.00, 0.00
128, 19387.97, 4247.30, -24971.75, 2656.84, -12673.44, -32836.86, -54079.60, -50209.91, 0.00, 0.00, 0.00
129, 19390.58, 4246.97, -24971.44, 2656.06, -12672.63, -32833.59, -54079.42, -50209.17, 0.00, 0.00, 0.00
130, 19392.06, 4246.90, -24971.21, 2656.04, -12672.70, -32832.68, -54079.55, -50210.82, 0.00, 0.00, 0.00
131, 19391.93, 4247.52, -24971.28, 2656.19, -12674.40, -32832.57, -54079.35, -50210.31, 0.00, 0.00, 0.00
132, 19392.73, 4247.95, -24971.61, 2654.81, -12677.71, -32833.17, -54080.22, -50208.72, 0.00, 0.00, 0.00
133, 19392.37, 4246.74, -24972.73, 2655.45, -12679.72, -32835.09, -54081.70, -50209.62, 0.03, -0.00, 0.96
134, 19393.22, 4247.90, -24971.79, 2656.53, -12678.89, -32835.76, -54082.03, -50210.64, 0.00, 0.00, 0.00
135, 19394.38, 4247.01, -24970.47, 2655.72, -12676.75, -32835.34, -54083.31, -50210.82, 0.00, 0.00, 0.00
136, 19393.22, 4246.70, -24970.34, 2653.67, -12676.81, -32834.91, -54083.57, -50209.23, 0.00, 0.00, 0.00
137, 19392.06, 4247.19, -24970.16, 2653.40, -12677.55, -32833.68, -54082.48, -50207.70, 0.00, 0.00, 0.00
138, 19391.43, 4246.88, -24971.68, 2653.64, -12678.31, -32833.93, -54082.19, -50208.54, 0.00, 0.00, 0.00
139, 19390.94, 4247.05, -24973.09, 2653.13, -12678.22, -32833.46, -54081.54, -50210.78, 0.00, 0.00, 0.00
140, 19391.32, 4247.79, -24972.82, 2653.33, -12678.47, -32834.64, -54082.37, -50211.49, 0.00, 0.00, 0.00
141, 19391.23, 4248.13, -24975.41, 2653.91, -12680.95, -32837.37, -54085.05, -50212.01, 0.00, 0.00, 0.00
142, 19391.79, 4249.27, -24978.48, 2652.01, -12681.87, -32838.87, -54086.44, -50213.50, 0.00, 0.00, 0.00
143, 19391.99, 4252.26, -24978.83, 2650.65, -12681.55, -32839.65, -54086.77, -50215.76, 0.00, 0.00, 0.00
144, 19391.99, 4254.14, -24978.32, 2651.95, -12682.25, -32840.90, -54086.28, -50216.79, 0.02, -0.00, 0.97
145, 19394.14, 4255.10, -24977.16, 2653.87, -12681.69, -32839.11, -54085.90, -50215.54, 0.00, 0.00, 0.00
146, 19394.41, 4254.68, -24978.34, 2653.02, -12682.87, -32838.98, -54086.44, -50216.70, 0.00, 0.00, 0.00
147, 19394.96, 4254.74, -24978.23, 2651.43, -12684.15, -32840.50, -54088.18, -50218.38, 0.00, 0.00, 0.00
148, 19396.49, 4255.93, -24977.76, 2652.32, -12685.22, -32840.07, -54090.91, -50220.93, 0.00, 0.00, 0.00
149, 19397.65, 4256.35, -24979.06, 2651.65, -12686.60, -32840.12, -54091.67, -50224.30, 0.00, 0.00, 0.00
150, 19399.39, 4257.00, -24980.00, 2650.20, -12688.68, -32840.99, -54091.69, -50224.64, 0.00, 0.00, 0.00
151, 19400.46, 4258.07, -24980.93, 2649.33, -12689.40, -32842.02, -54092.34, -50225.08, 0.00, 0.00, 0.00
152, 19400.20, 4259.21, -24981.74, 2650.67, -12687.90, -32840.90, -54091.84, -50225.44, 0.00, 0.00, 0.00
153, 19399.32, 4260.56, -24982.01, 2651.90, -12686.07, -32840.16, -54090.46, -50224.64, 0.00, 0.00, 0.00
154, 19399.19, 4261.90, -24981.02, 2653.29, -12685.20, -32838.27, -54089.63, -50224.52, 0.02, -0.00, 0.96
155, 19399.82, 4263.17, -24980.46, 2652.97, -12684.70, -32837.17, -54090.21, -50224.01, 0.00, 0.00, 0.00
156, 19399.10, 4263.68, -24981.11, 2651.77, -12685.06, -32838.15, -54091.22, -50225.60, 0.00, 0.00, 0.00
157, 19397.49, 4263.51, -24984.09, 2649.15, -12687.27, -32840.34, -54092.98, -50228.10, 0.00, 0.00, 0.00
158, 19400.38, 4264.69, -24984.69, 2649.20, -12687.90, -32840.07, -54093.39, -50227.43, 0.00, 0.00, 0.00
159, 19403.35, 4264.18, -24983.97, 2651.03, -12686.80, -32839.47, -54093.07, -50225.93, 0.00, 0.00, 0.00
160, 19405.63, 4265.63, -24983.71, 2652.68, -12686.40, -32839.09, -54093.86, -50225.84, 0.00, 0.00, 0.00
161, 19407.30, 4266.84, -24981.63, 2654.63, -12685.49, -32837.91, -54093.32, -50224.99, 0.00, 0.00, 0.00
162, 19406.63, 4266.25, -24981.22, 2654.31, -12685.98, -32839.07, -54093.21, -50224.95, 0.00, 0.00, 0.00
163, 19406.10, 4265.72, -24980.87, 2654.09, -12686.20, -32840.43, -54093.10, -50225.89, 0.00, 0.00, 0.00
164, 19404.73, 4266.34, -24979.55, 2656.80, -12686.22, -32840.88, -54092.54, -50226.31, 0.02, 0.00, 0.96
165, 19404.06, 4266.28, -24980.46, 2658.34, -12685.93, -32841.91, -54092.54, -50226.36, 0.00, 0.00, 0.00
174, 19402.45, 4267.33, -24989.34, 2659.54, -12694.76, -32838.98, -54094.41, -50225.73, 0.02, -0.00, 0.96
167, 19404.11, 4268.76, -24981.40, 2657.15, -12686.54, -32845.60, -54093.54, -50225.31, 0.00, 0.00, 0.00
168, 19402.10, 4269.36, -24983.48, 2655.90, -12688.55, -32845.75, -54093.14, -50226.38, 0.00, 0.00, 0.00
172, 19404.62, 4268.53, -24984.49, 2657.82, -12690.78, -32839.14, -54093.21, -50226.31, 0.00, 0.00, 0.00
170, 19405.09, 4270.50, -24982.92, 2658.74, -12688.91, -32838.98, -54089.39, -50225.06, 0.00, 0.00, 0.00
175, 19403.19, 4266.97, -24989.70, 2660.68, -12695.79, -32837.39, -54095.02, -50224.17, 0.00, 0.00, 0.00
176, 19403.68, 4265.85, -24989.14, 2660.39, -12696.57, -32837.98, -54094.84, -50220.68, 0.00, 0.00, 0.00
177, 19404.35, 4264.00, -24988.67, 2660.39, -12696.06, -32837.93, -54093.88, -50217.73, 0.00, 0.00, 0.00
178, 19405.43, 4262.92, -24989.76, 2659.14, -12695.48, -32837.06, -54093.23, -50217.35, 0.00, 0.00, 0.00
179, 19406.07, 4261.90, -24990.34, 2657.20, -12695.01, -32835.74, -54093.48, -50217.86, 0.00, 0.00, 0.00
180, 19404.42, 4260.31, -24990.72, 2656.62, -12695.95, -32836.03, -54095.15, -50219.27, 0.00, 0.00, 0.00
181, 19401.52, 4259.59, -24993.07, 2656.17, -12698.29, -32838.71, -54097.34, -50222.16, 0.00, 0.00, 0.00
182, 19400.87, 4259.77, -24994.55, 2657.85, -12698.76, -32839.34, -54097.77, -50222.82, 0.00, 0.00, 0.00
183, 19400.96, 4259.84, -24994.64, 2658.81, -12696.82, -32838.45, -54097.46, -50222.16, 0.00, 0.00, 0.00
184, 19401.52, 4261.23, -24993.99, 2660.80, -12694.67, -32836.88, -54096.09, -50221.04, 0.02, -0.00, 0.97
185, 19403.15, 4263.10, -24992.63, 2661.42, -12692.75, -32836.25, -54094.39, -50219.50, 0.00, 0.00, 0.00
186, 19403.64, 4263.10, -24993.36, 2659.66, -12693.85, -32836.10, -54095.45, -50221.69, 0.00, 0.00, 0.00
187, 19403.04, 4263.22, -24993.56, 2658.20, -12694.92, -32835.96, -54096.56, -50224.12, 0.00, 0.00, 0.00
188, 19401.85, 4262.08, -24993.85, 2657.13, -12694.74, -32836.39, -54097.77, -50226.34, 0.00, 0.00, 0.00
189, 19401.78, 4261.05, -24996.69, 2655.61, -12696.71, -32837.53, -54099.18, -50228.77, 0.00, 0.00, 0.00
190, 19402.19, 4262.05, -24997.61, 2654.94, -12698.50, -32837.93, -54097.93, -50228.70, 0.00, 0.00, 0.00
191, 19402.88, 4262.43, -24997.68, 2655.66, -12699.28, -32837.21, -54096.83, -50227.99, 0.00, 0.00, 0.00
192, 19403.84, 4262.39, -24998.77, 2655.52, -12699.17, -32837.93, -54097.66, -50227.99, 0.00, 0.00, 0.00
193, 19405.58, 4261.92, -24999.82, 2653.87, -12697.98, -32838.85, -54098.02, -50227.68, 0.00, 0.00, 0.00
194, 19408.31, 4262.95, -24999.67, 2651.34, -12696.82, -32839.52, -54099.02, -50227.21, 0.02, -0.01, 0.97
195, 19409.56, 4264.06, -24999.91, 2650.76, -12697.44, -32838.31, -54099.07, -50227.61, 0.00, 0.00, 0.00
196, 19408.27, 4264.04, -25000.43, 2650.87, -12699.12, -32838.82, -54099.42, -50228.70, 0.00, 0.00, 0.00
197, 19406.25, 4262.95, -25002.24, 2650.47, -12700.80, -32841.33, -54101.43, -50231.39, 0.00, 0.00, 0.00
198, 19407.24, 4263.80, -25001.72, 2651.72, -12700.53, -32842.67, -54101.77, -50231.36, 0.00, 0.00, 0.00
199, 19409.54, 4264.24, -25000.89, 2653.96, -12700.75, -32842.45, -54098.89, -50229.71, 0.00, 0.00, 0.00
200, 19409.54, 4264.33, -25000.63, 2655.86, -12699.52, -32842.78, -54097.79, -50229.78, 0.00, 0.00, 0.00
201, 19408.71, 4263.39, -24999.24, 2657.96, -12696.77, -32842.54, -54097.84, -50228.84, 0.00, 0.00, 0.00
202, 19408.42, 4263.44, -25000.11, 2658.43, -12695.28, -32842.89, -54098.64, -50228.37, 0.00, 0.00, 0.00
203, 19409.20, 4263.28, -25000.92, 2658.63, -12696.28, -32841.62, -54100.32, -50228.97, 0.00, 0.00, 0.00
204, 19411.28, 4263.08, -24999.80, 2658.45, -12696.48, -32840.32, -54101.97, -50228.68, 0.02, -0.01, 0.97
205, 19411.21, 4261.94, -25001.90, 2657.20, -12697.56, -32840.55, -54103.36, -50228.53, 0.00, 0.00, 0.00
206, 19412.45, 4262.30, -25003.53, 2658.02, -12698.32, -32841.42, -54104.16, -50230.78, 0.00, 0.00, 0.00
207, 19412.18, 4263.17, -25005.61, 2658.92, -12699.61, -32842.63, -54105.77, -50232.88, 0.00, 0.00, 0.00
208, 19413.25, 4266.41, -25006.77, 2659.03, -12700.06, -32841.48, -54106.96, -50232.77, 0.00, 0.00, 0.00
209, 19412.51, 4269.59, -25005.92, 2660.33, -12697.85, -32839.38, -54106.98, -50230.98, 0.00, 0.00, 0.00
210, 19410.61, 4269.59, -25007.60, 2660.93, -12696.77, -32839.61, -54107.58, -50229.84, 0.00, 0.00, 0.00
211, 19410.99, 4268.71, -25008.88, 2661.51, -12696.33, -32841.24, -54109.57, -50228.37, 0.00, 0.00, 0.00
212, 19412.29, 4266.68, -25009.41, 2662.43, -12696.39, -32841.57, -54109.84, -50229.31, 0.00, 0.00, 0.00
213, 19410.66, 4264.20, -25010.13, 2662.05, -12697.76, -32842.87, -54111.56, -50231.54, 0.00, 0.00, 0.00
214, 19410.16, 4264.73, -25008.56, 2663.46, -12699.19, -32842.45, -54111.98, -50232.06, 0.02, -0.01, 0.97
215, 19412.11, 4265.67, -25008.09, 2664.33, -12699.61, -32841.13, -54111.87, -50231.34, 0.00, 0.00, 0.00
216, 19413.63, 4266.14, -25008.36, 2665.27, -12700.28, -32840.32, -54111.38, -50231.61, 0.00, 0.00, 0.00
217, 19415.13, 4265.41, -25006.04, 2667.14, -12698.43, -32839.07, -54109.44, -50230.34, 0.00, 0.00, 0.00
218, 19415.31, 4264.78, -25003.67, 2669.16, -12696.62, -32839.59, -54108.07, -50229.75, 0.00, 0.00, 0.00
219, 19414.41, 4265.25, -25003.24, 2670.30, -12697.06, -32839.90, -54107.96, -50228.55, 0.00, 0.00, 0.00
220, 19413.07, 4265.74, -25004.02, 2669.85, -12698.61, -32839.23, -54109.26, -50226.85, 0.00, 0.00, 0.00
221, 19410.99, 4266.17, -25005.79, 2668.15, -12700.39, -32840.28, -54110.93, -50227.36, 0.00, 0.00, 0.00
222, 19410.84, 4266.41, -25008.23, 2667.73, -12700.75, -32840.34, -54111.29, -50226.45, 0.00, 0.00, 0.00
223, 19412.71, 4265.88, -25008.63, 2668.51, -12700.44, -32839.59, -54111.43, -50226.74, 0.00, 0.00, 0.00
224, 19414.08, 4266.21, -25008.05, 2670.09, -12700.55, -32839.09, -54112.36, -50226.76, 0.02, -0.00, 0.97
225, 19415.48, 4266.41, -25007.20, 2671.88, -12698.88, -32837.75, -54112.48, -50227.77, 0.00, 0.00, 0.00
226, 19415.42, 4266.57, -25007.78, 2673.54, -12698.07, -32836.59, -54109.93, -50229.00, 0.00, 0.00, 0.00
227, 19414.57, 4266.93, -25008.03, 2674.79, -12699.30, -32836.48, -54109.19, -50230.61, 0.00, 0.00, 0.00
228, 19415.46, 4266.77, -25007.29, 2677.31, -12699.77, -32836.16, -54109.37, -50231.07, 0.00, 0.00, 0.00
229, 19414.41, 4264.40, -25007.85, 2677.09, -12701.42, -32836.61, -54109.79, -50231.41, 0.00, 0.00, 0.00
230, 19413.45, 4264.29, -25008.05, 2677.11, -12701.83, -32836.90, -54110.24, -50229.66, 0.00, 0.00, 0.00
231, 19413.07, 4264.82, -25008.61, 2676.71, -12702.41, -32837.06, -54111.36, -50227.70, 0.00, 0.00, 0.00
232, 19413.56, 4265.70, -25008.70, 2676.87, -12703.48, -32836.59, -54111.11, -50226.96, 0.00, 0.00, 0.00
233, 19415.69, 4267.19, -25008.14, 2678.88, -12703.08, -32834.84, -54109.04, -50226.31, 0.00, 0.00, 0.00
234, 19415.98, 4268.42, -25008.94, 2679.95, -12703.73, -32834.71, -54108.41, -50226.25, 0.00, 0.00, 0.00
235, 19415.24, 4269.43, -25009.77, 2679.06, -12704.22, -32835.18, -54108.50, -50227.54, 0.02, -0.01, 0.96
236, 19415.31, 4269.03, -25010.57, 2677.47, -12706.00, -32835.25, -54109.82, -50229.04, 0.00, 0.00, 0.00
237, 19413.03, 4266.93, -25011.96, 2675.86, -12709.25, -32836.75, -54111.80, -50230.83, 0.00, 0.00, 0.00
238, 19411.77, 4265.83, -25012.16, 2675.86, -12710.43, -32838.02, -54112.39, -50230.52, 0.00, 0.00, 0.00
239, 19411.89, 4264.11, -25011.69, 2676.51, -12709.29, -32839.11, -54112.21, -50229.11, 0.00, 0.00, 0.00
240, 19411.91, 4263.46, -25010.73, 2676.91, -12708.06, -32839.47, -54112.70, -50229.93, 0.00, 0.00, 0.00
241, 19412.04, 4264.94, -25008.83, 2678.30, -12707.35, -32838.60, -54113.26, -50230.38, 0.00, 0.00, 0.00
242, 19411.89, 4267.37, -25009.12, 2678.21, -12708.62, -32838.55, -54113.28, -50229.42, 0.00, 0.00, 0.00
243, 19413.54, 4270.66, -25009.10, 2676.62, -12709.89, -32838.09, -54113.37, -50228.10, 0.00, 0.00, 0.00
244, 19416.31, 4272.36, -25008.88, 2676.26, -12710.25, -32837.71, -54114.49, -50225.51, 0.00, 0.00, 0.00
245, 19416.47, 4272.22, -25009.16, 2675.19, -12712.13, -32837.84, -54116.41, -50225.17, 0.02, -0.01, 0.98
246, 19417.29, 4271.40, -25009.50, 2675.19, -12713.38, -32837.98, -54117.98, -50224.26, 0.00, 0.00, 0.00
247, 19417.81, 4271.57, -25011.58, 2674.63, -12713.63, -32839.83, -54118.87, -50223.56, 0.00, 0.00, 0.00
248, 19417.36, 4272.51, -25011.98, 2675.24, -12712.82, -32841.60, -54119.63, -50223.52, 0.00, 0.00, 0.00
249, 19420.74, 4274.03, -25008.72, 2677.56, -12710.23, -32842.11, -54118.73, -50221.44, 0.00, 0.00, 0.00
250, 19421.52, 4273.97, -25006.71, 2678.77, -12709.45, -32843.63, -54119.27, -50221.80, 0.00, 0.00, 0.00
251, 19421.41, 4274.61, -25005.66, 2679.01, -12711.30, -32844.59, -54119.85, -50223.61, 0.00, 0.00, 0.00
252, 19420.94, 4275.42, -25004.58, 2678.99, -12712.80, -32844.30, -54120.66, -50225.60, 0.00, 0.00, 0.00
253, 19418.93, 4275.08, -25005.83, 2677.43, -12714.23, -32844.68, -54122.27, -50227.36, 0.00, 0.00, 0.00
254, 19419.35, 4276.54, -25006.51, 2677.47, -12715.15, -32844.39, -54121.66, -50227.72, 0.00, 0.00, 0.00
255, 19419.15, 4278.44, -25005.97, 2677.92, -12716.00, -32844.17, -54121.04, -50225.91, 0.03, -0.01, 0.97
0, 19420.22, 4279.73, -25005.50, 2677.45, -12715.30, -32845.04, -54121.37, -50225.39, 0.00, 0.00, 0.00
1, 19422.88, 4282.10, -25003.98, 2676.93, -12714.07, -32843.96, -54120.70, -50224.55, 0.00, 0.00, 0.00
2, 19422.23, 4281.43, -25004.81, 2674.79, -12713.36, -32842.51, -54121.13, -50223.50, 0.00, 0.00, 0.00
3, 19422.86, 4280.20, -25003.31, 2674.45, -12713.34, -32842.47, -54120.07, -50223.12, 0.00, 0.00, 0.00
4, 19423.17, 4279.87, -25002.48, 2675.01, -12713.69, -32842.40, -54119.81, -50224.46, 0.00, 0.00, 0.00
5, 19421.36, 4278.46, -25004.61, 2674.68, -12715.91, -32842.69, -54121.82, -50227.25, 0.00, 0.00, 0.00
6, 19419.71, 4279.55, -25004.81, 2674.56, -12717.07, -32843.45, -54123.05, -50228.08, 0.00, 0.00, 0.00
7, 19419.17, 4279.71, -25003.93, 2675.12, -12717.61, -32844.23, -54122.78, -50228.14, 0.00, 0.00, 0.00
8, 19419.53, 4278.32, -25002.97, 2676.98, -12716.06, -32843.85, -54122.60, -50227.54, 0.00, 0.00, 0.00
9, 19420.85, 4280.25, -25002.17, 2679.08, -12714.99, -32841.89, -54121.82, -50227.54, 0.03, -0.01, 0.97
10, 19422.01, 4281.01, -25002.64, 2679.84, -12716.67, -32842.16, -54121.08, -50228.53, 0.00, 0.00, 0.00
11, 19421.94, 4280.09, -25002.68, 2679.19, -12718.12, -32843.32, -54121.30, -50227.50, 0.00, 0.00, 0.00
12, 19420.74, 4279.15, -25002.53, 2678.99, -12718.14, -32843.47, -54122.78, -50228.37, 0.00, 0.00, 0.00
13, 19418.23, 4277.81, -25004.13, 2677.34, -12719.37, -32844.57, -54124.66, -50229.71, 0.00, 0.00, 0.00
14, 19417.88, 4278.71, -25004.81, 2676.60, -12720.29, -32846.09, -54125.60, -50228.68, 0.00, 0.00, 0.00
15, 19417.14, 4279.69, -25005.92, 2677.02, -12721.74, -32846.80, -54127.90, -50229.17, 0.00, 0.00, 0.00
16, 19417.27, 4279.89, -25005.99, 2677.14, -12723.10, -32847.27, -54129.44, -50229.53, 0.00, 0.00, 0.00
17, 19418.70, 4280.49, -25004.90, 2677.02, -12723.37, -32846.42, -54130.54, -50229.42, 0.00, 0.00, 0.00
18, 19420.74, 4283.02, -25004.98, 2678.70, -12722.63, -32845.15, -54129.48, -50228.64, 0.00, 0.00, 0.00
19, 19422.68, 4285.68, -25004.31, 2681.34, -12721.07, -32845.38, -54129.13, -50228.75, 0.03, -0.01, 0.97
20, 19422.86, 4286.24, -25005.48, 2683.80, -12721.76, -32845.35, -54127.72, -50229.15, 0.00, 0.00, 0.00
21, 19421.94, 4284.45, -25006.86, 2683.93, -12722.93, -32846.38, -54128.05, -50230.31, 0.00, 0.00, 0.00
22, 19421.88, 4283.62, -25007.42, 2683.28, -12721.09, -32847.56, -54127.83, -50230.76, 0.00, 0.00, 0.00
23, 19421.07, 4283.58, -25007.80, 2683.17, -12718.72, -32848.14, -54127.30, -50231.99, 0.00, 0.00, 0.00
24, 19422.37, 4284.63, -25007.85, 2683.44, -12717.36, -32848.52, -54125.73, -50230.87, 0.00, 0.00, 0.00
25, 19423.38, 4287.49, -25006.97, 2684.49, -12714.12, -32846.87, -54123.38, -50228.93, 0.00, 0.00, 0.00
26, 19424.87, 4287.71, -25006.39, 2684.09, -12711.12, -32845.02, -54122.51, -50230.27, 0.00, 0.00, 0.00
27, 19426.30, 4288.61, -25006.51, 2684.31, -12709.18, -32844.12, -54121.98, -50229.93, 0.00, 0.00, 0.00
28, 19427.93, 4288.76, -25006.59, 2685.54, -12708.44, -32845.26, -54120.14, -50228.01, 0.00, 0.00, 0.00
29, 19429.03, 4286.64, -25007.62, 2684.65, -12709.00, -32847.21, -54119.36, -50228.10, 0.03, -0.01, 0.97
30, 19429.43, 4285.19, -25008.56, 2686.03, -12710.95, -32848.41, -54119.36, -50228.50, 0.00, 0.00, 0.00
31, 19428.49, 4283.62, -25008.32, 2687.15, -12712.17, -32849.89, -54118.87, -50228.68, 0.00, 0.00, 0.00
32, 19429.61, 4282.95, -25007.91, 2688.49, -12713.54, -32849.64, -54118.13, -50227.65, 0.00, 0.00, 0.00
33, 19431.38, 4284.99, -25007.29, 2690.46, -12713.22, -32849.06, -54116.79, -50225.06, 0.00, 0.00, 0.00
34, 19432.70, 4287.56, -25007.51, 2689.74, -12713.87, -32850.00, -54116.66, -50224.05, 0.00, 0.00, 0.00
35, 19435.58, 4289.32, -25007.22, 2688.67, -12714.45, -32850.94, -54117.46, -50224.79, 0.00, 0.00, 0.00
36, 19435.33, 4288.38, -25007.27, 2688.22, -12714.95, -32853.09, -54119.29, -50225.75, 0.00, 0.00, 0.00
37, 19433.34, 4287.20, -25006.95, 2688.60, -12715.21, -32854.65, -54120.34, -50226.85, 0.00, 0.00, 0.00
38, 19433.19, 4286.04, -25006.01, 2689.90, -12714.39, -32854.74, -54119.41, -50226.80, 0.00, 0.00, 0.00
39, 19434.48, 4284.40, -25006.33, 2689.50, -12714.03, -32855.48, -54120.52, -50226.65, 0.03, -0.01, 0.97
40, 19436.23, 4284.94, -25006.44, 2687.93, -12713.98, -32854.96, -54121.26, -50225.91, 0.00, 0.00, 0.00
41, 19437.21, 4285.70, -25006.21, 2688.09, -12713.25, -32854.70, -54120.81, -50224.17, 0.00, 0.00, 0.00
42, 19434.60, 4286.57, -25007.67, 2688.29, -12712.80, -32855.52, -54121.37, -50223.86, 0.00, 0.00, 0.00
43, 19433.59, 4287.42, -25008.49, 2690.05, -12711.48, -32855.54, -54122.16, -50222.89, 0.00, 0.00, 0.00
44, 19432.54, 4287.49, -25008.72, 2689.63, -12710.48, -32855.81, -54121.77, -50221.89, 0.00, 0.00, 0.00
45, 19431.04, 4284.29, -25011.20, 2686.86, -12713.38, -32857.91, -54123.32, -50221.77, 0.00, 0.00, 0.00
46, 19429.05, 4281.61, -25013.19, 2686.34, -12714.05, -32858.43, -54123.83, -50221.48, 0.00, 0.00, 0.00
47, 19429.10, 4281.92, -25013.30, 2686.59, -12714.66, -32856.75, -54122.51, -50222.36, 0.00, 0.00, 0.00
48, 19430.66, 4283.78, -25012.58, 2687.48, -12713.85, -32854.92, -54121.53, -50222.89, 0.00, 0.00, 0.00
49, 19432.76, 4286.35, -25009.95, 2690.08, -12711.06, -32851.92, -54120.57, -50220.43, 0.02, -0.01, 0.97
50, 19434.19, 4287.35, -25008.12, 2692.36, -12709.22, -32850.49, -54119.16, -50219.25, 0.00, 0.00, 0.00
51, 19435.56, 4287.42, -25008.00, 2693.97, -12709.02, -32849.78, -54117.84, -50218.91, 0.00, 0.00, 0.00
52, 19436.56, 4288.27, -25005.95, 2695.58, -12708.98, -32849.91, -54118.06, -50218.11, 0.00, 0.00, 0.00
53, 19436.45, 4287.80, -25007.00, 2694.53, -12710.83, -32851.92, -54117.73, -50218.40, 0.00, 0.00, 0.00
54, 19437.72, 4287.65, -25008.27, 2693.34, -12713.02, -32852.39, -54116.59, -50218.22, 0.00, 0.00, 0.00
55, 19438.62, 4287.51, -25008.72, 2691.57, -12713.76, -32851.34, -54115.67, -50217.37, 0.00, 0.00, 0.00
56, 19438.55, 4288.29, -25009.10, 2690.84, -12713.83, -32850.36, -54115.00, -50216.48, 0.00, 0.00, 0.00
57, 19439.29, 4289.39, -25007.78, 2691.91, -12712.38, -32850.25, -54113.77, -50215.29, 0.00, 0.00, 0.00
58, 19438.84, 4289.95, -25005.74, 2693.47, -12710.70, -32850.27, -54112.99, -50212.57, 0.00, 0.00, 0.00
59, 19439.29, 4290.73, -25005.10, 2695.13, -12709.56, -32850.87, -54112.79, -50211.67, 0.00, 0.00, 0.00
60, 19440.00, 4290.33, -25006.86, 2695.02, -12709.76, -32850.83, -54113.95, -50212.79, 0.02, -0.01, 0.97
61, 19438.26, 4288.23, -25009.92, 2693.77, -12712.82, -32852.26, -54114.73, -50214.60, 0.00, 0.00, 0.00
62, 19438.93, 4288.50, -25011.09, 2694.91, -12714.03, -32853.55, -54115.54, -50214.76, 0.00, 0.00, 0.00
63, 19439.07, 4287.35, -25010.35, 2696.65, -12713.09, -32854.58, -54116.28, -50213.84, 0.00, 0.00, 0.00
64, 19440.63, 4286.62, -25008.61, 2699.51, -12713.25, -32854.31, -54117.04, -50212.81, 0.00, 0.00, 0.00
65, 19442.75, 4285.61, -25008.18, 2701.23, -12713.47, -32854.36, -54119.09, -50211.76, 0.00, 0.00, 0.00
66, 19442.40, 4284.92, -25009.50, 2702.53, -12713.76, -32854.34, -54120.19, -50211.32, 0.00, 0.00, 0.00
67, 19441.64, 4284.43, -25009.39, 2702.55, -12713.34, -32853.73, -54120.63, -50211.14, 0.00, 0.00, 0.00
68, 19440.92, 4283.44, -25007.49, 2702.68, -12711.59, -32853.75, -54119.88, -50209.82, 0.00, 0.00, 0.00
69, 19439.94, 4282.24, -25008.61, 2701.68, -12711.97, -32854.85, -54121.73, -50210.49, 0.00, 0.00, 0.00
70, 19438.93, 4282.33, -25010.28, 2700.34, -12713.25, -32854.16, -54122.71, -50211.89, 0.02, -0.01, 0.96
71, 19437.30, 4283.67, -25010.53, 2700.25, -12714.10, -32854.18, -54121.77, -50212.63, 0.00, 0.00, 0.00
72, 19437.39, 4285.70, -25011.73, 2701.19, -12714.54, -32855.25, -54120.97, -50212.01, 0.00, 0.00, 0.00
73, 19440.74, 4288.20, -25011.73, 2702.08, -12713.85, -32854.65, -54119.47, -50210.15, 0.00, 0.00, 0.00
74, 19442.46, 4288.14, -25011.18, 2701.81, -12713.98, -32854.47, -54119.92, -50210.53, 0.00, 0.00, 0.00
75, 19443.42, 4287.91, -25012.52, 2700.72, -12715.21, -32856.19, -54121.28, -50210.58, 0.00, 0.00, 0.00
76, 19444.21, 4287.87, -25013.93, 2700.98, -12718.16, -32858.09, -54122.07, -50210.89, 0.00, 0.00, 0.00
77, 19443.18, 4288.56, -25016.18, 2700.78, -12721.25, -32860.10, -54122.60, -50211.27, 0.00, 0.00, 0.00
78, 19441.52, 4289.17, -25017.88, 2699.60, -12720.38, -32860.21, -54122.33, -50210.75, 0.00, 0.00, 0.00
79, 19439.40, 4289.17, -25017.55, 2698.84, -12720.15, -32859.16, -54122.60, -50209.73, 0.00, 0.00, 0.00
80, 19439.87, 4289.14, -25016.79, 2698.32, -12721.45, -32858.40, -54121.57, -50209.08, 0.02, -0.01, 0.97
81, 19440.18, 4289.43, -25015.22, 2698.46, -12721.20, -32858.05, -54120.03, -50208.12, 0.00, 0.00, 0.00
82, 19438.66, 4289.21, -25015.42, 2698.39, -12723.75, -32860.13, -54120.07, -50209.46, 0.00, 0.00, 0.00
83, 19438.22, 4289.90, -25015.29, 2698.37, -12724.98, -32860.91, -54120.12, -50210.64, 0.00, 0.00, 0.00
84, 19437.88, 4289.77, -25015.04, 2697.70, -12725.27, -32860.89, -54120.48, -50212.28, 0.00, 0.00, 0.00
85, 19435.53, 4287.11, -25018.06, 2696.02, -12726.75, -32864.73, -54123.00, -50213.48, 0.00, 0.00, 0.00
86, 19433.75, 4285.05, -25019.18, 2695.06, -12726.17, -32868.11, -54124.84, -50213.57, 0.00, 0.00, 0.00
87, 19432.83, 4286.13, -25018.62, 2695.84, -12726.70, -32869.40, -54126.04, -50215.63, 0.00, 0.00, 0.00
88, 19433.97, 4288.61, -25016.90, 2697.48, -12725.67, -32868.35, -54124.90, -50216.10, 0.00, 0.00, 0.00
89, 19434.75, 4289.48, -25014.71, 2699.38, -12722.84, -32868.93, -54123.34, -50214.06, 0.00, 0.00, 0.00
90, 19436.52, 4288.61, -25015.96, 2699.80, -12723.08, -32870.99, -54123.43, -50213.89, 0.02, -0.01, 0.97
91, 19438.93, 4289.77, -25016.52, 2699.40, -12725.14, -32869.71, -54125.35, -50216.03, 0.00, 0.00, 0.00
92, 19438.39, 4288.63, -25017.10, 2697.79, -12727.51, -32869.18, -54127.30, -50217.62, 0.00, 0.00, 0.00
93, 19436.38, 4288.85, -25017.75, 2697.05, -12730.10, -32871.01, -54128.93, -50219.54, 0.00, 0.00, 0.00
94, 19435.80, 4289.95, -25015.98, 2697.03, -12730.95, -32870.79, -54129.98, -50219.63, 0.00, 0.00, 0.00
99, 19441.35, 4292.74, -25014.53, 2699.35, -12734.53, -32865.87, -54133.20, -50216.25, 0.00, 0.00, 0.00
96, 19436.27, 4290.60, -25016.99, 2697.03, -12730.41, -32868.15, -54131.70, -50219.23, 0.00, 0.00, 0.00
97, 19437.99, 4292.00, -25014.42, 2699.55, -12730.55, -32866.88, -54131.92, -50216.68, 0.00, 0.00, 0.00
103, 19440.29, 4290.33, -25013.99, 2699.82, -12735.62, -32870.18, -54131.16, -50215.85, 0.00, 0.00, 0.00
101, 19439.33, 4292.16, -25014.55, 2697.94, -12734.59, -32868.06, -54133.29, -50216.19, 0.00, 0.00, 0.00
111, 19436.72, 4291.04, -25017.99, 2695.42, -12745.39, -32870.72, -54133.89, -50208.54, 0.00, 0.00, 0.00
105, 19441.95, 4291.45, -25015.76, 2699.96, -12737.43, -32868.84, -54130.85, -50212.99, 0.00, 0.00, 0.00
106, 19441.12, 4292.41, -25016.41, 2699.02, -12737.39, -32870.07, -54130.36, -50211.98, 0.00, 0.00, 0.00
107, 19440.21, 4292.41, -25016.09, 2697.36, -12736.90, -32869.29, -54129.53, -50209.91, 0.00, 0.00, 0.00
112, 19437.72, 4290.37, -25017.12, 2696.98, -12747.42, -32870.74, -54133.89, -50209.23, 0.00, 0.00, 0.00
113, 19439.98, 4290.19, -25016.50, 2698.48, -12747.80, -32868.21, -54131.45, -50208.70, 0.00, 0.00, 0.00
114, 19439.15, 4291.45, -25017.64, 2698.82, -12749.81, -32867.70, -54132.79, -50208.50, 0.00, 0.00, 0.00
115, 19439.40, 4290.93, -25018.69, 2698.39, -12751.65, -32868.24, -54134.94, -50208.54, 0.00, 0.00, 0.00
116, 19438.53, 4289.55, -25019.54, 2697.72, -12752.50, -32869.27, -54135.39, -50207.52, 0.00, 0.00, 0.00
117, 19436.00, 4286.26, -25020.63, 2695.53, -12755.54, -32871.46, -54137.22, -50208.34, 0.00, 0.00, 0.00
118, 19436.38, 4285.59, -25019.80, 2695.46, -12756.52, -32870.50, -54137.58, -50208.88, 0.00, 0.00, 0.00
119, 19437.14, 4286.17, -25018.57, 2694.93, -12757.03, -32868.38, -54138.61, -50208.36, 0.00, 0.00, 0.00
120, 19436.92, 4286.44, -25017.79, 2694.61, -12759.02, -32868.20, -54138.14, -50208.23, 0.02, -0.00, 0.97
121, 19439.94, 4287.09, -25015.60, 2694.93, -12759.13, -32866.77, -54137.64, -50207.80, 0.00, 0.00, 0.00
122, 19441.75, 4287.38, -25014.53, 2696.40, -12757.50, -32866.81, -54136.88, -50206.93, 0.00, 0.00, 0.00
123, 19441.26, 4289.03, -25014.82, 2698.37, -12758.22, -32867.88, -54136.95, -50204.05, 0.00, 0.00, 0.00
124, 19440.61, 4290.53, -25016.34, 2699.15, -12759.40, -32869.80, -54137.09, -50201.95, 0.00, 0.00, 0.00
125, 19439.91, 4290.60, -25016.90, 2699.11, -12762.20, -32870.83, -54137.62, -50201.55, 0.00, 0.00, 0.00
126, 19439.20, 4290.91, -25016.38, 2700.52, -12764.32, -32870.77, -54137.84, -50202.06, 0.00, 0.00, 0.00
127, 19438.84, 4290.13, -25017.68, 2699.73, -12766.40, -32869.89, -54137.11, -50201.21, 0.00, 0.00, 0.00
128, 19439.76, 4288.99, -25018.96, 2698.73, -12766.96, -32868.93, -54135.86, -50199.54, 0.00, 0.00, 0.00
129, 19443.25, 4290.10, -25018.11, 2698.82, -12765.35, -32867.32, -54134.65, -50197.12, 0.00, 0.00, 0.00
130, 19445.01, 4292.05, -25017.05, 2699.29, -12764.34, -32866.14, -54135.27, -50195.60, 0.02, -0.01, 0.97
131, 19444.88, 4294.40, -25017.28, 2699.91, -12764.43, -32865.91, -54135.16, -50196.38, 0.00, 0.00, 0.00
132, 19444.41, 4294.17, -25018.51, 2699.31, -12764.16, -32866.36, -54136.21, -50198.02, 0.00, 0.00, 0.00
133, 19441.66, 4292.56, -25019.00, 2695.93, -12765.57, -32867.70, -54138.07, -50198.73, 0.00, 0.00, 0.00
134, 19440.63, 4292.79, -25017.86, 2693.85, -12767.41, -32866.70, -54138.63, -50197.75, 0.00, 0.00, 0.00
135, 19440.29, 4292.67, -25018.57, 2692.78, -12768.79, -32867.01, -54141.11, -50196.70, 0.00, 0.00, 0.00
136, 19440.79, 4292.94, -25019.51, 2691.24, -12768.03, -32867.55, -54143.46, -50196.12, 0.00, 0.00, 0.00
137, 19443.42, 4294.75, -25018.49, 2690.14, -12768.37, -32865.98, -54143.03, -50194.66, 0.00, 0.00, 0.00
138, 19446.11, 4296.34, -25017.81, 2690.64, -12771.25, -32866.65, -54141.98, -50194.33, 0.00, 0.00, 0.00
139, 19447.80, 4296.32, -25018.40, 2691.40, -12772.57, -32866.41, -54141.87, -50193.75, 0.00, 0.00, 0.00
140, 19447.54, 4296.21, -25020.45, 2690.84, -12774.74, -32866.47, -54143.66, -50195.29, 0.02, -0.01, 0.97
141, 19445.44, 4294.24, -25023.36, 2690.41, -12777.91, -32867.75, -54146.63, -50198.33, 0.00, 0.00, 0.00
142, 19443.11, 4294.19, -25022.87, 2690.57, -12779.05, -32866.63, -54146.88, -50199.60, 0.00, 0.00, 0.00
143, 19441.79, 4294.80, -25021.35, 2690.77, -12778.11, -32865.13, -54146.65, -50199.38, 0.00, 0.00, 0.00
144, 19441.52, 4294.69, -25022.53, 2690.55, -12778.02, -32863.01, -54147.81, -50199.07, 0.00, 0.00, 0.00
145, 19443.02, 4295.85, -25023.69, 2691.57, -12777.35, -32861.18, -54149.20, -50198.33, 0.00, 0.00, 0.00
146, 19442.89, 4295.58, -25024.28, 2692.40, -12778.94, -32862.25, -54149.49, -50199.25, 0.00, 0.00, 0.00
147, 19440.90, 4294.62, -25023.87, 2691.78, -12780.91, -32862.11, -54149.58, -50199.25, 0.00, 0.00, 0.00
148, 19438.84, 4295.25, -25024.50, 2692.92, -12781.26, -32862.92, -54150.25, -50198.33, 0.00, 0.00, 0.00
149, 19438.19, 4295.83, -25026.91, 2692.85, -12783.21, -32863.63, -54150.81, -50197.30, 0.00, 0.00, 0.00
150, 19440.27, 4295.22, -25027.78, 2690.88, -12784.06, -32863.63, -54150.72, -50195.45, 0.00, 0.00, 0.00
151, 19443.42, 4295.47, -25029.42, 2689.29, -12784.53, -32863.68, -54151.41, -50195.69, 0.02, -0.01, 0.98
152, 19445.30, 4296.59, -25029.51, 2689.21, -12784.42, -32864.26, -54151.77, -50196.00, 0.00, 0.00, 0.00
153, 19447.65, 4298.53, -25027.07, 2690.37, -12781.98, -32865.49, -54149.51, -50194.75, 0.00, 0.00, 0.00
154, 19447.27, 4299.20, -25027.00, 2691.19, -12780.86, -32866.83, -54149.74, -50193.81, 0.00, 0.00, 0.00
155, 19446.44, 4299.56, -25028.81, 2691.15, -12781.64, -32867.19, -54151.59, -50194.86, 0.00, 0.00, 0.00
156, 19445.50, 4300.97, -25031.34, 2690.66, -12782.16, -32866.50, -54152.39, -50196.92, 0.00, 0.00, 0.00
157, 19445.50, 4300.12, -25033.24, 2689.32, -12782.76, -32867.99, -54153.18, -50199.51, 0.00, 0.00, 0.00
158, 19446.15, 4298.87, -25032.77, 2690.68, -12782.52, -32869.18, -54152.55, -50198.64, 0.00, 0.00, 0.00
159, 19446.38, 4299.36, -25031.11, 2690.55, -12782.20, -32870.23, -54151.05, -50197.70, 0.00, 0.00, 0.00
160, 19447.60, 4299.74, -25029.84, 2692.07, -12783.72, -32872.24, -54150.27, -50197.21, 0.00, 0.00, 0.00
161, 19447.38, 4301.48, -25028.79, 2693.41, -12784.12, -32873.98, -54149.98, -50196.45, 0.02, -0.01, 0.97
162, 19446.51, 4303.02, -25029.39, 2694.26, -12785.15, -32874.30, -54150.21, -50197.12, 0.00, 0.00, 0.00
163, 19446.44, 4303.38, -25029.46, 2694.19, -12786.38, -32873.04, -54150.81, -50196.81, 0.00, 0.00, 0.00
164, 19447.54, 4302.42, -25029.73, 2694.53, -12786.11, -32872.39, -54153.11, -50197.79, 0.00, 0.00, 0.00
165, 19445.82, 4300.68, -25032.46, 2694.39, -12786.25, -32873.02, -54154.39, -50200.56, 0.00, 0.00, 0.00
166, 19444.97, 4300.34, -25032.97, 2693.70, -12786.45, -32872.89, -54154.97, -50201.05, 0.00, 0.00, 0.00
167, 19445.46, 4300.83, -25032.10, 2693.97, -12786.56, -32872.51, -54155.66, -50199.34, 0.00, 0.00, 0.00
168, 19445.28, 4299.69, -25030.47, 2693.39, -12786.70, -32872.91, -54155.95, -50198.51, 0.00, 0.00, 0.00
169, 19446.20, 4299.07, -25029.35, 2694.08, -12786.29, -32873.40, -54154.48, -50199.09, 0.00, 0.00, 0.00
170, 19447.07, 4297.84, -25028.61, 2695.93, -12786.90, -32874.99, -54152.89, -50199.71, 0.00, 0.00, 0.00
171, 19446.67, 4297.90, -25029.86, 2696.22, -12787.46, -32875.93, -54153.52, -50198.64, 0.03, -0.01, 0.98
172, 19445.48, 4299.85, -25031.27, 2695.15, -12788.77, -32876.82, -54154.16, -50198.24, 0.00, 0.00, 0.00
173, 19444.86, 4300.39, -25032.68, 2694.46, -12790.52, -32878.92, -54155.10, -50199.45, 0.00, 0.00, 0.00
174, 19445.30, 4301.21, -25032.25, 2696.13, -12790.47, -32879.73, -54153.58, -50199.91, 0.00, 0.00, 0.00
175, 19445.66, 4300.68, -25031.47, 2696.38, -12791.23, -32882.45, -54155.21, -50201.73, 0.00, 0.00, 0.00
176, 19445.44, 4299.54, -25030.67, 2696.60, -12792.60, -32883.13, -54156.13, -50203.54, 0.00, 0.00, 0.00
177, 19446.60, 4299.34, -25027.72, 2696.98, -12791.99, -32882.05, -54155.39, -50203.78, 0.00, 0.00, 0.00
178, 19447.94, 4299.89, -25026.13, 2695.91, -12792.26, -32883.08, -54155.53, -50203.49, 0.00, 0.00, 0.00
179, 19448.83, 4299.67, -25024.72, 2697.18, -12792.91, -32884.54, -54155.28, -50203.27, 0.00, 0.00, 0.00
180, 19448.81, 4298.60, -25024.25, 2698.01, -12792.33, -32886.10, -54156.29, -50203.54, 0.00, 0.00, 0.00
181, 19447.71, 4296.59, -25027.61, 2698.15, -12795.12, -32888.45, -54159.19, -50205.79, 0.03, -0.01, 0.97
182, 19447.43, 4295.29, -25030.35, 2698.66, -12797.92, -32889.41, -54160.84, -50207.45, 0.00, 0.00, 0.00
183, 19448.41, 4296.32, -25031.29, 2697.86, -12799.39, -32888.96, -54160.93, -50207.18, 0.00, 0.00, 0.00
184, 19449.77, 4295.87, -25032.39, 2697.65, -12799.77, -32888.56, -54160.98, -50205.97, 0.00, 0.00, 0.00
185, 19452.03, 4298.17, -25031.36, 2699.71, -12798.30, -32887.08, -54160.80, -50205.57, 0.00, 0.00, 0.00
186, 19452.12, 4300.21, -25032.01, 2700.45, -12797.54, -32887.08, -54162.57, -50206.91, 0.00, 0.00, 0.00
187, 19452.34, 4300.16, -25032.63, 2699.51, -12796.73, -32887.21, -54163.28, -50207.58, 0.00, 0.00, 0.00
188, 19452.07, 4300.61, -25031.54, 2699.80, -12796.11, -32887.73, -54162.84, -50206.46, 0.00, 0.00, 0.00
189, 19449.62, 4300.05, -25030.55, 2700.00, -12797.16, -32889.77, -54163.26, -50207.09, 0.00, 0.00, 0.00
190, 19446.51, 4298.98, -25029.59, 2698.86, -12797.83, -32890.79, -54164.11, -50208.05, 0.00, 0.00, 0.00
191, 19444.70, 4299.63, -25029.06, 2698.88, -12798.85, -32890.73, -54165.32, -50209.88, 0.03, -0.01, 0.96
192, 19445.53, 4299.78, -25026.69, 2699.40, -12799.55, -32891.78, -54165.70, -50211.67, 0.00, 0.00, 0.00
193, 19446.31, 4299.76, -25026.06, 2700.90, -12800.22, -32890.88, -54164.11, -50210.64, 0.00, 0.00, 0.00
194, 19445.46, 4299.67, -25026.38, 2700.90, -12801.60, -32891.11, -54164.45, -50210.31, 0.00, 0.00, 0.00
195, 19445.48, 4300.68, -25027.22, 2699.96, -12802.01, -32893.68, -54165.32, -50210.42, 0.00, 0.00, 0.00
196, 19447.63, 4300.79, -25028.52, 2698.21, -12803.01, -32896.00, -54166.19, -50210.44, 0.00, 0.00, 0.00
197, 19446.69, 4300.23, -25030.31, 2698.15, -12804.38, -32897.54, -54167.66, -50211.83, 0.00, 0.00, 0.00
198, 19446.38, 4302.15, -25030.42, 2697.50, -12804.42, -32899.66, -54167.95, -50213.66, 0.00, 0.00, 0.00
199, 19445.10, 4302.71, -25030.89, 2697.03, -12804.53, -32900.56, -54168.16, -50213.62, 0.00, 0.00, 0.00
200, 19443.69, 4302.80, -25029.30, 2696.96, -12804.51, -32899.66, -54167.37, -50213.26, 0.00, 0.00, 0.00
201, 19445.53, 4303.49, -25027.20, 2698.28, -12803.08, -32897.43, -54166.63, -50212.14, 0.02, -0.01, 0.97
202, 19446.42, 4303.40, -25026.85, 2697.05, -12802.83, -32897.81, -54166.32, -50210.87, 0.00, 0.00, 0.00
203, 19447.56, 4303.40, -25025.53, 2697.72, -12803.15, -32896.80, -54166.23, -50209.71, 0.00, 0.00, 0.00
204, 19448.63, 4303.83, -25024.77, 2698.82, -12802.88, -32895.64, -54167.71, -50209.97, 0.00, 0.00, 0.00
205, 19448.32, 4301.84, -25025.82, 2697.25, -12803.84, -32896.38, -54169.07, -50211.76, 0.00, 0.00, 0.00
206, 19447.69, 4299.65, -25027.92, 2695.75, -12803.46, -32898.39, -54169.94, -50213.28, 0.00, 0.00, 0.00
207, 19447.38, 4298.42, -25029.04, 2694.30, -12803.97, -32898.10, -54172.34, -50215.45, 0.00, 0.00, 0.00
208, 19447.83, 4298.08, -25027.43, 2693.50, -12803.55, -32896.43, -54172.82, -50215.63, 0.00, 0.00, 0.00
209, 19449.46, 4300.68, -25026.38, 2694.17, -12802.90, -32893.79, -54172.45, -50214.29, 0.00, 0.00, 0.00
210, 19448.81, 4302.02, -25026.89, 2696.27, -12803.44, -32892.80, -54173.68, -50214.40, 0.00, 0.00, 0.00
211, 19447.78, 4300.99, -25028.19, 2696.65, -12805.13, -32895.20, -54175.38, -50214.76, 0.02, -0.01, 0.96
212, 19446.93, 4301.12, -25029.57, 2696.38, -12808.15, -32896.34, -54177.81, -50215.88, 0.00, 0.00, 0.00
213, 19446.87, 4300.39, -25030.33, 2698.48, -12809.05, -32896.09, -54179.42, -50216.99, 0.00, 0.00, 0.00
214, 19445.41, 4300.21, -25031.14, 2700.98, -12808.35, -32895.42, -54178.08, -50217.13, 0.00, 0.00, 0.00
215, 19443.96, 4298.53, -25031.83, 2702.93, -12808.98, -32895.71, -54178.59, -50217.42, 0.00, 0.00, 0.00
216, 19441.55, 4298.26, -25032.48, 2703.33, -12808.78, -32897.43, -54178.53, -50217.48, 0.00, 0.00, 0.00
217, 19441.95, 4299.63, -25032.21, 2703.82, -12807.12, -32896.92, -54175.73, -50216.77, 0.00, 0.00, 0.00
218, 19442.69, 4299.29, -25032.08, 2702.80, -12805.58, -32895.98, -54174.70, -50215.47, 0.00, 0.00, 0.00
219, 19442.69, 4298.51, -25031.90, 2703.53, -12804.24, -32895.71, -54173.47, -50215.43, 0.00, 0.00, 0.00
220, 19442.13, 4297.17, -25032.32, 2703.29, -12803.84, -32896.54, -54173.21, -50215.72, 0.00, 0.00, 0.00
221, 19442.35, 4295.76, -25033.89, 2700.49, -12805.45, -32899.55, -54174.97, -50216.10, 0.03, -0.01, 0.97
222, 19441.64, 4295.92, -25031.85, 2700.16, -12806.25, -32901.61, -54174.17, -50217.93, 0.00, 0.00, 0.00
223, 19442.71, 4298.08, -25029.86, 2700.00, -12806.21, -32902.59, -54172.27, -50217.35, 0.00, 0.00, 0.00
224, 19444.25, 4300.05, -25029.35, 2700.16, -12805.85, -32902.64, -54170.99, -50214.91, 0.00, 0.00, 0.00
225, 19446.71, 4299.78, -25027.83, 2700.27, -12806.23, -32903.60, -54170.50, -50213.35, 0.00, 0.00, 0.00
226, 19447.25, 4297.68, -25028.79, 2698.70, -12807.79, -32904.80, -54172.80, -50215.85, 0.00, 0.00, 0.00
227, 19445.55, 4296.97, -25031.14, 2696.22, -12809.72, -32905.84, -54174.48, -50218.64, 0.00, 0.00, 0.00
228, 19443.96, 4296.59, -25032.41, 2694.06, -12812.06, -32906.50, -54173.74, -50222.38, 0.00, 0.00, 0.00
229, 19442.35, 4297.03, -25033.44, 2693.05, -12812.78, -32906.66, -54172.49, -50225.60, 0.00, 0.00, 0.00
230, 19442.73, 4297.44, -25033.55, 2693.34, -12813.07, -32907.11, -54171.60, -50228.44, 0.00, 0.00, 0.00
231, 19442.73, 4297.55, -25034.40, 2693.07, -12814.54, -32907.00, -54171.71, -50231.39, 0.03, -0.01, 0.97
232, 19443.92, 4297.97, -25034.04, 2693.56, -12815.62, -32906.68, -54173.27, -50232.06, 0.00, 0.00, 0.00
233, 19446.26, 4300.34, -25031.94, 2696.31, -12815.06, -32905.39, -54173.27, -50229.11, 0.00, 0.00, 0.00
234, 19446.75, 4302.33, -25031.40, 2696.54, -12816.42, -32905.37, -54172.42, -50227.86, 0.00, 0.00, 0.00
235, 19445.86, 4303.45, -25030.51, 2696.74, -12817.67, -32904.32, -54171.84, -50227.45, 0.00, 0.00, 0.00
236, 19443.47, 4303.63, -25031.09, 2696.76, -12819.37, -32904.05, -54173.61, -50229.00, 0.00, 0.00, 0.00
237, 19441.68, 4302.80, -25031.74, 2695.73, -12821.43, -32905.07, -54176.83, -50231.79, 0.00, 0.00, 0.00
238, 19441.19, 4302.73, -25032.37, 2693.85, -12823.44, -32905.79, -54177.16, -50234.29, 0.00, 0.00, 0.00
239, 19441.57, 4301.70, -25033.60, 2692.45, -12826.32, -32905.72, -54175.64, -50235.97, 0.00, 0.00, 0.00
240, 19443.54, 4302.08, -25034.22, 2692.74, -12828.40, -32905.99, -54174.08, -50236.48, 0.00, 0.00, 0.00
241, 19445.26, 4304.05, -25033.97, 2694.03, -12828.40, -32906.39, -54172.27, -50236.86, 0.00, 0.00, 0.00
242, 19445.03, 4304.36, -25033.19, 2694.30, -12828.40, -32906.33, -54173.16, -50239.37, 0.02, -0.01, 0.97
243, 19446.64, 4305.15, -25032.28, 2696.51, -12828.47, -32904.45, -54173.45, -50240.95, 0.00, 0.00, 0.00
244, 19447.76, 4304.68, -25034.02, 2698.55, -12829.63, -32904.36, -54172.67, -50242.27, 0.00, 0.00, 0.00
245, 19447.76, 4302.29, -25036.21, 2697.45, -12831.80, -32905.90, -54173.00, -50243.39, 0.00, 0.00, 0.00
246, 19448.68, 4300.39, -25036.21, 2697.25, -12832.87, -32906.24, -54172.29, -50243.72, 0.00, 0.00, 0.00
247, 19449.39, 4300.27, -25036.86, 2696.36, -12833.19, -32906.30, -54171.64, -50243.37, 0.00, 0.00, 0.00
248, 19450.13, 4300.27, -25035.03, 2696.49, -12830.86, -32904.58, -54171.42, -50241.33, 0.00, 0.00, 0.00
249, 19452.50, 4301.73, -25032.54, 2699.60, -12830.15, -32903.20, -54170.50, -50237.91, 0.00, 0.00, 0.00
250, 19452.05, 4300.81, -25032.41, 2700.22, -12831.29, -32903.24, -54169.81, -50237.29, 0.00, 0.00, 0.00
251, 19451.20, 4299.56, -25032.97, 2698.37, -12831.55, -32904.34, -54169.81, -50237.91, 0.00, 0.00, 0.00
252, 19449.95, 4300.50, -25032.14, 2697.72, -12831.00, -32905.84, -54169.59, -50237.78, 0.02, -0.00, 0.97
253, 19446.87, 4300.10, -25031.90, 2696.69, -12831.73, -32907.49, -54170.21, -50238.20, 0.00, 0.00, 0.00
254, 19447.29, 4299.85, -25032.19, 2696.49, -12832.74, -32906.95, -54171.11, -50237.53, 0.00, 0.00, 0.00
255, 19447.49, 4298.98, -25032.30, 2695.73, -12834.82, -32906.66, -54171.93, -50236.35, 0.00, 0.00, 0.00
0, 19445.41, 4298.35, -25031.20, 2695.20, -12836.18, -32906.10, -54171.66, -50235.75, 0.00, 0.00, 0.00
1, 19444.14, 4301.01, -25029.06, 2694.86, -12836.58, -32904.43, -54171.89, -50235.41, 0.00, 0.00, 0.00
2, 19443.69, 4303.20, -25028.21, 2694.64, -12836.65, -32903.60, -54172.40, -50233.04, 0.00, 0.00, 0.00
3, 19445.01, 4303.25, -25028.57, 2695.24, -12836.63, -32902.93, -54173.34, -50230.98, 0.00, 0.00, 0.00
4, 19444.63, 4303.40, -25029.35, 2695.75, -12837.52, -32904.07, -54174.75, -50231.27, 0.00, 0.00, 0.00
5, 19442.35, 4301.57, -25030.91, 2692.89, -12839.11, -32906.26, -54177.56, -50233.20, 0.00, 0.00, 0.00
6, 19440.54, 4300.05, -25031.96, 2692.56, -12840.38, -32906.55, -54177.59, -50233.71, 0.02, -0.00, 0.96
7, 19438.66, 4297.97, -25031.47, 2694.93, -12840.18, -32905.21, -54177.59, -50233.06, 0.00, 0.00, 0.00
8, 19439.78, 4296.90, -25031.70, 2697.88, -12840.32, -32903.38, -54177.90, -50231.57, 0.00, 0.00, 0.00
9, 19441.59, 4298.13, -25032.28, 2700.18, -12840.61, -32901.90, -54176.98, -50229.31, 0.00, 0.00, 0.00
10, 19441.37, 4299.27, -25034.15, 2700.54, -12842.62, -32903.31, -54177.99, -50230.36, 0.00, 0.00, 0.00
11, 19443.04, 4299.67, -25034.09, 2700.63, -12844.36, -32904.54, -54178.08, -50230.34, 0.00, 0.00, 0.00
12, 19443.85, 4299.22, -25032.70, 2700.45, -12844.97, -32904.98, -54176.58, -50230.34, 0.00, 0.00, 0.00
13, 19442.53, 4299.74, -25032.39, 2700.29, -12844.92, -32905.50, -54175.20, -50230.98, 0.00, 0.00, 0.00
14, 19442.46, 4300.83, -25032.88, 2699.24, -12845.08, -32905.32, -54173.90, -50231.72, 0.00, 0.00, 0.00
15, 19441.79, 4302.17, -25033.89, 2696.89, -12845.70, -32905.23, -54173.59, -50231.34, 0.00, 0.00, 0.00
16, 19441.50, 4303.11, -25033.64, 2695.67, -12845.14, -32905.57, -54172.74, -50229.55, 0.02, -0.00, 0.96
17, 19441.46, 4304.01, -25030.94, 2695.84, -12843.40, -32906.10, -54170.81, -50226.96, 0.00, 0.00, 0.00
18, 19440.50, 4303.67, -25029.46, 2696.09, -12843.63, -32907.11, -54169.16, -50226.43, 0.00, 0.00, 0.00
19, 19440.00, 4305.21, -25028.41, 2697.59, -12843.89, -32907.71, -54168.33, -50226.58, 0.00, 0.00, 0.00
20, 19438.84, 4305.30, -25029.42, 2697.88, -12844.52, -32908.27, -54168.58, -50225.71, 0.00, 0.00, 0.00
21, 19437.72, 4304.68, -25031.74, 2696.69, -12844.70, -32909.16, -54170.34, -50226.38, 0.00, 0.00, 0.00
22, 19437.68, 4304.66, -25033.04, 2696.76, -12847.31, -32909.01, -54170.39, -50225.51, 0.00, 0.00, 0.00
23, 19437.48, 4304.74, -25033.39, 2697.25, -12849.39, -32909.34, -54169.59, -50224.52, 0.00, 0.00, 0.00
24, 19437.88, 4303.83, -25033.10, 2696.94, -12850.11, -32908.38, -54169.88, -50222.89, 0.00, 0.00, 0.00
25, 19440.63, 4305.48, -25031.92, 2697.88, -12849.59, -32908.32, -54168.51, -50221.15, 0.00, 0.00, 0.00
26, 19444.81, 4307.67, -25031.47, 2698.55, -12849.24, -32909.43, -54165.02, -50221.73, 0.02, -0.01, 0.96
27, 19447.89, 4309.48, -25031.47, 2699.51, -12849.28, -32909.90, -54163.19, -50222.18, 0.00, 0.00, 0.00
28, 19449.79, 4310.00, -25032.81, 2701.79, -12850.58, -32910.57, -54164.42, -50221.30, 0.00, 0.00, 0.00
29, 19448.32, 4308.03, -25034.56, 2702.30, -12853.26, -32910.71, -54166.90, -50221.91, 0.00, 0.00, 0.00
30, 19447.60, 4306.51, -25034.89, 2701.23, -12854.11, -32910.30, -54166.23, -50222.11, 0.00, 0.00, 0.00
31, 19448.74, 4305.24, -25034.91, 2701.14, -12853.57, -32911.24, -54164.85, -50220.66, 0.00, 0.00, 0.00
32, 19449.28, 4303.72, -25033.75, 2701.70, -12852.97, -32912.83, -54163.28, -50221.62, 0.00, 0.00, 0.00
33, 19450.09, 4302.96, -25032.70, 2702.64, -12851.85, -32911.63, -54160.36, -50220.19, 0.00, 0.00, 0.00
34, 19449.88, 4302.51, -25032.61, 2703.42, -12852.68, -32912.09, -54160.06, -50219.99, 0.00, 0.00, 0.00
35, 19447.22, 4301.12, -25032.03, 2702.73, -12855.18, -32913.88, -54162.72, -50222.67, 0.00, 0.00, 0.00
36, 19445.14, 4300.23, -25032.92, 2701.41, -12857.53, -32915.22, -54165.11, -50225.46, 0.02, -0.00, 0.97
37, 19443.65, 4300.39, -25034.31, 2699.46, -12859.43, -32916.12, -54167.66, -50225.73, 0.00, 0.00, 0.00
38, 19444.86, 4299.87, -25034.49, 2698.68, -12858.89, -32917.10, -54169.12, -50225.51, 0.00, 0.00, 0.00
39, 19446.26, 4298.58, -25035.07, 2698.39, -12859.09, -32918.15, -54169.03, -50224.21, 0.00, 0.00, 0.00
40, 19445.59, 4297.66, -25035.27, 2698.24, -12859.88, -32919.11, -54170.23, -50223.18, 0.00, 0.00, 0.00
41, 19446.96, 4298.22, -25033.89, 2700.16, -12860.23, -32917.32, -54170.21, -50221.62, 0.00, 0.00, 0.00
42, 19447.11, 4297.50, -25035.65, 2700.49, -12861.08, -32917.23, -54170.81, -50220.10, 0.00, 0.00, 0.00
43, 19447.29, 4298.87, -25039.85, 2699.29, -12863.03, -32918.29, -54171.21, -50218.42, 0.00, 0.00, 0.00
44, 19447.74, 4299.34, -25042.07, 2697.81, -12864.68, -32920.70, -54170.99, -50217.82, 0.00, 0.00, 0.00
45, 19445.99, 4298.44, -25043.99, 2695.08, -12867.16, -32925.41, -54172.38, -50220.16, 0.00, 0.00, 0.00
46, 19444.72, 4300.01, -25044.53, 2695.49, -12869.06, -32927.16, -54172.42, -50222.16, 0.02, -0.00, 0.97
47, 19444.63, 4300.56, -25044.99, 2696.27, -12870.65, -32926.69, -54171.51, -50223.92, 0.00, 0.00, 0.00
48, 19445.19, 4301.01, -25043.94, 2696.38, -12871.52, -32925.06, -54170.10, -50223.94, 0.00, 0.00, 0.00
49, 19445.93, 4302.06, -25040.86, 2696.96, -12871.23, -32924.25, -54168.09, -50223.34, 0.00, 0.00, 0.00
50, 19446.42, 4301.28, -25040.32, 2696.56, -12871.79, -32925.57, -54168.09, -50225.08, 0.00, 0.00, 0.00
51, 19446.67, 4301.06, -25040.68, 2697.70, -12872.44, -32926.49, -54168.20, -50226.87, 0.00, 0.00, 0.00
52, 19444.07, 4300.81, -25039.94, 2698.57, -12873.13, -32927.45, -54168.42, -50227.48, 0.00, 0.00, 0.00
53, 19442.24, 4299.58, -25039.47, 2695.42, -12874.05, -32928.97, -54171.15, -50228.26, 0.00, 0.00, 0.00
54, 19442.15, 4299.80, -25039.23, 2692.92, -12874.43, -32929.62, -54172.74, -50226.85, 0.00, 0.00, 0.00
55, 19443.78, 4298.26, -25039.85, 2691.06, -12875.21, -32930.18, -54173.23, -50226.58, 0.00, 0.00, 0.00
56, 19446.26, 4296.03, -25039.14, 2690.01, -12875.25, -32930.55, -54173.52, -50226.69, 0.02, -0.01, 0.96
57, 19449.73, 4297.15, -25035.32, 2690.30, -12873.84, -32928.39, -54173.18, -50225.42, 0.00, 0.00, 0.00
58, 19451.98, 4297.82, -25032.52, 2689.88, -12874.69, -32925.88, -54172.96, -50223.77, 0.00, 0.00, 0.00
59, 19453.26, 4297.15, -25032.41, 2688.98, -12876.66, -32923.83, -54173.77, -50222.60, 0.00, 0.00, 0.00
60, 19452.79, 4296.21, -25032.79, 2689.83, -12878.94, -32924.59, -54173.38, -50223.81, 0.00, 0.00, 0.00
61, 19449.91, 4293.46, -25034.58, 2688.42, -12881.40, -32926.91, -54175.44, -50225.46, 0.00, 0.00, 0.00
62, 19451.11, 4292.85, -25034.24, 2687.55, -12882.58, -32925.86, -54176.54, -50224.28, 0.00, 0.00, 0.00
63, 19452.86, 4293.97, -25033.64, 2687.64, -12882.74, -32923.71, -54179.46, -50223.79, 0.00, 0.00, 0.00
64, 19452.39, 4295.42, -25033.95, 2688.51, -12882.05, -32921.79, -54180.54, -50223.23, 0.00, 0.00, 0.00
65, 19452.12, 4297.19, -25035.29, 2689.79, -12880.24, -32920.32, -54180.05, -50222.22, 0.00, 0.00, 0.00
66, 19451.31, 4298.53, -25035.90, 2690.30, -12880.80, -32920.00, -54178.86, -50222.82, 0.00, 0.00, 0.00
67, 19450.93, 4300.32, -25035.76, 2690.21, -12881.89, -32920.18, -54177.61, -50223.56, 0.02, -0.00, 0.96
68, 19451.85, 4300.36, -25034.04, 2689.94, -12880.28, -32919.45, -54176.07, -50223.56, 0.00, 0.00, 0.00
69, 19449.95, 4298.93, -25036.41, 2687.80, -12880.80, -32921.17, -54178.08, -50225.93, 0.00, 0.00, 0.00
70, 19449.41, 4295.69, -25038.56, 2685.27, -12882.16, -32923.31, -54180.63, -50227.30, 0.00, 0.00, 0.00
71, 19451.40, 4294.73, -25039.65, 2685.05, -12882.52, -32924.81, -54183.22, -50227.86, 0.00, 0.00, 0.00
72, 19452.16, 4295.20, -25040.28, 2685.34, -12881.35, -32924.61, -54183.55, -50227.32, 0.00, 0.00, 0.00
73, 19452.57, 4296.54, -25035.70, 2688.76, -12879.70, -32922.75, -54181.54, -50225.31, 0.00, 0.00, 0.00
74, 19451.52, 4296.18, -25034.53, 2688.76, -12880.66, -32923.27, -54180.54, -50224.19, 0.00, 0.00, 0.00
75, 19448.90, 4295.76, -25035.72, 2687.48, -12882.54, -32925.64, -54180.56, -50224.52, 0.00, 0.00, 0.00
76, 19447.34, 4296.14, -25036.99, 2687.26, -12883.84, -32927.72, -54181.61, -50226.20, 0.00, 0.00, 0.00
77, 19447.65, 4295.85, -25038.29, 2687.55, -12886.25, -32930.67, -54184.43, -50228.91, 0.02, -0.00, 0.97
78, 19450.22, 4296.88, -25038.94, 2687.73, -12887.72, -32930.76, -54184.70, -50228.70, 0.00, 0.00, 0.00
79, 19450.33, 4296.41, -25039.12, 2687.39, -12889.16, -32930.51, -54184.92, -50228.70, 0.00, 0.00, 0.00
80, 19449.10, 4295.42, -25039.83, 2686.41, -12890.16, -32930.96, -54186.37, -50228.35, 0.00, 0.00, 0.00
86, 19448.23, 4297.35, -25045.35, 2687.28, -12890.88, -32931.83, -54188.05, -50226.76, 0.00, 0.00, 0.00
82, 19451.89, 4298.53, -25041.15, 2687.82, -12889.76, -32928.95, -54184.07, -50224.12, 0.00, 0.00, 0.00
108, 19450.55, 4305.77, -25039.41, 2697.50, -12890.56, -32922.02, -54170.43, -50238.00, 0.00, 0.00, 0.00
84, 19451.29, 4299.20, -25042.42, 2690.43, -12889.18, -32927.80, -54186.08, -50225.24, 0.00, 0.00, 0.00
106, 19451.05, 4302.98, -25037.35, 2692.71, -12888.84, -32924.92, -54173.09, -50239.39, 0.00, 0.00, 0.00
90, 19449.26, 4296.43, -25039.74, 2688.98, -12892.35, -32931.16, -54185.36, -50231.88, 0.00, 0.00, 0.00
91, 19450.17, 4295.63, -25039.34, 2690.23, -12890.94, -32931.58, -54185.03, -50233.24, 0.00, 0.00, 0.00
104, 19448.56, 4303.07, -25038.78, 2692.31, -12891.64, -32928.68, -54173.72, -50239.10, 0.00, 0.00, 0.00
93, 19449.62, 4296.03, -25041.06, 2691.35, -12891.52, -32930.85, -54186.13, -50237.02, 0.00, 0.00, 0.00
102, 19445.32, 4301.12, -25042.54, 2692.56, -12892.96, -32931.36, -54177.34, -50240.21, 0.00, 0.00, 0.00
100, 19449.39, 4299.92, -25040.52, 2693.12, -12891.12, -32932.52, -54180.43, -50240.51, 0.00, 0.00, 0.00
96, 19449.68, 4296.27, -25041.78, 2690.05, -12892.51, -32931.92, -54184.09, -50238.27, 0.00, 0.00, 0.00
97, 19451.07, 4298.44, -25040.95, 2691.02, -12891.97, -32930.09, -54182.88, -50236.71, 0.02, -0.01, 0.97
98, 19450.35, 4299.22, -25039.79, 2691.84, -12891.79, -32930.71, -54182.62, -50237.33, 0.00, 0.00, 0.00
109, 19446.20, 4305.64, -25040.90, 2696.38, -12891.59, -32921.41, -54171.06, -50238.56, 0.00, 0.00, 0.00
110, 19445.68, 4304.25, -25040.26, 2697.21, -12891.90, -32920.86, -54170.84, -50239.52, 0.00, 0.00, 0.00
111, 19446.60, 4302.58, -25039.45, 2697.07, -12893.96, -32920.88, -54172.00, -50239.37, 0.00, 0.00, 0.00
112, 19447.98, 4303.00, -25039.41, 2697.68, -12896.00, -32921.75, -54173.23, -50237.78, 0.00, 0.00, 0.00
113, 19449.68, 4306.89, -25038.20, 2699.55, -12894.81, -32919.69, -54171.89, -50235.88, 0.00, 0.00, 0.00
114, 19450.20, 4308.95, -25039.14, 2698.59, -12895.53, -32917.97, -54173.16, -50236.04, 0.00, 0.00, 0.00
115, 19449.88, 4308.48, -25040.19, 2697.68, -12896.96, -32918.08, -54174.68, -50235.68, 0.00, 0.00, 0.00
116, 19447.65, 4308.23, -25043.59, 2696.20, -12898.39, -32917.73, -54176.29, -50234.76, 0.00, 0.00, 0.00
117, 19445.59, 4306.09, -25046.65, 2694.12, -12898.48, -32917.23, -54176.56, -50235.57, 0.03, -0.01, 0.96
118, 19444.36, 4306.22, -25045.13, 2694.55, -12897.98, -32916.34, -54175.39, -50235.81, 0.00, 0.00, 0.00
123, 19445.08, 4305.64, -25041.57, 2698.21, -12901.49, -32921.19, -54176.52, -50236.37, 0.00, 0.00, 0.00
120, 19443.89, 4306.98, -25045.71, 2697.59, -12898.72, -32917.43, -54176.09, -50233.18, 0.00, 0.00, 0.00
121, 19445.88, 4306.71, -25043.14, 2698.88, -12898.16, -32917.41, -54175.42, -50231.92, 0.00, 0.00, 0.00
130, 19443.85, 4302.06, -25048.62, 2693.27, -12910.05, -32928.07, -54181.90, -50231.39, 0.00, 0.00, 0.00
128, 19441.84, 4300.77, -25047.14, 2692.80, -12908.62, -32930.02, -54180.94, -50232.91, 0.00, 0.00, 0.00
126, 19440.70, 4302.44, -25043.86, 2694.12, -12907.22, -32926.44, -54178.84, -50236.10, 0.00, 0.00, 0.00
131, 19446.78, 4302.02, -25049.06, 2693.12, -12909.45, -32929.01, -54183.96, -50232.46, 0.00, 0.00, 0.00
132, 19449.77, 4301.30, -25048.66, 2692.69, -12909.65, -32929.71, -54184.94, -50233.71, 0.00, 0.00, 0.00
133, 19449.26, 4299.13, -25049.24, 2691.33, -12910.30, -32929.95, -54186.89, -50234.23, 0.00, 0.00, 0.00
134, 19447.38, 4297.10, -25051.59, 2690.55, -12908.42, -32929.46, -54186.48, -50234.09, 0.00, 0.00, 0.00
135, 19445.70, 4295.65, -25053.27, 2689.94, -12907.62, -32929.50, -54184.92, -50234.67, 0.00, 0.00, 0.00
136, 19446.11, 4297.37, -25053.11, 2689.72, -12907.48, -32928.48, -54184.79, -50236.13, 0.00, 0.00, 0.00
137, 19446.53, 4300.01, -25050.25, 2688.96, -12907.66, -32926.00, -54185.25, -50235.14, 0.03, -0.00, 0.97
138, 19447.02, 4302.00, -25049.20, 2688.65, -12907.30, -32925.41, -54186.01, -50233.80, 0.00, 0.00, 0.00
160, 19450.02, 4304.28, -25056.39, 2677.14, -12914.95, -32926.91, -54194.08, -50234.00, 0.00, 0.00, 0.00
157, 19449.79, 4305.04, -25055.48, 2681.05, -12917.97, -32927.96, -54192.38, -50235.84, 0.00, 0.00, 0.00
141, 19447.87, 4303.72, -25052.88, 2682.63, -12911.48, -32927.96, -54190.59, -50233.62, 0.00, 0.00, 0.00
155, 19451.36, 4306.18, -25053.40, 2682.84, -12914.48, -32924.83, -54188.25, -50233.24, 0.00, 0.00, 0.00
167, 19455.38, 4302.29, -25058.00, 2678.77, -12914.70, -32926.93, -54193.90, -50230.71, 0.00, 0.00, 0.00
169, 19457.55, 4300.30, -25058.12, 2679.82, -12916.04, -32928.21, -54190.13, -50223.96, 0.00, 0.00, 0.00
165, 19457.39, 4305.97, -25056.35, 2680.80, -12912.11, -32926.49, -54190.66, -50230.25, 0.00, 0.00, 0.00
183, 19445.01, 4302.58, -25065.31, 2673.98, -12921.50, -32930.67, -54192.85, -50235.79, 0.00, 0.00, 0.00
181, 19446.15, 4306.51, -25061.27, 2674.07, -12918.30, -32931.47, -54193.99, -50235.12, 0.00, 0.00, 0.00
161, 19453.01, 4306.02, -25055.95, 2677.56, -12912.80, -32926.06, -54192.83, -50232.86, 0.00, 0.00, 0.00
170, 19456.46, 4300.12, -25058.76, 2680.64, -12917.88, -32928.01, -54191.11, -50224.79, 0.00, 0.00, 0.00
179, 19451.40, 4307.45, -25058.03, 2674.56, -12917.81, -32928.90, -54193.86, -50229.55, 0.00, 0.00, 0.00
177, 19454.49, 4307.07, -25057.67, 2678.03, -12915.44, -32928.68, -54195.31, -50228.26, 0.00, 0.00, 0.00
173, 19455.03, 4302.02, -25057.56, 2683.28, -12919.02, -32927.79, -54195.56, -50226.25, 0.00, 0.00, 0.00
186, 19447.76, 4304.61, -25065.07, 2675.03, -12921.23, -32929.01, -54189.28, -50228.61, 0.00, 0.00, 0.00
196, 19451.31, 4306.60, -25064.51, 2686.52, -12925.16, -32925.77, -54189.99, -50230.78, 0.00, 0.00, 0.00
190, 19446.53, 4304.99, -25068.13, 2682.28, -12921.30, -32927.00, -54190.39, -50230.40, 0.00, 0.00, 0.00
194, 19451.89, 4305.19, -25063.17, 2685.18, -12922.62, -32924.39, -54188.76, -50232.44, 0.00, 0.00, 0.00
188, 19447.63, 4305.48, -25067.53, 2677.09, -12920.31, -32925.46, -54188.25, -50227.43, 0.02, -0.00, 0.96
191, 19446.51, 4304.54, -25066.38, 2684.35, -12920.72, -32926.06, -54189.95, -50231.23, 0.00, 0.00, 0.00
192, 19447.83, 4305.19, -25065.85, 2685.18, -12920.67, -32926.62, -54189.23, -50232.57, 0.00, 0.00, 0.00
197, 19449.66, 4305.12, -25064.42, 2685.67, -12926.59, -32928.14, -54191.96, -50232.17, 0.00, 0.00, 0.00
198, 19451.56, 4306.69, -25064.20, 2686.08, -12927.94, -32928.84, -54191.29, -50232.06, 0.02, -0.00, 0.97
199, 19454.24, 4305.97, -25065.69, 2685.72, -12927.94, -32929.91, -54190.19, -50231.88, 0.00, 0.00, 0.00
200, 19453.97, 4305.91, -25064.71, 2685.94, -12926.93, -32931.07, -54190.80, -50234.11, 0.00, 0.00, 0.00
201, 19455.00, 4306.38, -25064.66, 2686.99, -12924.65, -32931.43, -54191.07, -50233.11, 0.00, 0.00, 0.00
202, 19455.72, 4305.48, -25065.40, 2687.55, -12924.74, -32930.55, -54191.36, -50231.30, 0.00, 0.00, 0.00
203, 19455.94, 4304.52, -25065.04, 2688.04, -12924.54, -32930.27, -54190.51, -50230.85, 0.00, 0.00, 0.00
204, 19455.72, 4303.81, -25064.62, 2688.09, -12924.20, -32931.16, -54190.93, -50232.75, 0.00, 0.00, 0.00
205, 19454.13, 4302.64, -25066.36, 2688.15, -12925.10, -32933.24, -54192.23, -50234.61, 0.00, 0.00, 0.00
206, 19454.20, 4304.43, -25068.44, 2687.55, -12924.81, -32934.45, -54191.94, -50234.11, 0.00, 0.00, 0.00
207, 19454.15, 4306.00, -25068.53, 2688.87, -12924.72, -32934.71, -54191.27, -50233.22, 0.00, 0.00, 0.00
208, 19456.14, 4306.26, -25067.84, 2690.55, -12923.33, -32933.98, -54188.36, -50230.27, 0.02, -0.00, 0.97
209, 19457.33, 4306.02, -25067.46, 2690.43, -12921.45, -32932.72, -54185.39, -50228.01, 0.00, 0.00, 0.00
210, 19456.86, 4305.30, -25065.54, 2689.88, -12921.50, -32932.90, -54183.96, -50228.53, 0.00, 0.00, 0.00
211, 19458.13, 4305.46, -25065.09, 2689.12, -12921.34, -32932.88, -54183.29, -50228.44, 0.00, 0.00, 0.00
212, 19460.97, 4306.53, -25065.33, 2688.58, -12921.72, -32933.19, -54182.86, -50228.55, 0.00, 0.00, 0.00
213, 19461.62, 4306.22, -25067.50, 2687.48, -12923.58, -32934.31, -54183.44, -50229.69, 0.00, 0.00, 0.00
214, 19461.48, 4306.24, -25067.97, 2686.28, -12923.46, -32936.34, -54183.96, -50229.93, 0.00, 0.00, 0.00
215, 19462.18, 4305.55, -25068.42, 2684.51, -12924.65, -32938.36, -54183.15, -50230.71, 0.00, 0.00, 0.00
216, 19461.82, 4304.81, -25067.95, 2684.74, -12926.62, -32938.22, -54181.92, -50231.88, 0.00, 0.00, 0.00
217, 19462.15, 4305.68, -25066.01, 2686.10, -12925.72, -32936.66, -54180.27, -50231.70, 0.00, 0.00, 0.00
218, 19461.10, 4307.25, -25066.29, 2686.03, -12926.21, -32935.32, -54181.41, -50231.90, 0.03, -0.00, 0.97
219, 19459.63, 4307.72, -25066.97, 2686.43, -12927.49, -32935.36, -54182.95, -50232.39, 0.00, 0.00, 0.00
229, 19456.41, 4310.13, -25072.31, 2683.86, -12925.70, -32934.56, -54182.68, -50231.18, 0.00, 0.00, 0.00
221, 19454.06, 4305.50, -25068.96, 2683.46, -12927.65, -32938.47, -54186.21, -50234.56, 0.00, 0.00, 0.00
227, 19458.36, 4310.49, -25068.35, 2685.32, -12924.16, -32933.15, -54182.53, -50227.59, 0.00, 0.00, 0.00
223, 19456.21, 4308.97, -25067.12, 2685.61, -12926.06, -32938.51, -54185.45, -50233.02, 0.00, 0.00, 0.00
224, 19457.60, 4309.39, -25067.53, 2686.28, -12925.66, -32937.69, -54183.89, -50232.46, 0.00, 0.00, 0.00
225, 19457.77, 4310.78, -25066.72, 2686.34, -12924.23, -32936.28, -54182.17, -50230.67, 0.00, 0.00, 0.00
230, 19455.43, 4310.76, -25073.76, 2682.90, -12925.86, -32936.70, -54181.01, -50233.46, 0.00, 0.00, 0.00
231, 19454.38, 4310.65, -25076.22, 2681.61, -12927.49, -32937.02, -54179.60, -50234.36, 0.00, 0.00, 0.00
232, 19454.91, 4311.79, -25077.36, 2680.71, -12928.79, -32937.06, -54180.00, -50234.63, 0.00, 0.00, 0.00
233, 19457.73, 4311.94, -25075.24, 2681.40, -12928.25, -32937.29, -54178.86, -50234.16, 0.00, 0.00, 0.00
234, 19458.27, 4310.35, -25073.67, 2682.30, -12929.03, -32939.41, -54178.59, -50234.11, 0.00, 0.00, 0.00
235, 19458.87, 4311.16, -25073.22, 2682.39, -12930.08, -32940.93, -54179.46, -50236.39, 0.00, 0.00, 0.00
236, 19459.56, 4310.44, -25073.22, 2681.45, -12931.47, -32942.16, -54180.85, -50237.15, 0.00, 0.00, 0.00
237, 19457.39, 4309.04, -25073.72, 2681.94, -12932.25, -32943.48, -54181.77, -50239.48, 0.00, 0.00, 0.00
248, 19454.18, 4313.40, -25075.64, 2683.28, -12941.79, -32941.91, -54183.96, -50241.00, 0.00, 0.00, 0.00
239, 19457.37, 4311.03, -25073.69, 2682.05, -12934.78, -32943.50, -54182.23, -50244.24, 0.00, 0.00, 0.00
240, 19456.59, 4311.00, -25073.74, 2679.15, -12935.63, -32942.67, -54181.45, -50242.94, 0.00, 0.00, 0.00
241, 19458.15, 4310.60, -25074.88, 2681.02, -12934.17, -32941.08, -54180.34, -50241.73, 0.00, 0.00, 0.00
242, 19458.85, 4310.62, -25076.29, 2682.84, -12934.24, -32938.65, -54180.14, -50240.66, 0.00, 0.00, 0.00
246, 19454.53, 4310.82, -25075.48, 2682.72, -12940.12, -32941.06, -54181.23, -50240.04, 0.00, 0.00, 0.00
244, 19458.56, 4311.16, -25076.73, 2683.42, -12935.45, -32937.91, -54177.70, -50237.60, 0.00, 0.00, 0.00
249, 19455.36, 4312.72, -25074.54, 2685.38, -12940.54, -32940.43, -54182.23, -50238.02, 0.03, -0.01, 0.97
250, 19454.51, 4311.76, -25075.44, 2685.85, -12940.79, -32940.77, -54181.23, -50236.91, 0.00, 0.00, 0.00
251, 19453.01, 4309.04, -25076.85, 2685.27, -12941.86, -32941.20, -54180.98, -50236.86, 0.00, 0.00, 0.00
252, 19450.44, 4309.26, -25077.29, 2683.19, -12942.64, -32940.57, -54182.48, -50238.05, 0.00, 0.00, 0.00
253, 19448.12, 4309.30, -25078.03, 2682.16, -12945.04, -32940.79, -54186.35, -50238.45, 0.00, 0.00, 0.00
7, 19456.61, 4312.86, -25071.95, 2687.42, -12950.24, -32942.49, -54182.68, -50234.54, 0.00, 0.00, 0.00
5, 19455.54, 4309.57, -25075.97, 2685.92, -12950.13, -32941.98, -54182.19, -50235.75, 0.00, 0.00, 0.00
0, 19448.92, 4307.90, -25075.97, 2683.48, -12947.27, -32940.57, -54187.45, -50235.97, 0.00, 0.00, 0.00
1, 19451.63, 4309.37, -25074.43, 2685.56, -12946.67, -32939.92, -54183.31, -50235.59, 0.00, 0.00, 0.00
2, 19453.19, 4310.71, -25074.52, 2686.37, -12947.65, -32939.72, -54181.18, -50236.15, 0.00, 0.00, 0.00
3, 19454.76, 4310.44, -25075.06, 2686.19, -12948.28, -32940.08, -54180.71, -50236.26, 0.03, -0.01, 0.96
8, 19456.95, 4313.24, -25071.46, 2687.22, -12950.94, -32941.62, -54181.27, -50233.96, 0.00, 0.00, 0.00
9, 19457.82, 4314.49, -25069.85, 2688.53, -12951.85, -32939.41, -54180.47, -50233.82, 0.00, 0.00, 0.00
16, 19463.94, 4311.52, -25072.58, 2689.88, -12959.14, -32946.85, -54183.06, -50236.24, 0.00, 0.00, 0.00
11, 19461.48, 4314.80, -25070.92, 2686.75, -12954.49, -32940.08, -54179.51, -50235.52, 0.00, 0.00, 0.00
12, 19462.47, 4314.76, -25070.81, 2688.22, -12955.96, -32942.36, -54180.09, -50236.91, 0.00, 0.00, 0.00
13, 19462.67, 4314.51, -25072.04, 2688.09, -12958.36, -32944.68, -54182.95, -50237.53, 0.03, -0.01, 0.96
14, 19463.92, 4313.44, -25073.20, 2687.71, -12959.90, -32946.00, -54183.80, -50237.31, 0.00, 0.00, 0.00
17, 19465.69, 4311.63, -25069.92, 2691.02, -12957.60, -32946.38, -54181.68, -50234.38, 0.00, 0.00, 0.00
18, 19465.26, 4311.07, -25068.98, 2691.51, -12958.13, -32946.18, -54180.45, -50234.25, 0.00, 0.00, 0.00
19, 19464.75, 4309.77, -25070.59, 2691.95, -12960.08, -32946.78, -54180.78, -50234.74, 0.00, 0.00, 0.00
20, 19462.58, 4310.22, -25070.92, 2691.19, -12962.27, -32947.79, -54181.83, -50234.34, 0.00, 0.00, 0.00
21, 19460.84, 4310.49, -25071.12, 2691.19, -12964.82, -32949.18, -54183.62, -50234.32, 0.00, 0.00, 0.00
35, 19459.63, 4307.54, -25063.14, 2696.58, -12964.48, -32955.23, -54187.33, -50238.38, 0.00, 0.00, 0.00
23, 19458.53, 4308.61, -25070.16, 2691.46, -12963.14, -32948.13, -54183.00, -50235.86, 0.02, -0.01, 0.97
33, 19463.34, 4307.87, -25062.61, 2696.09, -12964.28, -32949.71, -54186.39, -50235.79, 0.02, -0.00, 0.97
41, 19458.20, 4305.62, -25059.93, 2702.55, -12964.50, -32956.46, -54183.46, -50240.66, 0.00, 0.00, 0.00
26, 19463.56, 4311.85, -25067.12, 2693.18, -12961.82, -32946.00, -54181.61, -50234.92, 0.00, 0.00, 0.00
27, 19464.61, 4312.30, -25066.38, 2692.13, -12961.31, -32944.59, -54182.32, -50234.34, 0.00, 0.00, 0.00
39, 19454.31, 4308.32, -25061.89, 2700.90, -12967.92, -32956.39, -54187.02, -50240.57, 0.00, 0.00, 0.00
36, 19457.51, 4309.71, -25062.25, 2697.90, -12964.12, -32957.71, -54186.30, -50239.32, 0.00, 0.00, 0.00
37, 19456.12, 4310.44, -25063.17, 2698.66, -12967.05, -32959.77, -54187.27, -50241.51, 0.00, 0.00, 0.00
42, 19460.46, 4305.35, -25058.81, 2702.33, -12964.48, -32955.37, -54181.88, -50239.66, 0.00, 0.00, 0.00
43, 19462.24, 4304.59, -25057.65, 2703.13, -12963.39, -32955.10, -54179.60, -50239.50, 0.02, -0.01, 0.97
48, 19459.45, 4309.77, -25057.06, 2698.70, -12962.58, -32951.10, -54179.89, -50239.21, 0.00, 0.00, 0.00
45, 19460.08, 4306.31, -25057.58, 2700.60, -12964.06, -32955.14, -54179.75, -50239.75, 0.00, 0.00, 0.00
46, 19460.59, 4308.25, -25057.56, 2699.71, -12963.25, -32953.82, -54180.47, -50237.91, 0.00, 0.00, 0.00
49, 19459.27, 4308.50, -25056.35, 2698.50, -12961.24, -32950.52, -54179.78, -50239.70, 0.00, 0.00, 0.00
50, 19458.87, 4307.72, -25055.39, 2698.24, -12960.35, -32951.25, -54180.20, -50239.01, 0.00, 0.00, 0.00
51, 19459.45, 4308.88, -25055.01, 2698.53, -12960.03, -32951.21, -54178.55, -50237.58, 0.00, 0.00, 0.00
52, 19460.08, 4309.26, -25055.39, 2698.82, -12960.46, -32950.88, -54177.03, -50235.32, 0.00, 0.00, 0.00
53, 19458.45, 4308.81, -25057.56, 2697.70, -12962.74, -32950.00, -54176.52, -50234.07, 0.03, -0.01, 0.97
54, 19459.07, 4309.26, -25059.66, 2696.83, -12964.28, -32950.63, -54176.47, -50234.23, 0.00, 0.00, 0.00
55, 19461.51, 4308.59, -25060.24, 2697.39, -12963.68, -32950.96, -54175.84, -50234.11, 0.00, 0.00, 0.00
56, 19462.96, 4308.43, -25059.50, 2698.48, -12961.42, -32949.00, -54173.16, -50232.68, 0.00, 0.00, 0.00
57, 19464.95, 4309.17, -25058.25, 2698.37, -12961.02, -32946.85, -54170.93, -50230.78, 0.00, 0.00, 0.00
58, 19465.60, 4309.08, -25058.79, 2698.66, -12962.60, -32945.22, -54170.99, -50230.38, 0.00, 0.00, 0.00
59, 19466.42, 4309.80, -25059.90, 2698.59, -12963.90, -32944.05, -54174.05, -50230.43, 0.00, 0.00, 0.00
60, 19466.83, 4308.37, -25059.52, 2696.54, -12964.93, -32943.81, -54177.00, -50232.06, 0.00, 0.00, 0.00
61, 19465.08, 4306.82, -25059.68, 2694.48, -12967.23, -32944.73, -54177.48, -50233.82, 0.00, 0.00, 0.00
62, 19463.99, 4307.76, -25058.00, 2694.93, -12967.97, -32943.83, -54177.88, -50232.68, 0.00, 0.00, 0.00
63, 19463.25, 4307.92, -25058.47, 2695.37, -12969.15, -32943.92, -54178.35, -50231.81, 0.03, -0.00, 0.97
64, 19462.13, 4308.43, -25057.80, 2695.98, -12970.29, -32943.54, -54178.97, -50229.44, 0.00, 0.00, 0.00
65, 19464.32, 4310.82, -25055.46, 2699.24, -12967.79, -32941.24, -54177.92, -50226.94, 0.00, 0.00, 0.00
66, 19465.55, 4310.67, -25055.95, 2700.31, -12967.19, -32940.86, -54176.96, -50226.02, 0.00, 0.00, 0.00
67, 19464.12, 4309.89, -25055.95, 2701.05, -12966.54, -32940.86, -54175.75, -50224.77, 0.00, 0.00, 0.00
68, 19462.18, 4311.11, -25055.99, 2703.31, -12966.69, -32942.31, -54174.46, -50224.68, 0.00, 0.00, 0.00
69, 19459.45, 4311.32, -25056.06, 2703.87, -12967.70, -32943.72, -54174.73, -50225.22, 0.00, 0.00, 0.00
70, 19459.00, 4310.62, -25055.66, 2702.86, -12967.86, -32944.64, -54174.61, -50224.95, 0.00, 0.00, 0.00
71, 19459.16, 4310.62, -25055.79, 2702.84, -12967.21, -32944.84, -54173.95, -50224.05, 0.00, 0.00, 0.00
72, 19460.41, 4312.39, -25053.64, 2703.31, -12964.91, -32943.03, -54173.18, -50222.80, 0.00, 0.00, 0.00
73, 19461.66, 4314.80, -25051.70, 2703.96, -12963.25, -32941.87, -54171.39, -50219.14, 0.00, 0.00, 0.00
74, 19463.41, 4315.63, -25051.19, 2703.80, -12961.53, -32941.84, -54171.33, -50218.64, 0.03, -0.00, 0.96
75, 19464.10, 4315.29, -25051.28, 2704.05, -12960.17, -32942.00, -54172.63, -50219.92, 0.00, 0.00, 0.00
76, 19464.17, 4314.91, -25051.28, 2703.98, -12961.20, -32941.75, -54172.58, -50221.30, 0.00, 0.00, 0.00
77, 19464.03, 4313.06, -25052.93, 2701.23, -12964.03, -32942.98, -54174.19, -50222.94, 0.00, 0.00, 0.00
82, 19465.66, 4311.61, -25054.88, 2703.40, -12971.32, -32940.46, -54173.45, -50222.49, 0.00, 0.00, 0.00
79, 19461.42, 4312.93, -25055.97, 2700.90, -12967.81, -32941.57, -54174.23, -50223.09, 0.00, 0.00, 0.00
80, 19461.10, 4311.72, -25056.24, 2701.21, -12968.48, -32942.02, -54174.52, -50224.03, 0.00, 0.00, 0.00
83, 19465.98, 4312.61, -25054.90, 2703.20, -12974.00, -32941.35, -54173.18, -50222.40, 0.00, 0.00, 0.00
91, 19471.12, 4314.24, -25057.36, 2700.49, -12974.38, -32943.61, -54173.52, -50222.96, 0.00, 0.00, 0.00
85, 19464.44, 4312.41, -25058.23, 2700.94, -12978.81, -32943.23, -54173.99, -50222.96, 0.00, 0.00, 0.00
102, 19467.12, 4320.01, -25067.59, 2700.18, -12976.37, -32944.70, -54187.91, -50228.97, 0.00, 0.00, 0.00
97, 19468.06, 4320.73, -25062.12, 2701.52, -12974.14, -32943.81, -54181.50, -50225.13, 0.00, 0.00, 0.00
92, 19469.46, 4315.18, -25058.23, 2700.07, -12972.93, -32944.95, -54175.38, -50222.31, 0.00, 0.00, 0.00
100, 19468.84, 4323.48, -25064.71, 2701.23, -12976.62, -32944.30, -54184.14, -50227.86, 0.00, 0.00, 0.00
94, 19463.96, 4317.55, -25063.81, 2698.12, -12975.50, -32943.77, -54179.87, -50223.74, 0.02, -0.01, 0.97
95, 19464.39, 4319.50, -25065.22, 2697.68, -12975.43, -32943.92, -54181.43, -50224.68, 0.00, 0.00, 0.00
98, 19468.14, 4321.51, -25062.59, 2702.46, -12972.97, -32944.30, -54182.30, -50226.65, 0.00, 0.00, 0.00
103, 19466.94, 4318.71, -25065.56, 2699.20, -12977.76, -32944.61, -54188.23, -50228.68, 0.00, 0.00, 0.00
104, 19467.88, 4317.02, -25063.72, 2698.66, -12977.69, -32944.66, -54188.20, -50227.12, 0.02, -0.01, 0.97
105, 19468.39, 4317.31, -25061.85, 2699.02, -12976.28, -32944.79, -54186.46, -50224.01, 0.00, 0.00, 0.00
106, 19467.72, 4317.82, -25061.02, 2699.98, -12976.86, -32944.79, -54186.93, -50222.73, 0.00, 0.00, 0.00
107, 19466.02, 4318.27, -25060.53, 2699.24, -12978.14, -32946.67, -54187.94, -50222.00, 0.00, 0.00, 0.00
108, 19465.53, 4318.49, -25061.09, 2697.41, -12979.08, -32947.43, -54188.88, -50223.43, 0.00, 0.00, 0.00
109, 19466.00, 4316.41, -25062.61, 2695.02, -12980.53, -32947.61, -54190.55, -50225.69, 0.00, 0.00, 0.00
110, 19466.31, 4316.12, -25061.54, 2695.51, -12981.96, -32948.08, -54190.64, -50225.82, 0.00, 0.00, 0.00
111, 19464.97, 4318.02, -25060.26, 2696.18, -12984.98, -32949.06, -54190.84, -50225.22, 0.00, 0.00, 0.00
112, 19465.33, 4319.45, -25058.96, 2695.71, -12986.34, -32949.82, -54190.55, -50226.36, 0.00, 0.00, 0.00
113, 19467.79, 4321.06, -25057.78, 2696.60, -12985.58, -32949.58, -54189.32, -50225.38, 0.00, 0.00, 0.00
114, 19468.50, 4321.13, -25058.18, 2696.16, -12986.30, -32950.38, -54190.44, -50223.56, 0.03, -0.01, 0.97
115, 19469.29, 4319.14, -25056.84, 2695.98, -12986.41, -32951.07, -54191.07, -50223.36, 0.00, 0.00, 0.00
116, 19470.02, 4319.54, -25056.21, 2697.61, -12986.30, -32951.66, -54191.33, -50223.72, 0.00, 0.00, 0.00
117, 19470.29, 4319.79, -25057.22, 2698.37, -12986.94, -32951.70, -54193.79, -50225.71, 0.00, 0.00, 0.00
118, 19470.34, 4318.83, -25058.00, 2697.92, -12986.43, -32953.11, -54195.78, -50227.41, 0.00, 0.00, 0.00
134, 19468.28, 4322.72, -25064.35, 2696.27, -12988.22, -32945.69, -54203.61, -50228.04, 0.02, -0.00, 0.96
120, 19468.41, 4319.18, -25060.39, 2696.31, -12986.72, -32953.45, -54197.39, -50229.64, 0.00, 0.00, 0.00
121, 19469.98, 4320.79, -25060.37, 2695.91, -12984.06, -32950.29, -54197.43, -50229.13, 0.00, 0.00, 0.00
132, 19467.56, 4323.01, -25061.98, 2700.45, -12985.51, -32945.91, -54201.41, -50225.51, 0.00, 0.00, 0.00
130, 19466.98, 4322.72, -25060.87, 2701.32, -12981.67, -32944.44, -54200.79, -50226.67, 0.00, 0.00, 0.00
124, 19470.74, 4321.44, -25061.69, 2697.83, -12981.78, -32948.48, -54198.87, -50226.45, 0.03, -0.00, 0.97
127, 19466.09, 4321.67, -25062.76, 2698.21, -12982.97, -32946.18, -54200.88, -50229.15, 0.00, 0.00, 0.00
128, 19467.90, 4322.89, -25060.55, 2699.73, -12981.65, -32943.92, -54199.96, -50227.25, 0.00, 0.00, 0.00
135, 19468.90, 4321.06, -25064.51, 2696.38, -12989.02, -32946.07, -54203.58, -50227.92, 0.00, 0.00, 0.00
136, 19468.28, 4320.59, -25064.06, 2698.95, -12990.88, -32947.18, -54202.98, -50225.98, 0.00, 0.00, 0.00
137, 19469.04, 4320.61, -25063.26, 2701.59, -12991.64, -32947.23, -54202.06, -50224.05, 0.00, 0.00, 0.00
