%OpenBCI Raw EEG Data
%Sample Rate = 250.0 Hz
%First Column = SampleIndex
%Other Columns = EEG data in microvolts followed by Accel Data (in G) interleaved with Aux Data
110, 87215.25, 135729.59, 44146.39, 86764.98, 22555.08, 80973.86, 129583.41, 99454.87, 0.00, 0.00, 0.00
111, 87219.84, 135721.58, 44141.70, 86759.84, 22557.89, 80978.60, 129591.66, 99459.13, 0.00, 0.00, 0.00
112, 87220.48, 135724.81, 44148.79, 86768.64, 22554.85, 80975.83, 129588.55, 99459.02, 0.00, 0.00, 0.00
113, 87216.50, 135729.80, 44161.23, 86773.91, 22539.23, 80970.38, 129596.23, 99461.75, 0.00, 0.00, 0.00
114, 87218.98, 135728.69, 44156.12, 86764.35, 22532.39, 80968.25, 129587.84, 99464.73, 0.00, 0.00, 0.00
115, 87221.91, 135724.59, 44148.56, 86765.31, 22547.41, 80973.69, 129600.13, 99467.07, 0.00, 0.00, 0.00
116, 87223.30, 135721.00, 44146.32, 86764.73, 22554.99, 80967.00, 129600.93, 99467.52, 0.07, -0.27, 0.97
117, 87233.65, 135731.81, 44156.88, 86775.84, 22565.34, 80983.56, 129580.05, 99479.16, 0.00, 0.00, 0.00
118, 87233.80, 135716.61, 44152.18, 86779.17, 22561.98, 80978.11, 129610.48, 99480.86, 0.00, 0.00, 0.00
119, 87236.91, 135719.09, 44151.71, 86776.73, 22552.22, 80973.10, 129579.18, 99488.13, 0.00, 0.00, 0.00
120, 87238.79, 135723.31, 44147.40, 86764.24, 22543.79, 80966.09, 129576.23, 99489.94, 0.00, 0.00, 0.00
121, 87241.45, 135717.13, 44150.64, 86760.44, 22553.45, 80968.37, 129579.16, 99491.41, 0.00, 0.00, 0.00
122, 87245.65, 135719.63, 44150.24, 86755.48, 22544.15, 80962.24, 129606.50, 99493.34, 0.00, 0.00, 0.00
123, 87247.15, 135714.83, 44144.83, 86756.82, 22514.55, 80949.19, 129600.57, 99492.98, 0.00, 0.00, 0.00
124, 87247.91, 135716.59, 44142.88, 86764.80, 22529.13, 80948.56, 129560.32, 99494.83, 0.00, 0.00, 0.00
125, 87254.88, 135698.80, 44139.62, 86764.82, 22536.50, 80959.11, 129585.17, 99500.13, 0.00, 0.00, 0.00
126, 87259.22, 135700.05, 44141.97, 86760.33, 22544.17, 80964.12, 129610.68, 99510.95, 0.07, -0.26, 0.97
127, 87260.07, 135708.97, 44154.82, 86769.55, 22562.99, 80970.45, 129618.27, 99508.76, 0.00, 0.00, 0.00
128, 87256.85, 135703.20, 44157.23, 86785.63, 22560.91, 80969.93, 129576.21, 99504.95, 0.00, 0.00, 0.00
129, 87249.34, 135692.89, 44147.18, 86766.05, 22544.75, 80959.71, 129574.13, 99498.61, 0.00, 0.00, 0.00
130, 87258.50, 135677.83, 44145.66, 86763.81, 22542.14, 80966.66, 129590.56, 99510.77, 0.00, 0.00, 0.00
131, 87256.70, 135682.27, 44155.29, 86761.42, 22542.14, 80968.09, 129590.41, 99504.84, 0.00, 0.00, 0.00
132, 87259.80, 135686.11, 44151.00, 86758.74, 22524.61, 80964.92, 129599.12, 99505.58, 0.00, 0.00, 0.00
133, 87261.03, 135689.59, 44150.89, 86766.54, 22534.11, 80971.41, 129604.38, 99504.17, 0.00, 0.00, 0.00
134, 87262.19, 135689.91, 44157.37, 86781.52, 22550.74, 80982.71, 129598.45, 99507.34, 0.00, 0.00, 0.00
135, 87259.17, 135691.95, 44154.28, 86776.80, 22548.80, 80973.44, 129613.58, 99505.52, 0.00, 0.00, 0.00
136, 87265.90, 135687.20, 44152.72, 86776.78, 22562.43, 80982.85, 129617.49, 99508.58, 0.08, -0.26, 0.97
137, 87264.11, 135693.13, 44152.47, 86763.44, 22550.21, 80970.29, 129589.62, 99505.63, 0.00, 0.00, 0.00
138, 87260.96, 135701.86, 44147.89, 86759.34, 22530.76, 80960.88, 129592.21, 99502.34, 0.00, 0.00, 0.00
139, 87258.48, 135681.48, 44150.37, 86768.71, 22535.12, 80961.39, 129597.06, 99500.28, 0.00, 0.00, 0.00
140, 87261.23, 135679.39, 44145.63, 86766.16, 22565.34, 80973.15, 129593.24, 99504.38, 0.00, 0.00, 0.00
141, 87260.27, 135685.91, 44148.67, 86774.81, 22546.94, 80976.88, 129597.73, 99503.97, 0.00, 0.00, 0.00
142, 87269.88, 135687.13, 44147.22, 86766.43, 22542.76, 80975.77, 129608.35, 99511.20, 0.00, 0.00, 0.00
143, 87272.72, 135696.52, 44152.94, 86766.16, 22557.76, 80986.54, 129621.98, 99518.86, 0.00, 0.00, 0.00
144, 87274.91, 135696.39, 44144.83, 86757.04, 22547.03, 80985.69, 129642.66, 99522.13, 0.00, 0.00, 0.00
145, 87270.82, 135693.59, 44147.38, 86770.97, 22529.35, 80971.16, 129632.02, 99516.69, 0.00, 0.00, 0.00
146, 87263.42, 135697.17, 44145.90, 86775.33, 22531.27, 80964.37, 129576.48, 99504.80, 0.07, -0.26, 0.97
147, 87268.12, 135687.47, 44138.79, 86764.53, 22546.79, 80973.21, 129593.04, 99506.74, 0.00, 0.00, 0.00
148, 87272.95, 135692.81, 44140.11, 86763.57, 22553.33, 80975.67, 129610.41, 99516.49, 0.00, 0.00, 0.00
149, 87271.22, 135703.53, 44147.71, 86767.37, 22555.88, 80986.38, 129632.13, 99522.19, 0.00, 0.00, 0.00
150, 87265.88, 135709.91, 44152.25, 86765.13, 22544.51, 80975.34, 129621.96, 99516.47, 0.00, 0.00, 0.00
151, 87274.41, 135699.05, 44150.86, 86761.84, 22535.27, 80968.99, 129609.78, 99518.75, 0.00, 0.00, 0.00
152, 87277.13, 135701.34, 44152.34, 86767.37, 22547.01, 80974.82, 129618.63, 99523.27, 0.00, 0.00, 0.00
153, 87270.93, 135713.42, 44149.34, 86766.92, 22554.09, 80988.59, 129625.05, 99524.96, 0.00, 0.00, 0.00
154, 87272.16, 135710.36, 44151.29, 86775.68, 22547.05, 80991.52, 129634.95, 99529.50, 0.00, 0.00, 0.00
155, 87273.70, 135708.08, 44152.38, 86768.66, 22541.71, 80982.54, 129638.34, 99526.59, 0.00, 0.00, 0.00
156, 87274.53, 135714.69, 44158.17, 86767.77, 22536.75, 80987.81, 129650.64, 99526.13, 0.07, -0.26, 0.96
157, 87270.91, 135712.25, 44149.07, 86764.73, 22544.24, 80986.05, 129641.74, 99522.16, 0.00, 0.00, 0.00
158, 87265.99, 135706.17, 44145.01, 86769.34, 22545.33, 80978.24, 129637.41, 99519.38, 0.00, 0.00, 0.00
159, 87267.04, 135705.77, 44145.05, 86764.17, 22546.18, 80974.24, 129601.78, 99519.28, 0.00, 0.00, 0.00
160, 87273.84, 135707.92, 44150.28, 86766.32, 22534.09, 80971.27, 129619.82, 99522.55, 0.00, 0.00, 0.00
161, 87271.71, 135711.70, 44154.33, 86769.55, 22514.35, 80959.73, 129623.64, 99520.24, 0.00, 0.00, 0.00
162, 87273.16, 135712.39, 44158.73, 86771.19, 22541.00, 80979.77, 129629.63, 99524.85, 0.00, 0.00, 0.00
163, 87283.05, 135721.52, 44165.01, 86777.02, 22552.11, 80984.59, 129638.13, 99532.16, 0.00, 0.00, 0.00
164, 87284.19, 135718.53, 44153.72, 86771.75, 22553.15, 80984.59, 129638.34, 99533.43, 0.00, 0.00, 0.00
165, 87286.15, 135722.53, 44145.79, 86761.89, 22546.58, 80984.57, 129653.55, 99532.80, 0.00, 0.00, 0.00
166, 87287.76, 135727.50, 44140.76, 86751.21, 22515.09, 80969.95, 129640.29, 99532.34, 0.08, -0.27, 0.97
167, 87282.20, 135726.61, 44142.44, 86748.39, 22499.98, 80966.53, 129630.97, 99527.93, 0.00, 0.00, 0.00
168, 87280.14, 135701.66, 44138.12, 86745.22, 22514.87, 80968.43, 129623.26, 99523.22, 0.00, 0.00, 0.00
169, 87282.53, 135714.31, 44144.94, 86749.91, 22534.76, 80971.29, 129636.70, 99522.21, 0.00, 0.00, 0.00
170, 87279.83, 135718.73, 44157.34, 86762.90, 22537.11, 80976.52, 129633.97, 99528.09, 0.00, 0.00, 0.00
171, 87272.63, 135715.08, 44153.10, 86762.56, 22514.26, 80962.80, 129631.10, 99521.90, 0.00, 0.00, 0.00
172, 87278.51, 135713.86, 44142.01, 86749.87, 22522.69, 80967.42, 129616.48, 99523.33, 0.00, 0.00, 0.00
173, 87289.46, 135728.97, 44151.71, 86763.50, 22535.56, 80972.73, 129635.13, 99530.95, 0.00, 0.00, 0.00
174, 87285.28, 135728.06, 44149.01, 86757.02, 22523.72, 80963.09, 129627.24, 99527.60, 0.00, 0.00, 0.00
175, 87282.30, 135713.33, 44144.74, 86763.50, 22528.97, 80966.02, 129640.85, 99524.91, 0.00, 0.00, 0.00
176, 87284.66, 135716.38, 44146.28, 86766.18, 22522.62, 80966.46, 129637.27, 99527.13, 0.07, -0.27, 0.97
177, 87283.42, 135716.19, 44143.17, 86750.05, 22533.42, 80970.22, 129634.57, 99522.23, 0.00, 0.00, 0.00
178, 87288.43, 135721.55, 44145.45, 86751.38, 22540.64, 80977.57, 129662.30, 99528.96, 0.00, 0.00, 0.00
179, 87279.89, 135729.11, 44155.11, 86770.03, 22524.34, 80970.63, 129636.42, 99522.99, 0.00, 0.00, 0.00
180, 87279.18, 135726.66, 44156.61, 86771.66, 22526.85, 80970.40, 129627.33, 99521.90, 0.00, 0.00, 0.00
181, 87281.62, 135720.02, 44145.68, 86768.10, 22527.90, 80971.74, 129629.18, 99524.05, 0.00, 0.00, 0.00
182, 87283.07, 135719.97, 44143.42, 86760.80, 22514.38, 80963.13, 129625.72, 99525.90, 0.00, 0.00, 0.00
183, 87281.48, 135722.00, 44149.14, 86758.98, 22509.68, 80960.66, 129626.66, 99523.11, 0.00, 0.00, 0.00
184, 87281.57, 135725.00, 44153.10, 86762.14, 22519.81, 80955.36, 129629.01, 99524.00, 0.00, 0.00, 0.00
185, 87279.54, 135731.28, 44154.57, 86765.53, 22530.09, 80964.88, 129633.05, 99525.97, 0.00, 0.00, 0.00
186, 87279.71, 135736.58, 44154.28, 86762.38, 22530.96, 80970.60, 129650.59, 99525.30, 0.07, -0.26, 0.97
187, 87274.33, 135735.05, 44152.58, 86767.81, 22537.91, 80970.55, 129631.42, 99520.55, 0.00, 0.00, 0.00
188, 87275.71, 135715.11, 44150.46, 86762.95, 22540.71, 80974.84, 129637.16, 99520.36, 0.00, 0.00, 0.00
189, 87283.18, 135717.13, 44158.69, 86773.23, 22535.47, 80974.09, 129655.89, 99528.83, 0.00, 0.00, 0.00
190, 87281.23, 135726.56, 44160.32, 86772.51, 22533.71, 80974.80, 129647.11, 99528.67, 0.00, 0.00, 0.00
191, 87282.82, 135734.23, 44157.61, 86763.59, 22531.21, 80973.10, 129639.02, 99530.62, 0.00, 0.00, 0.00
192, 87281.46, 135728.11, 44154.71, 86758.72, 22510.53, 80966.20, 129653.59, 99526.88, 0.00, 0.00, 0.00
193, 87275.04, 135738.19, 44159.11, 86770.84, 22500.25, 80960.32, 129659.96, 99523.95, 0.00, 0.00, 0.00
194, 87275.89, 135733.83, 44156.70, 86773.47, 22513.75, 80967.07, 129623.53, 99525.43, 0.00, 0.00, 0.00
195, 87277.45, 135726.41, 44160.68, 86771.77, 22535.25, 80977.87, 129648.31, 99532.74, 0.00, 0.00, 0.00
196, 87278.55, 135732.94, 44159.91, 86773.45, 22548.06, 80979.05, 129662.29, 99533.32, 0.07, -0.27, 0.96
197, 87275.47, 135722.33, 44150.62, 86768.62, 22527.52, 80973.95, 129688.30, 99532.67, 0.00, 0.00, 0.00
198, 87278.48, 135722.69, 44146.62, 86767.26, 22535.95, 80975.74, 129679.20, 99534.30, 0.00, 0.00, 0.00
199, 87278.98, 135733.22, 44146.79, 86765.47, 22548.82, 80978.20, 129663.07, 99533.56, 0.00, 0.00, 0.00
200, 87278.95, 135725.08, 44145.54, 86757.02, 22537.40, 80974.42, 129680.52, 99532.63, 0.00, 0.00, 0.00
201, 87273.75, 135739.22, 44156.05, 86762.65, 22529.19, 80973.17, 129678.47, 99531.04, 0.00, 0.00, 0.00
202, 87269.50, 135731.95, 44152.83, 86765.70, 22514.93, 80975.70, 129721.30, 99532.23, 0.00, 0.00, 0.00
203, 87278.22, 135727.08, 44148.89, 86766.52, 22517.88, 80971.56, 129698.92, 99537.55, 0.00, 0.00, 0.00
204, 87275.83, 135724.69, 44157.86, 86758.27, 22521.82, 80970.73, 129651.53, 99536.25, 0.00, 0.00, 0.00
205, 87268.31, 135724.44, 44148.36, 86753.45, 22525.39, 80975.07, 129671.65, 99529.70, 0.00, 0.00, 0.00
206, 87270.86, 135732.14, 44151.87, 86779.82, 22535.34, 80976.86, 129700.28, 99527.84, 0.07, -0.27, 0.96
207, 87271.55, 135732.17, 44154.11, 86773.13, 22531.00, 80980.66, 129711.68, 99535.11, 0.00, 0.00, 0.00
208, 87270.28, 135727.31, 44162.96, 86766.14, 22515.89, 80971.02, 129709.13, 99530.64, 0.00, 0.00, 0.00
209, 87273.91, 135726.42, 44158.51, 86765.91, 22531.12, 80977.41, 129701.54, 99531.29, 0.00, 0.00, 0.00
210, 87271.11, 135732.55, 44153.14, 86764.48, 22525.13, 80977.80, 129695.41, 99531.17, 0.00, 0.00, 0.00
211, 87271.66, 135725.38, 44146.97, 86761.35, 22524.90, 80977.33, 129712.13, 99530.02, 0.00, 0.00, 0.00
212, 87271.58, 135740.48, 44156.96, 86755.86, 22521.82, 80972.90, 129686.70, 99524.70, 0.00, 0.00, 0.00
213, 87268.00, 135731.14, 44161.75, 86761.67, 22516.56, 80979.27, 129684.02, 99522.50, 0.00, 0.00, 0.00
214, 87266.70, 135726.78, 44160.07, 86766.74, 22524.61, 80975.67, 129715.75, 99526.34, 0.00, 0.00, 0.00
215, 87260.41, 135735.05, 44157.84, 86762.56, 22514.44, 80972.45, 129702.32, 99518.81, 0.00, 0.00, 0.00
216, 87261.59, 135731.75, 44153.46, 86761.69, 22532.93, 80980.57, 129702.07, 99517.34, 0.07, -0.26, 0.96
217, 87267.06, 135732.53, 44157.64, 86770.66, 22537.55, 80980.30, 129718.55, 99524.49, 0.00, 0.00, 0.00
218, 87266.95, 135745.84, 44155.31, 86769.36, 22529.80, 80975.52, 129705.00, 99527.76, 0.00, 0.00, 0.00
219, 87270.62, 135744.59, 44158.39, 86764.15, 22507.58, 80969.91, 129699.79, 99532.78, 0.00, 0.00, 0.00
220, 87268.00, 135731.28, 44156.61, 86753.73, 22495.46, 80961.77, 129703.81, 99528.56, 0.00, 0.00, 0.00
221, 87261.97, 135735.66, 44153.46, 86753.63, 22527.83, 80969.80, 129699.34, 99521.43, 0.00, 0.00, 0.00
222, 87263.73, 135732.22, 44157.88, 86760.48, 22514.17, 80965.86, 129690.88, 99521.05, 0.00, 0.00, 0.00
223, 87267.31, 135736.17, 44157.32, 86776.35, 22531.88, 80980.44, 129700.15, 99524.45, 0.00, 0.00, 0.00
224, 87267.76, 135735.84, 44155.85, 86773.02, 22536.08, 80983.41, 129713.12, 99526.91, 0.00, 0.00, 0.00
225, 87265.81, 135736.97, 44165.14, 86765.98, 22532.12, 80984.63, 129710.48, 99529.81, 0.00, 0.00, 0.00
226, 87262.91, 135737.42, 44164.79, 86763.63, 22530.58, 80981.62, 129714.61, 99525.90, 0.07, -0.27, 0.96
227, 87251.88, 135733.33, 44165.23, 86761.63, 22520.97, 80969.88, 129686.38, 99514.01, 0.00, 0.00, 0.00
228, 87249.98, 135744.48, 44166.51, 86764.17, 22518.64, 80969.08, 129708.94, 99511.33, 0.00, 0.00, 0.00
229, 87251.28, 135753.38, 44161.68, 86756.05, 22501.79, 80964.84, 129706.72, 99509.60, 0.00, 0.00, 0.00
230, 87250.99, 135758.75, 44165.37, 86749.98, 22486.05, 80956.90, 129677.58, 99511.17, 0.00, 0.00, 0.00
231, 87248.40, 135769.61, 44156.23, 86745.51, 22518.35, 80967.16, 129688.04, 99511.77, 0.00, 0.00, 0.00
232, 87250.26, 135777.02, 44151.89, 86742.91, 22523.49, 80969.26, 129701.73, 99511.05, 0.00, 0.00, 0.00
233, 87255.87, 135792.86, 44161.41, 86767.37, 22536.26, 80982.02, 129710.48, 99516.58, 0.00, 0.00, 0.00
234, 87257.27, 135798.94, 44159.31, 86780.48, 22522.13, 80980.50, 129736.18, 99517.74, 0.00, 0.00, 0.00
235, 87259.22, 135811.34, 44164.43, 86773.23, 22529.19, 80979.70, 129720.65, 99519.98, 0.00, 0.00, 0.00
236, 87254.26, 135813.86, 44165.39, 86763.28, 22523.67, 80974.04, 129705.05, 99513.56, 0.07, -0.27, 0.97
237, 87256.89, 135823.08, 44162.60, 86759.43, 22512.95, 80977.28, 129699.32, 99514.61, 0.00, 0.00, 0.00
238, 87254.88, 135837.31, 44163.71, 86756.86, 22513.91, 80967.78, 129705.42, 99507.82, 0.00, 0.00, 0.00
239, 87251.62, 135839.86, 44164.12, 86757.20, 22510.37, 80960.97, 129689.13, 99504.76, 0.00, 0.00, 0.00
240, 87257.70, 135830.78, 44163.22, 86751.38, 22503.62, 80963.07, 129695.30, 99511.21, 0.00, 0.00, 0.00
241, 87260.73, 135846.05, 44169.84, 86757.47, 22512.25, 80970.55, 129703.37, 99517.61, 0.00, 0.00, 0.00
242, 87255.80, 135851.58, 44171.98, 86764.35, 22521.93, 80972.88, 129710.27, 99511.95, 0.00, 0.00, 0.00
243, 87254.44, 135859.73, 44163.67, 86760.41, 22514.42, 80972.92, 129722.05, 99509.02, 0.00, 0.00, 0.00
244, 87257.36, 135849.66, 44160.92, 86763.91, 22516.61, 80980.23, 129721.98, 99511.26, 0.00, 0.00, 0.00
245, 87260.29, 135855.59, 44160.07, 86766.92, 22521.15, 80979.09, 129718.73, 99513.74, 0.00, 0.00, 0.00
246, 87255.98, 135856.77, 44153.75, 86761.00, 22523.61, 80977.55, 129708.46, 99510.03, 0.07, -0.27, 0.97
247, 87256.54, 135859.19, 44157.57, 86758.67, 22510.84, 80973.23, 129733.68, 99514.34, 0.00, 0.00, 0.00
248, 87256.63, 135862.69, 44167.61, 86766.48, 22509.68, 80969.59, 129742.22, 99512.73, 0.00, 0.00, 0.00
249, 87261.52, 135866.39, 44169.53, 86770.05, 22507.63, 80973.17, 129732.05, 99521.74, 0.00, 0.00, 0.00
250, 87262.30, 135864.92, 44163.11, 86761.31, 22510.42, 80977.44, 129687.52, 99519.15, 0.00, 0.00, 0.00
251, 87256.83, 135865.50, 44162.71, 86749.13, 22509.84, 80971.09, 129694.09, 99508.20, 0.00, 0.00, 0.00
252, 87259.09, 135872.89, 44163.89, 86750.34, 22522.00, 80974.58, 129704.89, 99508.84, 0.00, 0.00, 0.00
253, 87258.80, 135879.14, 44168.03, 86769.34, 22541.11, 80978.34, 129720.45, 99509.94, 0.00, 0.00, 0.00
254, 87258.99, 135872.66, 44164.79, 86775.03, 22535.54, 80983.38, 129725.61, 99513.00, 0.00, 0.00, 0.00
255, 87259.38, 135874.95, 44161.57, 86771.03, 22524.28, 80980.68, 129731.09, 99512.49, 0.00, 0.00, 0.00
0, 87249.41, 135871.47, 44168.12, 86770.23, 22513.44, 80969.55, 129696.55, 99502.03, 0.07, -0.27, 0.97
1, 87247.75, 135881.03, 44169.59, 86765.00, 22520.21, 80970.38, 129699.86, 99503.39, 0.00, 0.00, 0.00
2, 87246.52, 135882.80, 44170.13, 86762.61, 22515.63, 80965.48, 129721.45, 99497.73, 0.00, 0.00, 0.00
3, 87249.72, 135881.81, 44171.80, 86769.24, 22518.26, 80977.20, 129716.58, 99508.94, 0.00, 0.00, 0.00
4, 87248.53, 135887.89, 44165.48, 86767.10, 22510.87, 80978.84, 129708.42, 99509.65, 0.00, 0.00, 0.00
5, 87244.53, 135879.31, 44159.94, 86759.57, 22514.06, 80977.87, 129722.91, 99506.14, 0.00, 0.00, 0.00
6, 87246.30, 135888.41, 44165.59, 86772.13, 22513.37, 80971.13, 129721.79, 99504.11, 0.00, 0.00, 0.00
7, 87249.12, 135893.38, 44165.04, 86775.37, 22523.36, 80972.45, 129712.33, 99504.66, 0.00, 0.00, 0.00
8, 87251.33, 135887.67, 44156.83, 86769.16, 22520.70, 80975.30, 129710.66, 99505.00, 0.00, 0.00, 0.00
9, 87253.41, 135884.47, 44158.29, 86769.89, 22513.79, 80978.04, 129750.71, 99511.86, 0.00, 0.00, 0.00
10, 87254.45, 135891.58, 44161.93, 86773.58, 22524.10, 80976.77, 129726.19, 99513.27, 0.06, -0.27, 0.96
11, 87256.20, 135886.98, 44160.25, 86778.84, 22522.27, 80977.82, 129707.75, 99511.55, 0.00, 0.00, 0.00
12, 87251.93, 135889.33, 44160.43, 86779.17, 22526.22, 80984.05, 129708.91, 99510.08, 0.00, 0.00, 0.00
13, 87242.92, 135887.30, 44159.18, 86766.05, 22502.93, 80975.95, 129709.98, 99502.32, 0.00, 0.00, 0.00
14, 87243.68, 135889.13, 44157.34, 86759.16, 22503.91, 80977.41, 129735.29, 99500.75, 0.00, 0.00, 0.00
15, 87237.83, 135889.58, 44156.79, 86757.66, 22518.91, 80980.88, 129717.54, 99495.95, 0.00, 0.00, 0.00
16, 87241.96, 135891.61, 44154.73, 86751.66, 22516.61, 80977.48, 129712.60, 99501.09, 0.00, 0.00, 0.00
17, 87248.20, 135885.59, 44158.42, 86768.09, 22507.98, 80980.57, 129727.38, 99510.27, 0.00, 0.00, 0.00
18, 87254.37, 135893.11, 44158.13, 86774.25, 22529.44, 80991.61, 129742.55, 99521.50, 0.00, 0.00, 0.00
19, 87254.45, 135899.63, 44151.27, 86766.74, 22524.97, 80982.76, 129733.01, 99517.52, 0.00, 0.00, 0.00
20, 87252.11, 135900.81, 44153.99, 86766.97, 22524.66, 80979.80, 129729.56, 99515.23, 0.06, -0.27, 0.96
21, 87250.70, 135902.88, 44166.57, 86771.32, 22519.67, 80978.73, 129736.41, 99514.88, 0.00, 0.00, 0.00
22, 87249.74, 135897.53, 44162.75, 86764.10, 22501.14, 80972.08, 129725.19, 99510.59, 0.00, 0.00, 0.00
23, 87248.55, 135904.61, 44163.58, 86765.09, 22484.04, 80961.70, 129701.47, 99509.20, 0.00, 0.00, 0.00
24, 87246.03, 135899.19, 44161.26, 86758.72, 22496.49, 80971.60, 129727.48, 99509.56, 0.00, 0.00, 0.00
25, 87247.75, 135898.80, 44159.82, 86766.36, 22521.86, 80978.24, 129735.09, 99512.60, 0.00, 0.00, 0.00
26, 87253.34, 135902.88, 44163.27, 86779.26, 22520.90, 80975.61, 129714.74, 99517.20, 0.00, 0.00, 0.00
27, 87260.11, 135899.42, 44158.06, 86766.63, 22515.83, 80975.23, 129721.56, 99528.63, 0.00, 0.00, 0.00
28, 87263.64, 135898.94, 44153.61, 86765.58, 22511.63, 80973.39, 129719.77, 99532.49, 0.00, 0.00, 0.00
29, 87249.41, 135908.48, 44159.98, 86770.14, 22525.60, 80978.49, 129724.20, 99507.28, 0.00, 0.00, 0.00
30, 87245.59, 135903.61, 44159.20, 86766.45, 22524.16, 80982.85, 129739.31, 99504.76, 0.07, -0.27, 0.96
31, 87256.27, 135900.14, 44171.61, 86764.64, 22518.24, 80977.59, 129711.35, 99512.71, 0.00, 0.00, 0.00
32, 87256.47, 135902.53, 44166.44, 86757.13, 22510.22, 80971.92, 129728.00, 99508.94, 0.00, 0.00, 0.00
33, 87257.25, 135912.42, 44159.13, 86754.91, 22513.64, 80978.94, 129708.24, 99518.26, 0.00, 0.00, 0.00
34, 87266.98, 135914.50, 44168.41, 86770.20, 22516.05, 80982.52, 129729.81, 99531.17, 0.00, 0.00, 0.00
35, 87266.70, 135908.86, 44163.47, 86772.30, 22512.77, 80981.80, 129734.52, 99534.30, 0.00, 0.00, 0.00
36, 87264.85, 135902.14, 44152.81, 86762.07, 22504.16, 80966.27, 129723.87, 99529.79, 0.00, 0.00, 0.00
37, 87266.52, 135908.73, 44158.15, 86782.61, 22522.27, 80975.45, 129712.40, 99530.13, 0.00, 0.00, 0.00
38, 87264.29, 135913.53, 44161.99, 86776.53, 22522.38, 80979.72, 129710.81, 99528.60, 0.00, 0.00, 0.00
39, 87262.98, 135910.67, 44163.60, 86760.22, 22519.11, 80977.33, 129716.58, 99522.86, 0.00, 0.00, 0.00
40, 87259.95, 135911.92, 44173.06, 86776.06, 22506.89, 80972.14, 129724.83, 99520.45, 0.07, -0.27, 0.96
41, 87255.24, 135911.91, 44177.82, 86774.12, 22506.42, 80974.09, 129710.50, 99515.10, 0.00, 0.00, 0.00
42, 87260.16, 135911.66, 44173.13, 86769.76, 22510.35, 80976.59, 129714.79, 99519.15, 0.00, 0.00, 0.00
43, 87259.04, 135913.11, 44170.20, 86763.45, 22517.66, 80978.67, 129730.59, 99520.20, 0.00, 0.00, 0.00
44, 87258.21, 135913.75, 44167.80, 86760.55, 22506.28, 80972.79, 129717.63, 99519.02, 0.00, 0.00, 0.00
45, 87257.38, 135910.20, 44159.09, 86757.04, 22504.70, 80972.43, 129707.99, 99517.61, 0.00, 0.00, 0.00
46, 87255.30, 135919.34, 44164.63, 86756.04, 22507.60, 80969.39, 129720.36, 99513.88, 0.00, 0.00, 0.00
47, 87252.52, 135917.91, 44169.46, 86762.74, 22503.91, 80967.38, 129723.44, 99515.69, 0.00, 0.00, 0.00
48, 87253.01, 135915.61, 44166.62, 86767.34, 22517.21, 80976.30, 129712.51, 99521.05, 0.00, 0.00, 0.00
49, 87253.92, 135907.28, 44165.59, 86764.35, 22512.92, 80975.70, 129712.73, 99525.74, 0.00, 0.00, 0.00
50, 87256.18, 135909.23, 44165.30, 86757.94, 22509.23, 80971.49, 129709.88, 99522.39, 0.07, -0.27, 0.96
51, 87253.07, 135902.38, 44165.35, 86765.00, 22506.66, 80970.13, 129718.63, 99518.66, 0.00, 0.00, 0.00
52, 87254.32, 135908.23, 44171.38, 86765.96, 22502.19, 80968.50, 129714.52, 99519.95, 0.00, 0.00, 0.00
53, 87257.97, 135914.97, 44170.27, 86769.38, 22515.45, 80978.98, 129722.26, 99524.73, 0.00, 0.00, 0.00
54, 87257.23, 135914.22, 44167.49, 86765.06, 22512.81, 80980.91, 129729.72, 99524.78, 0.00, 0.00, 0.00
55, 87256.42, 135911.09, 44170.15, 86767.63, 22500.32, 80968.09, 129747.70, 99520.52, 0.00, 0.00, 0.00
56, 87252.40, 135910.22, 44164.65, 86765.63, 22491.35, 80956.32, 129693.71, 99515.30, 0.00, 0.00, 0.00
57, 87249.95, 135904.70, 44166.49, 86759.12, 22490.75, 80956.54, 129710.79, 99513.63, 0.00, 0.00, 0.00
58, 87256.91, 135906.30, 44167.38, 86760.26, 22500.99, 80962.91, 129717.70, 99519.89, 0.00, 0.00, 0.00
59, 87259.33, 135911.03, 44170.55, 86764.15, 22518.82, 80964.68, 129713.12, 99525.03, 0.00, 0.00, 0.00
60, 87257.36, 135909.31, 44173.93, 86757.16, 22517.79, 80964.14, 129702.30, 99519.35, 0.07, -0.27, 0.97
61, 87252.69, 135913.78, 44172.28, 86762.34, 22511.20, 80961.79, 129707.13, 99511.37, 0.00, 0.00, 0.00
62, 87248.45, 135912.06, 44175.41, 86769.88, 22511.60, 80962.44, 129697.24, 99504.24, 0.00, 0.00, 0.00
63, 87247.93, 135909.52, 44190.54, 86779.39, 22503.51, 80959.34, 129706.90, 99503.68, 0.00, 0.00, 0.00
64, 87249.09, 135910.42, 44185.57, 86775.84, 22500.29, 80959.83, 129705.89, 99508.20, 0.00, 0.00, 0.00
65, 87253.54, 135911.30, 44182.60, 86768.87, 22527.41, 80972.57, 129703.70, 99508.64, 0.00, 0.00, 0.00
66, 87250.30, 135906.45, 44179.88, 86768.28, 22526.11, 80971.00, 129706.07, 99507.62, 0.00, 0.00, 0.00
67, 87246.19, 135901.42, 44175.09, 86768.02, 22530.09, 80970.76, 129732.36, 99506.21, 0.00, 0.00, 0.00
68, 87253.20, 135906.05, 44179.63, 86774.95, 22535.38, 80980.75, 129725.52, 99513.61, 0.00, 0.00, 0.00
69, 87253.45, 135908.23, 44178.54, 86771.44, 22533.33, 80978.42, 129700.55, 99514.73, 0.00, 0.00, 0.00
70, 87245.96, 135906.30, 44177.62, 86773.56, 22523.07, 80973.73, 129715.57, 99510.14, 0.07, -0.27, 0.97
71, 87247.33, 135907.45, 44179.05, 86777.80, 22531.07, 80981.69, 129718.75, 99507.91, 0.00, 0.00, 0.00
72, 87239.82, 135907.05, 44186.13, 86770.16, 22513.32, 80967.45, 129703.84, 99503.68, 0.00, 0.00, 0.00
73, 87241.07, 135904.92, 44185.22, 86777.11, 22515.56, 80966.42, 129712.63, 99507.08, 0.00, 0.00, 0.00
74, 87246.97, 135904.66, 44185.17, 86782.88, 22540.24, 80984.08, 129715.17, 99509.38, 0.00, 0.00, 0.00
75, 87248.49, 135905.83, 44194.58, 86787.75, 22540.59, 80981.02, 129723.64, 99511.44, 0.00, 0.00, 0.00
76, 87247.64, 135901.48, 44186.89, 86778.86, 22538.80, 80978.89, 129723.69, 99514.01, 0.00, 0.00, 0.00
77, 87247.53, 135904.95, 44180.25, 86776.06, 22538.29, 80982.31, 129729.43, 99514.05, 0.00, 0.00, 0.00
78, 87255.55, 135907.86, 44178.69, 86778.45, 22541.04, 80983.66, 129746.26, 99516.58, 0.00, 0.00, 0.00
79, 87250.84, 135903.55, 44176.23, 86777.67, 22538.69, 80982.02, 129714.61, 99513.85, 0.00, 0.00, 0.00
80, 87247.62, 135904.59, 44169.62, 86780.51, 22527.32, 80977.77, 129715.59, 99508.55, 0.08, -0.27, 0.97
81, 87250.01, 135896.28, 44183.00, 86782.23, 22556.13, 80986.09, 129725.19, 99508.33, 0.00, 0.00, 0.00
82, 87245.70, 135901.23, 44195.14, 86776.17, 22533.13, 80977.77, 129722.26, 99503.81, 0.00, 0.00, 0.00
83, 87243.75, 135897.95, 44189.20, 86768.22, 22541.98, 80982.45, 129722.99, 99503.44, 0.00, 0.00, 0.00
84, 87242.12, 135898.00, 44195.72, 86765.05, 22542.38, 80979.23, 129722.95, 99502.97, 0.00, 0.00, 0.00
85, 87232.55, 135896.88, 44195.05, 86763.34, 22529.57, 80967.54, 129712.48, 99494.38, 0.00, 0.00, 0.00
86, 87238.61, 135891.19, 44187.34, 86767.37, 22529.33, 80973.95, 129717.25, 99502.32, 0.00, 0.00, 0.00
87, 87243.13, 135894.88, 44185.64, 86770.90, 22533.15, 80977.26, 129731.11, 99506.14, 0.00, 0.00, 0.00
88, 87240.46, 135896.09, 44182.78, 86765.05, 22532.95, 80974.55, 129743.31, 99500.59, 0.00, 0.00, 0.00
89, 87246.95, 135902.38, 44189.75, 86765.89, 22535.74, 80976.63, 129736.38, 99508.33, 0.00, 0.00, 0.00
90, 87249.95, 135902.72, 44185.29, 86762.52, 22538.56, 80980.23, 129743.45, 99511.48, 0.07, -0.27, 0.98
91, 87243.20, 135901.73, 44187.65, 86777.49, 22532.32, 80984.03, 129713.25, 99506.34, 0.00, 0.00, 0.00
92, 87242.84, 135904.95, 44183.56, 86771.97, 22531.99, 80984.97, 129737.90, 99509.36, 0.00, 0.00, 0.00
93, 87243.46, 135907.59, 44178.73, 86760.48, 22528.28, 80973.53, 129727.22, 99504.82, 0.00, 0.00, 0.00
94, 87235.80, 135906.17, 44181.62, 86766.67, 22526.82, 80971.29, 129725.36, 99495.75, 0.00, 0.00, 0.00
95, 87234.14, 135898.69, 44179.92, 86764.28, 22507.85, 80966.55, 129721.81, 99493.00, 0.00, 0.00, 0.00
96, 87235.13, 135895.03, 44178.96, 86767.81, 22533.37, 80974.06, 129725.27, 99495.55, 0.00, 0.00, 0.00
97, 87234.92, 135896.23, 44172.16, 86762.63, 22531.96, 80970.45, 129733.68, 99495.45, 0.00, 0.00, 0.00
98, 87243.57, 135898.59, 44178.20, 86775.55, 22531.07, 80975.49, 129719.46, 99506.37, 0.00, 0.00, 0.00
99, 87235.75, 135894.33, 44181.17, 86770.05, 22555.99, 80982.11, 129737.03, 99502.59, 0.00, 0.00, 0.00
100, 87232.10, 135901.75, 44185.22, 86765.76, 22548.77, 80976.23, 129725.97, 99497.00, 0.06, -0.27, 0.97
101, 87229.24, 135905.00, 44189.09, 86774.72, 22545.22, 80968.97, 129722.57, 99494.43, 0.00, 0.00, 0.00
102, 87234.85, 135895.66, 44185.44, 86772.71, 22559.14, 80983.92, 129735.04, 99505.09, 0.00, 0.00, 0.00
103, 87230.72, 135898.44, 44182.60, 86774.56, 22544.48, 80978.78, 129728.56, 99505.25, 0.00, 0.00, 0.00
104, 87234.25, 135899.00, 44184.91, 86783.22, 22540.82, 80980.23, 129726.97, 99509.88, 0.00, 0.00, 0.00
105, 87225.47, 135900.23, 44192.41, 86775.88, 22540.62, 80975.14, 129734.88, 99502.36, 0.00, 0.00, 0.00
106, 87218.96, 135898.28, 44186.74, 86768.53, 22531.81, 80967.74, 129743.36, 99496.20, 0.00, 0.00, 0.00
107, 87230.49, 135902.16, 44188.53, 86771.44, 22544.86, 80976.43, 129736.52, 99504.27, 0.00, 0.00, 0.00
108, 87229.34, 135904.81, 44189.91, 86766.74, 22539.07, 80973.98, 129713.78, 99498.97, 0.00, 0.00, 0.00
109, 87232.87, 135902.52, 44192.06, 86768.04, 22538.00, 80974.51, 129730.03, 99498.90, 0.00, 0.00, 0.00
110, 87231.13, 135895.86, 44185.22, 86763.77, 22532.53, 80975.77, 129732.09, 99494.72, 0.07, -0.27, 0.96
111, 87228.04, 135890.98, 44182.04, 86760.82, 22530.11, 80981.10, 129750.11, 99494.90, 0.00, 0.00, 0.00
112, 87224.17, 135888.63, 44180.93, 86763.23, 22527.85, 80977.26, 129742.57, 99492.04, 0.00, 0.00, 0.00
113, 87225.09, 135888.98, 44183.09, 86769.71, 22545.27, 80981.77, 129715.39, 99490.63, 0.00, 0.00, 0.00
114, 87223.79, 135892.75, 44185.93, 86767.99, 22543.10, 80980.05, 129730.10, 99492.57, 0.00, 0.00, 0.00
115, 87222.18, 135896.55, 44183.54, 86760.95, 22532.50, 80974.22, 129742.22, 99489.65, 0.00, 0.00, 0.00
116, 87220.10, 135889.11, 44181.66, 86753.95, 22523.27, 80975.07, 129734.35, 99490.65, 0.00, 0.00, 0.00
117, 87215.84, 135885.81, 44184.32, 86760.10, 22509.55, 80969.73, 129715.69, 99487.25, 0.00, 0.00, 0.00
118, 87216.91, 135895.20, 44193.31, 86770.56, 22545.76, 80972.27, 129736.59, 99484.86, 0.00, 0.00, 0.00
119, 87215.59, 135897.86, 44190.71, 86775.84, 22541.17, 80979.97, 129731.91, 99480.91, 0.00, 0.00, 0.00
120, 87211.70, 135887.00, 44184.84, 86775.39, 22522.40, 80981.33, 129763.80, 99485.35, 0.07, -0.27, 0.96
121, 87216.64, 135878.34, 44183.27, 86784.73, 22543.54, 80991.38, 129749.08, 99491.77, 0.00, 0.00, 0.00
122, 87226.80, 135894.42, 44200.33, 86793.38, 22577.81, 81000.75, 129726.91, 99499.59, 0.00, 0.00, 0.00
123, 87223.23, 135902.52, 44213.71, 86791.53, 22565.67, 80995.77, 129750.46, 99494.83, 0.00, 0.00, 0.00
124, 87226.30, 135895.81, 44207.70, 86783.13, 22552.08, 80991.41, 129744.49, 99496.33, 0.00, 0.00, 0.00
125, 87228.40, 135893.95, 44192.55, 86771.41, 22550.70, 80990.16, 129740.70, 99499.66, 0.00, 0.00, 0.00
126, 87223.16, 135890.91, 44187.18, 86769.45, 22545.60, 80983.92, 129728.13, 99495.84, 0.00, 0.00, 0.00
127, 87222.05, 135887.73, 44187.88, 86772.40, 22531.74, 80980.05, 129747.47, 99498.59, 0.00, 0.00, 0.00
128, 87218.63, 135889.55, 44195.36, 86772.84, 22530.29, 80984.26, 129741.01, 99497.89, 0.00, 0.00, 0.00
129, 87212.62, 135889.13, 44188.01, 86767.52, 22531.09, 80983.59, 129744.52, 99495.05, 0.07, -0.26, 0.97
130, 87221.04, 135890.02, 44184.52, 86769.23, 22531.32, 80980.28, 129748.56, 99496.95, 0.00, 0.00, 0.00
131, 87230.32, 135896.20, 44187.32, 86768.44, 22539.92, 80985.48, 129727.02, 99505.34, 0.00, 0.00, 0.00
132, 87230.32, 135885.13, 44187.50, 86778.77, 22543.28, 80995.84, 129754.53, 99507.64, 0.00, 0.00, 0.00
133, 87221.47, 135886.64, 44185.17, 86770.77, 22532.61, 80986.27, 129757.15, 99492.95, 0.00, 0.00, 0.00
134, 87223.01, 135888.63, 44190.92, 86770.68, 22530.80, 80984.79, 129735.84, 99494.43, 0.00, 0.00, 0.00
135, 87226.18, 135892.59, 44186.78, 86772.45, 22527.41, 80984.97, 129714.23, 99500.87, 0.00, 0.00, 0.00
136, 87226.70, 135890.88, 44197.51, 86779.44, 22529.64, 80986.91, 129726.59, 99501.34, 0.00, 0.00, 0.00
137, 87227.75, 135901.69, 44204.02, 86781.34, 22530.58, 80987.56, 129737.03, 99502.99, 0.00, 0.00, 0.00
138, 87224.57, 135888.36, 44197.76, 86779.57, 22531.65, 80990.49, 129741.05, 99499.99, 0.00, 0.00, 0.00
139, 87227.37, 135888.05, 44192.19, 86776.27, 22534.83, 80994.43, 129740.05, 99501.24, 0.07, -0.27, 0.97
140, 87220.26, 135886.95, 44186.60, 86773.72, 22533.06, 80994.12, 129745.62, 99493.63, 0.00, 0.00, 0.00
141, 87225.53, 135889.64, 44182.16, 86775.82, 22526.11, 80986.20, 129751.42, 99495.45, 0.00, 0.00, 0.00
142, 87225.06, 135873.56, 44179.65, 86772.45, 22524.37, 80992.75, 129734.05, 99499.19, 0.00, 0.00, 0.00
143, 87221.27, 135884.20, 44178.76, 86768.10, 22530.09, 80993.53, 129736.83, 99496.75, 0.00, 0.00, 0.00
144, 87219.52, 135881.56, 44185.93, 86767.88, 22527.56, 80992.93, 129731.45, 99490.70, 0.00, 0.00, 0.00
145, 87214.80, 135876.31, 44192.91, 86761.91, 22520.07, 80979.59, 129716.35, 99488.13, 0.00, 0.00, 0.00
146, 87222.25, 135871.58, 44176.81, 86748.75, 22505.10, 80973.20, 129710.95, 99505.18, 0.00, 0.00, 0.00
147, 87222.12, 135875.52, 44179.38, 86761.40, 22505.84, 80977.48, 129718.37, 99501.83, 0.00, 0.00, 0.00
148, 87213.89, 135883.67, 44196.46, 86773.23, 22513.79, 80986.67, 129723.91, 99485.38, 0.00, 0.00, 0.00
149, 87218.60, 135885.33, 44194.72, 86775.98, 22502.48, 80981.06, 129748.03, 99492.22, 0.07, -0.26, 0.98
150, 87224.41, 135894.88, 44188.39, 86775.23, 22536.28, 80991.05, 129704.95, 99494.48, 0.00, 0.00, 0.00
151, 87224.87, 135876.42, 44186.22, 86773.07, 22534.98, 80986.24, 129717.23, 99496.44, 0.00, 0.00, 0.00
152, 87218.98, 135874.73, 44178.13, 86748.37, 22497.01, 80974.60, 129704.77, 99490.80, 0.00, 0.00, 0.00
153, 87223.50, 135867.52, 44183.34, 86769.89, 22497.14, 80975.77, 129714.63, 99493.67, 0.00, 0.00, 0.00
154, 87229.67, 135876.81, 44184.57, 86781.65, 22540.97, 80991.55, 129708.35, 99501.24, 0.00, 0.00, 0.00
155, 87226.09, 135876.67, 44187.25, 86778.84, 22536.55, 80989.17, 129721.56, 99494.77, 0.00, 0.00, 0.00
156, 87222.18, 135869.13, 44190.71, 86778.19, 22535.45, 80982.73, 129710.88, 99488.08, 0.00, 0.00, 0.00
157, 87221.89, 135867.44, 44184.79, 86773.56, 22539.92, 80987.72, 129698.59, 99490.54, 0.00, 0.00, 0.00
158, 87225.29, 135872.52, 44180.88, 86777.54, 22532.46, 80989.53, 129717.63, 99493.00, 0.00, 0.00, 0.00
159, 87223.39, 135868.16, 44187.36, 86778.39, 22524.50, 80986.27, 129732.67, 99492.06, 0.07, -0.27, 0.97
160, 87223.19, 135871.02, 44192.10, 86775.52, 22521.79, 80983.95, 129713.41, 99491.88, 0.00, 0.00, 0.00
161, 87222.77, 135863.23, 44180.41, 86767.32, 22518.15, 80981.06, 129691.95, 99493.84, 0.00, 0.00, 0.00
162, 87220.77, 135869.75, 44185.02, 86756.86, 22515.27, 80981.33, 129702.88, 99494.85, 0.00, 0.00, 0.00
163, 87223.23, 135873.81, 44191.92, 86772.17, 22519.16, 80987.61, 129704.04, 99496.62, 0.00, 0.00, 0.00
164, 87219.77, 135865.47, 44190.02, 86772.22, 22509.90, 80982.45, 129714.09, 99492.51, 0.00, 0.00, 0.00
165, 87214.70, 135855.94, 44182.02, 86769.83, 22507.65, 80977.51, 129712.51, 99486.12, 0.00, 0.00, 0.00
166, 87210.55, 135856.16, 44182.51, 86760.22, 22506.48, 80979.41, 129709.02, 99480.80, 0.00, 0.00, 0.00
167, 87210.55, 135858.30, 44183.16, 86755.79, 22505.55, 80980.63, 129697.98, 99480.46, 0.00, 0.00, 0.00
168, 87210.49, 135858.48, 44177.55, 86764.30, 22506.04, 80980.63, 129698.98, 99479.99, 0.00, 0.00, 0.00
169, 87217.89, 135870.64, 44178.42, 86764.73, 22509.46, 80981.84, 129700.66, 99488.35, 0.07, -0.27, 0.97
170, 87212.05, 135868.89, 44188.37, 86761.06, 22501.90, 80979.16, 129701.98, 99480.44, 0.00, 0.00, 0.00
171, 87209.91, 135864.61, 44188.46, 86760.20, 22497.39, 80979.56, 129709.54, 99483.32, 0.00, 0.00, 0.00
172, 87210.54, 135861.78, 44178.67, 86745.69, 22497.30, 80974.40, 129702.66, 99480.70, 0.00, 0.00, 0.00
173, 87215.54, 135870.42, 44195.68, 86769.49, 22493.68, 80979.02, 129712.65, 99491.79, 0.00, 0.00, 0.00
174, 87212.66, 135869.61, 44196.04, 86777.67, 22467.32, 80968.16, 129686.36, 99487.81, 0.00, 0.00, 0.00
175, 87214.80, 135866.91, 44187.14, 86769.38, 22507.42, 80977.30, 129695.16, 99483.38, 0.00, 0.00, 0.00
176, 87209.66, 135867.91, 44190.16, 86774.79, 22533.96, 80983.83, 129701.71, 99482.72, 0.00, 0.00, 0.00
177, 87210.58, 135871.17, 44189.42, 86768.02, 22519.43, 80980.34, 129706.88, 99486.41, 0.00, 0.00, 0.00
178, 87214.63, 135868.34, 44181.15, 86760.73, 22522.04, 80984.63, 129700.10, 99489.40, 0.00, 0.00, 0.00
179, 87213.77, 135869.80, 44183.07, 86767.30, 22516.01, 80981.09, 129707.86, 99490.31, 0.07, -0.27, 0.96
180, 87216.93, 135868.58, 44184.79, 86776.30, 22508.52, 80977.88, 129702.90, 99493.49, 0.00, 0.00, 0.00
181, 87210.07, 135861.92, 44179.09, 86764.02, 22490.95, 80970.60, 129697.73, 99484.95, 0.00, 0.00, 0.00
182, 87204.86, 135864.69, 44185.69, 86755.32, 22501.57, 80970.40, 129707.59, 99479.85, 0.00, 0.00, 0.00
183, 87203.67, 135860.84, 44186.58, 86765.40, 22504.43, 80978.87, 129700.55, 99479.63, 0.00, 0.00, 0.00
184, 87203.41, 135870.53, 44193.00, 86780.11, 22513.41, 80986.16, 129700.04, 99483.09, 0.00, 0.00, 0.00
185, 87206.31, 135869.33, 44182.54, 86769.85, 22511.89, 80989.30, 129701.11, 99485.24, 0.00, 0.00, 0.00
186, 87206.87, 135866.33, 44187.90, 86762.36, 22499.11, 80982.34, 129695.41, 99482.60, 0.00, 0.00, 0.00
187, 87201.53, 135863.22, 44181.66, 86750.83, 22496.11, 80981.95, 129691.19, 99479.59, 0.00, 0.00, 0.00
188, 87201.39, 135863.08, 44184.52, 86765.60, 22488.85, 80979.83, 129693.49, 99478.40, 0.00, 0.00, 0.00
189, 87206.45, 135865.05, 44183.47, 86762.56, 22482.72, 80985.20, 129705.45, 99482.23, 0.07, -0.27, 0.96
190, 87207.49, 135867.95, 44184.93, 86766.97, 22493.21, 80991.81, 129701.49, 99480.70, 0.00, 0.00, 0.00
191, 87208.75, 135870.73, 44186.45, 86768.64, 22517.84, 81000.30, 129698.09, 99481.42, 0.00, 0.00, 0.00
192, 87211.09, 135865.23, 44179.74, 86757.78, 22512.59, 81003.57, 129703.08, 99483.68, 0.00, 0.00, 0.00
193, 87207.52, 135867.00, 44181.02, 86755.81, 22508.50, 80992.86, 129711.86, 99481.98, 0.00, 0.00, 0.00
194, 87203.27, 135865.25, 44184.57, 86769.05, 22499.18, 80993.13, 129683.54, 99478.72, 0.00, 0.00, 0.00
195, 87198.27, 135869.45, 44181.48, 86775.28, 22488.83, 80991.50, 129686.90, 99471.98, 0.00, 0.00, 0.00
196, 87201.06, 135857.55, 44182.42, 86769.73, 22493.54, 80997.45, 129717.43, 99476.52, 0.00, 0.00, 0.00
197, 87198.20, 135858.33, 44181.44, 86761.76, 22495.62, 80997.27, 129685.38, 99473.57, 0.00, 0.00, 0.00
198, 87196.95, 135861.70, 44184.68, 86762.54, 22491.91, 81001.00, 129688.41, 99471.25, 0.00, 0.00, 0.00
199, 87197.64, 135870.94, 44187.16, 86762.98, 22508.29, 81005.87, 129689.45, 99472.59, 0.07, -0.26, 0.97
200, 87197.28, 135862.77, 44186.29, 86764.46, 22497.21, 81002.88, 129703.95, 99470.27, 0.00, 0.00, 0.00
201, 87200.86, 135857.67, 44184.30, 86761.73, 22495.11, 80993.71, 129694.90, 99468.52, 0.00, 0.00, 0.00
202, 87199.67, 135867.78, 44189.75, 86771.99, 22482.86, 80988.59, 129681.04, 99471.32, 0.00, 0.00, 0.00
203, 87202.51, 135862.81, 44189.17, 86772.53, 22512.07, 81001.31, 129698.32, 99478.20, 0.00, 0.00, 0.00
204, 87211.34, 135862.19, 44194.43, 86777.45, 22526.27, 81013.31, 129708.55, 99486.05, 0.00, 0.00, 0.00
205, 87211.54, 135862.77, 44187.63, 86762.00, 22517.44, 81012.38, 129683.99, 99483.84, 0.00, 0.00, 0.00
206, 87205.28, 135868.11, 44192.48, 86765.36, 22504.52, 80995.03, 129695.66, 99474.71, 0.00, 0.00, 0.00
207, 87201.39, 135867.02, 44196.06, 86775.21, 22495.98, 80992.88, 129692.62, 99471.52, 0.00, 0.00, 0.00
208, 87202.65, 135863.47, 44196.66, 86769.45, 22491.40, 80993.69, 129669.93, 99475.02, 0.00, 0.00, 0.00
209, 87198.78, 135864.97, 44193.13, 86764.95, 22483.46, 80995.57, 129676.39, 99475.38, 0.07, -0.27, 0.96
210, 87200.27, 135875.22, 44192.10, 86765.63, 22489.50, 81001.04, 129693.89, 99481.33, 0.00, 0.00, 0.00
211, 87196.34, 135874.27, 44196.35, 86765.29, 22477.65, 81001.96, 129698.18, 99477.66, 0.00, 0.00, 0.00
212, 87196.84, 135858.19, 44187.14, 86763.28, 22501.34, 81009.58, 129691.08, 99475.14, 0.00, 0.00, 0.00
213, 87202.69, 135861.19, 44181.30, 86763.79, 22507.04, 81011.30, 129690.41, 99481.66, 0.00, 0.00, 0.00
214, 87215.79, 135868.05, 44200.66, 86786.08, 22507.60, 81019.35, 129710.79, 99496.38, 0.00, 0.00, 0.00
215, 87213.13, 135872.19, 44204.93, 86776.04, 22512.03, 81020.06, 129708.60, 99490.43, 0.00, 0.00, 0.00
216, 87202.65, 135865.77, 44187.86, 86757.60, 22496.45, 81011.81, 129682.63, 99483.41, 0.00, 0.00, 0.00
217, 87204.26, 135865.44, 44194.18, 86759.74, 22486.12, 81003.48, 129683.54, 99482.00, 0.00, 0.00, 0.00
218, 87212.23, 135869.75, 44196.04, 86762.79, 22495.44, 81008.13, 129688.73, 99483.56, 0.00, 0.00, 0.00
219, 87209.98, 135871.52, 44193.40, 86769.55, 22487.15, 81004.53, 129705.60, 99482.60, 0.07, -0.27, 0.96
220, 87213.17, 135872.89, 44191.70, 86770.41, 22489.83, 81003.08, 129687.16, 99485.40, 0.00, 0.00, 0.00
221, 87213.28, 135879.45, 44196.33, 86765.80, 22491.02, 81000.69, 129687.34, 99482.13, 0.00, 0.00, 0.00
222, 87215.38, 135875.31, 44192.71, 86762.59, 22490.73, 81003.45, 129696.75, 99480.57, 0.00, 0.00, 0.00
223, 87211.99, 135874.89, 44194.25, 86763.91, 22483.82, 81000.91, 129689.80, 99476.05, 0.00, 0.00, 0.00
224, 87210.45, 135883.14, 44197.98, 86762.31, 22471.53, 80998.56, 129679.19, 99473.46, 0.00, 0.00, 0.00
225, 87209.42, 135872.88, 44194.76, 86761.53, 22474.03, 80998.38, 129684.88, 99471.32, 0.00, 0.00, 0.00
226, 87214.63, 135872.97, 44192.95, 86759.03, 22480.13, 80997.94, 129680.68, 99476.05, 0.00, 0.00, 0.00
227, 87219.66, 135873.08, 44190.38, 86770.43, 22498.66, 81006.05, 129675.74, 99477.20, 0.00, 0.00, 0.00
228, 87220.62, 135873.20, 44189.06, 86774.34, 22492.13, 81008.44, 129683.21, 99477.13, 0.00, 0.00, 0.00
229, 87221.78, 135875.53, 44185.69, 86775.59, 22487.60, 81008.80, 129696.57, 99484.86, 0.07, -0.27, 0.97
230, 87219.55, 135878.64, 44192.37, 86763.77, 22495.82, 81014.86, 129706.37, 99484.33, 0.00, 0.00, 0.00
231, 87213.28, 135872.41, 44210.77, 86764.51, 22474.32, 81012.51, 129664.72, 99473.91, 0.00, 0.00, 0.00
232, 87213.22, 135872.36, 44208.60, 86758.90, 22459.32, 81001.36, 129680.59, 99472.81, 0.00, 0.00, 0.00
233, 87212.46, 135874.91, 44204.46, 86761.96, 22469.04, 81007.21, 129687.79, 99473.95, 0.00, 0.00, 0.00
234, 87211.27, 135875.42, 44199.97, 86772.38, 22491.35, 81009.07, 129693.24, 99470.69, 0.00, 0.00, 0.00
235, 87209.71, 135879.38, 44196.73, 86771.48, 22510.31, 81018.88, 129704.40, 99470.00, 0.00, 0.00, 0.00
236, 87214.47, 135877.77, 44198.25, 86770.95, 22499.76, 81018.16, 129677.80, 99478.42, 0.00, 0.00, 0.00
237, 87222.41, 135868.83, 44197.58, 86772.95, 22499.82, 81019.13, 129677.98, 99482.72, 0.00, 0.00, 0.00
238, 87220.26, 135866.95, 44193.15, 86771.26, 22498.33, 81018.39, 129679.19, 99479.19, 0.00, 0.00, 0.00
239, 87222.96, 135859.69, 44183.83, 86765.29, 22483.93, 81021.30, 129685.55, 99480.86, 0.06, -0.27, 0.97
240, 87215.90, 135857.81, 44188.46, 86755.70, 22460.02, 81008.98, 129680.39, 99471.85, 0.00, 0.00, 0.00
241, 87214.65, 135863.42, 44194.34, 86753.45, 22489.92, 81016.42, 129696.64, 99470.45, 0.00, 0.00, 0.00
242, 87219.27, 135868.61, 44194.36, 86756.20, 22485.61, 81014.63, 129673.77, 99476.23, 0.00, 0.00, 0.00
243, 87221.00, 135867.73, 44193.71, 86761.45, 22479.44, 81011.55, 129686.96, 99484.34, 0.00, 0.00, 0.00
244, 87223.57, 135863.05, 44190.89, 86760.08, 22483.78, 81015.88, 129696.55, 99487.92, 0.00, 0.00, 0.00
245, 87223.03, 135867.63, 44189.87, 86755.59, 22489.61, 81020.91, 129685.69, 99486.74, 0.00, 0.00, 0.00
246, 87219.25, 135860.22, 44179.34, 86747.52, 22486.50, 81013.60, 129689.66, 99481.87, 0.00, 0.00, 0.00
247, 87215.25, 135861.16, 44183.65, 86765.29, 22483.48, 81016.42, 129673.88, 99479.12, 0.00, 0.00, 0.00
248, 87217.35, 135856.84, 44186.40, 86768.09, 22459.57, 81007.62, 129677.09, 99478.40, 0.00, 0.00, 0.00
249, 87220.66, 135863.59, 44193.55, 86761.45, 22477.32, 81013.98, 129683.72, 99478.13, 0.07, -0.27, 0.97
250, 87216.64, 135875.31, 44196.86, 86757.94, 22482.63, 81021.25, 129683.32, 99475.27, 0.00, 0.00, 0.00
251, 87216.62, 135856.89, 44185.35, 86749.04, 22476.71, 81019.23, 129697.27, 99479.32, 0.00, 0.00, 0.00
252, 87211.19, 135852.95, 44196.84, 86753.40, 22481.56, 81018.01, 129698.90, 99474.70, 0.00, 0.00, 0.00
253, 87208.26, 135856.77, 44198.92, 86763.79, 22474.25, 81012.98, 129677.82, 99471.48, 0.00, 0.00, 0.00
254, 87205.69, 135863.08, 44203.01, 86769.63, 22462.59, 81004.15, 129671.14, 99472.37, 0.00, 0.00, 0.00
255, 87206.67, 135867.16, 44202.99, 86769.55, 22479.35, 81016.51, 129685.11, 99477.87, 0.00, 0.00, 0.00
0, 87209.35, 135863.42, 44196.41, 86769.47, 22488.04, 81027.24, 129694.36, 99480.62, 0.00, 0.00, 0.00
1, 87199.59, 135859.00, 44193.67, 86765.96, 22479.33, 81020.11, 129692.44, 99473.22, 0.00, 0.00, 0.00
2, 87199.38, 135859.84, 44195.12, 86763.75, 22480.54, 81021.65, 129698.70, 99470.67, 0.00, 0.00, 0.00
3, 87203.80, 135859.59, 44197.20, 86756.21, 22478.39, 81028.13, 129680.28, 99471.52, 0.07, -0.27, 0.97
4, 87203.05, 135865.95, 44205.40, 86760.66, 22471.39, 81029.48, 129684.62, 99470.71, 0.00, 0.00, 0.00
5, 87196.52, 135863.64, 44200.48, 86760.69, 22480.67, 81026.61, 129696.44, 99464.50, 0.00, 0.00, 0.00
6, 87191.52, 135855.38, 44196.06, 86758.59, 22472.85, 81020.84, 129695.84, 99459.52, 0.00, 0.00, 0.00
7, 87194.89, 135857.31, 44196.06, 86760.26, 22473.52, 81022.70, 129694.79, 99461.70, 0.00, 0.00, 0.00
8, 87199.20, 135852.42, 44193.13, 86760.82, 22469.43, 81023.41, 129670.96, 99468.43, 0.00, 0.00, 0.00
9, 87202.78, 135856.31, 44188.70, 86759.97, 22474.21, 81028.31, 129680.81, 99479.85, 0.00, 0.00, 0.00
10, 87207.45, 135855.94, 44187.43, 86757.91, 22456.44, 81025.02, 129696.59, 99490.77, 0.00, 0.00, 0.00
11, 87201.98, 135852.13, 44195.84, 86763.91, 22451.57, 81019.21, 129705.11, 99478.31, 0.00, 0.00, 0.00
12, 87197.82, 135856.61, 44194.83, 86757.35, 22465.49, 81027.51, 129683.01, 99464.88, 0.00, 0.00, 0.00
13, 87204.95, 135862.30, 44194.29, 86751.90, 22485.54, 81026.70, 129679.92, 99461.88, 0.06, -0.27, 0.97
14, 87205.17, 135860.80, 44185.44, 86750.60, 22482.97, 81025.41, 129682.73, 99457.05, 0.00, 0.00, 0.00
15, 87214.11, 135850.05, 44184.39, 86759.37, 22480.58, 81028.96, 129678.98, 99463.83, 0.00, 0.00, 0.00
16, 87205.98, 135848.59, 44181.66, 86771.75, 22471.79, 81027.59, 129671.54, 99454.82, 0.00, 0.00, 0.00
17, 87204.79, 135846.20, 44192.32, 86767.03, 22468.35, 81028.98, 129683.77, 99457.16, 0.00, 0.00, 0.00
18, 87206.47, 135850.28, 44192.06, 86763.95, 22474.19, 81029.38, 129685.69, 99462.42, 0.00, 0.00, 0.00
19, 87200.95, 135847.84, 44199.63, 86755.86, 22457.45, 81018.45, 129676.26, 99456.66, 0.00, 0.00, 0.00
20, 87195.52, 135852.28, 44205.80, 86751.90, 22456.15, 81013.83, 129676.84, 99449.95, 0.00, 0.00, 0.00
21, 87197.08, 135855.47, 44195.95, 86760.38, 22464.75, 81019.88, 129686.29, 99449.97, 0.00, 0.00, 0.00
22, 87201.06, 135844.73, 44191.05, 86771.86, 22467.84, 81023.53, 129676.77, 99455.65, 0.00, 0.00, 0.00
23, 87208.99, 135848.06, 44187.61, 86775.46, 22470.32, 81030.16, 129695.79, 99461.62, 0.07, -0.27, 0.97
24, 87210.70, 135847.59, 44190.92, 86762.96, 22462.34, 81024.65, 129668.61, 99459.76, 0.00, 0.00, 0.00
25, 87211.50, 135853.03, 44194.27, 86757.35, 22475.33, 81028.70, 129676.32, 99460.86, 0.00, 0.00, 0.00
26, 87202.78, 135847.39, 44191.68, 86750.31, 22458.67, 81017.43, 129674.29, 99458.69, 0.00, 0.00, 0.00
27, 87196.74, 135850.09, 44189.26, 86750.52, 22458.36, 81017.20, 129669.08, 99452.43, 0.00, 0.00, 0.00
28, 87202.80, 135851.48, 44190.63, 86755.27, 22455.70, 81027.93, 129672.52, 99458.98, 0.00, 0.00, 0.00
29, 87208.55, 135847.86, 44188.57, 86752.95, 22448.26, 81021.95, 129688.52, 99463.05, 0.00, 0.00, 0.00
30, 87207.56, 135847.48, 44185.02, 86748.48, 22462.18, 81023.26, 129668.86, 99459.54, 0.00, 0.00, 0.00
31, 87207.70, 135851.08, 44186.58, 86754.56, 22471.95, 81023.88, 129684.86, 99460.43, 0.00, 0.00, 0.00
32, 87208.55, 135850.52, 44196.39, 86770.66, 22469.16, 81023.87, 129691.84, 99463.29, 0.00, 0.00, 0.00
33, 87209.66, 135851.69, 44194.49, 86766.16, 22469.52, 81028.31, 129674.13, 99464.50, 0.07, -0.27, 0.97
34, 87207.14, 135856.09, 44191.79, 86758.16, 22461.58, 81027.93, 129664.23, 99461.19, 0.00, 0.00, 0.00
35, 87200.73, 135857.23, 44192.50, 86756.66, 22454.58, 81026.26, 129673.55, 99454.33, 0.00, 0.00, 0.00
36, 87199.83, 135857.20, 44184.12, 86751.16, 22441.55, 81016.82, 129665.46, 99453.48, 0.00, 0.00, 0.00
37, 87205.62, 135849.55, 44182.51, 86751.66, 22462.63, 81024.71, 129676.77, 99458.77, 0.00, 0.00, 0.00
38, 87201.88, 135863.36, 44186.89, 86765.80, 22462.45, 81025.52, 129677.82, 99454.48, 0.00, 0.00, 0.00
39, 87195.16, 135842.39, 44189.82, 86770.23, 22452.01, 81021.92, 129672.57, 99448.98, 0.00, 0.00, 0.00
40, 87200.43, 135844.13, 44184.61, 86768.09, 22458.81, 81029.67, 129668.14, 99455.23, 0.00, 0.00, 0.00
41, 87197.88, 135842.91, 44178.98, 86759.27, 22462.47, 81019.91, 129686.88, 99449.39, 0.00, 0.00, 0.00
42, 87197.48, 135851.50, 44183.81, 86749.15, 22466.88, 81019.91, 129660.97, 99450.09, 0.00, 0.00, 0.00
43, 87198.58, 135853.81, 44190.20, 86743.41, 22457.02, 81024.04, 129670.13, 99449.45, 0.07, -0.27, 0.96
44, 87202.29, 135841.11, 44188.75, 86751.99, 22454.81, 81026.86, 129659.89, 99451.16, 0.00, 0.00, 0.00
45, 87196.79, 135844.13, 44198.65, 86758.94, 22454.49, 81026.59, 129659.36, 99451.09, 0.00, 0.00, 0.00
46, 87196.14, 135843.53, 44195.05, 86756.91, 22452.13, 81031.06, 129666.13, 99453.21, 0.00, 0.00, 0.00
47, 87197.59, 135844.53, 44185.82, 86758.61, 22460.62, 81026.44, 129677.82, 99450.02, 0.00, 0.00, 0.00
48, 87200.05, 135846.66, 44182.13, 86760.93, 22470.72, 81032.70, 129670.98, 99455.70, 0.00, 0.00, 0.00
49, 87193.57, 135842.86, 44180.81, 86757.17, 22465.98, 81033.30, 129669.87, 99450.59, 0.00, 0.00, 0.00
50, 87197.82, 135842.70, 44187.68, 86749.60, 22458.43, 81028.31, 129672.44, 99447.38, 0.00, 0.00, 0.00
51, 87202.06, 135835.64, 44179.88, 86751.34, 22458.50, 81030.91, 129671.20, 99449.19, 0.00, 0.00, 0.00
52, 87206.58, 135836.80, 44183.50, 86754.20, 22452.46, 81028.49, 129690.96, 99457.19, 0.00, 0.00, 0.00
53, 87210.63, 135842.50, 44183.92, 86757.82, 22469.25, 81038.93, 129697.58, 99458.29, 0.07, -0.26, 0.96
54, 87209.53, 135845.16, 44180.97, 86761.53, 22470.16, 81040.76, 129646.23, 99452.72, 0.00, 0.00, 0.00
55, 87207.18, 135838.23, 44173.59, 86746.24, 22466.52, 81034.08, 129672.88, 99453.91, 0.00, 0.00, 0.00
56, 87203.34, 135834.83, 44173.64, 86753.53, 22452.68, 81024.69, 129659.98, 99449.59, 0.00, 0.00, 0.00
57, 87202.94, 135841.34, 44184.05, 86759.97, 22455.03, 81028.11, 129662.82, 99446.04, 0.00, 0.00, 0.00
58, 87201.93, 135850.13, 44188.13, 86765.47, 22463.26, 81034.66, 129665.48, 99445.92, 0.00, 0.00, 0.00
59, 87200.77, 135847.94, 44182.11, 86759.95, 22454.43, 81031.55, 129668.61, 99445.37, 0.00, 0.00, 0.00
60, 87203.52, 135839.91, 44179.41, 86756.52, 22457.98, 81040.36, 129679.05, 99448.43, 0.00, 0.00, 0.00
61, 87202.63, 135833.92, 44177.17, 86750.41, 22450.18, 81028.78, 129678.00, 99442.88, 0.00, 0.00, 0.00
62, 87204.23, 135833.64, 44180.59, 86750.60, 22446.02, 81023.84, 129655.67, 99448.20, 0.00, 0.00, 0.00
63, 87198.20, 135837.89, 44179.45, 86749.20, 22427.36, 81024.38, 129656.54, 99444.09, 0.07, -0.27, 0.96
64, 87198.27, 135838.45, 44178.29, 86755.12, 22428.46, 81025.38, 129659.13, 99444.74, 0.00, 0.00, 0.00
65, 87194.33, 135836.08, 44183.34, 86748.64, 22451.25, 81025.48, 129674.16, 99438.99, 0.00, 0.00, 0.00
66, 87195.29, 135846.33, 44186.89, 86743.70, 22444.93, 81024.98, 129674.71, 99441.86, 0.00, 0.00, 0.00
67, 87199.05, 135846.28, 44185.84, 86748.70, 22448.44, 81025.72, 129657.08, 99447.91, 0.00, 0.00, 0.00
68, 87196.68, 135836.33, 44177.84, 86755.81, 22444.26, 81023.64, 129646.95, 99445.05, 0.00, 0.00, 0.00
69, 87201.28, 135835.61, 44184.32, 86761.31, 22459.95, 81041.25, 129666.31, 99452.43, 0.00, 0.00, 0.00
70, 87187.24, 135834.14, 44188.19, 86755.27, 22433.42, 81024.24, 129663.45, 99440.25, 0.00, 0.00, 0.00
71, 87191.88, 135833.41, 44185.91, 86737.35, 22456.75, 81028.18, 129662.02, 99443.65, 0.00, 0.00, 0.00
72, 87189.19, 135831.30, 44179.34, 86740.26, 22456.75, 81031.91, 129664.50, 99442.93, 0.00, 0.00, 0.00
73, 87182.87, 135830.73, 44184.28, 86755.97, 22454.65, 81030.44, 129660.92, 99436.38, 0.07, -0.26, 0.97
74, 87179.04, 135831.75, 44187.92, 86761.38, 22455.08, 81022.63, 129652.25, 99428.71, 0.00, 0.00, 0.00
75, 87182.13, 135837.48, 44185.91, 86754.29, 22451.61, 81022.63, 129653.21, 99428.83, 0.00, 0.00, 0.00
76, 87186.17, 135836.91, 44186.36, 86757.11, 22452.33, 81023.38, 129663.23, 99431.44, 0.00, 0.00, 0.00
77, 87191.23, 135838.86, 44187.79, 86759.70, 22444.23, 81026.14, 129682.00, 99435.98, 0.00, 0.00, 0.00
78, 87197.84, 135845.42, 44188.21, 86761.16, 22440.61, 81022.34, 129661.66, 99440.96, 0.00, 0.00, 0.00
79, 87198.80, 135844.02, 44188.26, 86767.55, 22463.30, 81032.76, 129653.26, 99442.93, 0.00, 0.00, 0.00
80, 87198.45, 135839.50, 44180.75, 86763.57, 22460.91, 81033.92, 129659.54, 99438.51, 0.00, 0.00, 0.00
81, 87205.84, 135841.14, 44175.05, 86753.58, 22462.52, 81044.43, 129665.10, 99443.98, 0.00, 0.00, 0.00
82, 87202.71, 135842.80, 44184.84, 86753.84, 22454.88, 81043.09, 129673.48, 99443.60, 0.00, 0.00, 0.00
83, 87198.24, 135842.31, 44185.24, 86746.07, 22447.23, 81034.08, 129671.88, 99441.08, 0.08, -0.27, 0.97
84, 87198.27, 135835.03, 44184.70, 86739.61, 22432.19, 81031.15, 129660.03, 99439.20, 0.00, 0.00, 0.00
85, 87201.84, 135828.70, 44180.10, 86743.79, 22431.54, 81022.75, 129669.04, 99438.62, 0.00, 0.00, 0.00
86, 87196.09, 135828.31, 44182.25, 86750.09, 22432.32, 81018.79, 129669.69, 99433.99, 0.00, 0.00, 0.00
87, 87192.66, 135829.22, 44175.34, 86743.88, 22431.49, 81013.36, 129650.30, 99431.91, 0.00, 0.00, 0.00
88, 87193.82, 135829.69, 44167.36, 86732.99, 22419.54, 81008.95, 129640.52, 99432.70, 0.00, 0.00, 0.00
89, 87195.41, 135829.89, 44165.05, 86733.73, 22415.60, 81009.11, 129653.73, 99431.42, 0.00, 0.00, 0.00
90, 87192.48, 135834.61, 44176.97, 86756.51, 22427.85, 81017.02, 129660.56, 99428.63, 0.00, 0.00, 0.00
91, 87190.24, 135835.81, 44179.38, 86751.43, 22429.77, 81019.35, 129645.90, 99428.34, 0.00, 0.00, 0.00
92, 87185.79, 135831.92, 44177.06, 86733.88, 22416.77, 81010.14, 129647.22, 99421.63, 0.00, 0.00, 0.00
93, 87186.87, 135834.08, 44184.79, 86736.45, 22441.06, 81017.12, 129647.84, 99424.58, 0.07, -0.27, 0.97
94, 87194.63, 135834.92, 44184.26, 86751.97, 22451.97, 81024.42, 129657.84, 99434.70, 0.00, 0.00, 0.00
95, 87192.45, 135833.58, 44176.57, 86747.74, 22437.02, 81020.84, 129658.09, 99433.05, 0.00, 0.00, 0.00
96, 87186.62, 135829.16, 44166.57, 86734.98, 22422.33, 81014.77, 129645.61, 99422.97, 0.00, 0.00, 0.00
97, 87194.11, 135826.98, 44169.01, 86739.95, 22430.85, 81013.58, 129639.42, 99424.60, 0.00, 0.00, 0.00
98, 87201.87, 135823.61, 44169.19, 86734.98, 22428.83, 81012.55, 129651.98, 99439.73, 0.00, 0.00, 0.00
99, 87186.69, 135827.66, 44184.46, 86753.22, 22436.97, 81024.53, 129660.84, 99439.96, 0.00, 0.00, 0.00
100, 87179.69, 135836.67, 44194.23, 86760.69, 22449.55, 81034.08, 129671.20, 99428.13, 0.00, 0.00, 0.00
101, 87179.60, 135840.42, 44193.29, 86760.35, 22451.48, 81030.84, 129684.80, 99430.19, 0.00, 0.00, 0.00
102, 87184.85, 135825.31, 44183.68, 86762.36, 22451.86, 81032.85, 129647.58, 99435.89, 0.00, 0.00, 0.00
103, 87191.29, 135828.95, 44184.01, 86762.23, 22445.49, 81032.96, 129657.97, 99443.76, 0.07, -0.27, 0.97
104, 87180.54, 135833.47, 44185.78, 86755.68, 22440.53, 81028.45, 129652.70, 99432.16, 0.00, 0.00, 0.00
105, 87178.06, 135834.67, 44185.62, 86748.73, 22438.42, 81028.67, 129663.76, 99430.08, 0.00, 0.00, 0.00
106, 87187.23, 135829.00, 44185.15, 86751.92, 22444.19, 81032.67, 129676.59, 99440.47, 0.00, 0.00, 0.00
107, 87190.22, 135827.14, 44185.78, 86754.78, 22443.30, 81032.20, 129671.34, 99438.35, 0.00, 0.00, 0.00
108, 87187.60, 135824.86, 44181.66, 86757.53, 22459.50, 81037.21, 129662.66, 99436.52, 0.00, 0.00, 0.00
109, 87187.63, 135831.95, 44182.76, 86757.02, 22457.60, 81040.49, 129667.90, 99439.98, 0.00, 0.00, 0.00
110, 87195.43, 135833.53, 44179.25, 86756.04, 22459.43, 81045.61, 129679.70, 99444.45, 0.00, 0.00, 0.00
111, 87195.09, 135835.25, 44180.90, 86756.05, 22458.52, 81039.78, 129692.35, 99439.06, 0.00, 0.00, 0.00
112, 87190.33, 135828.81, 44186.36, 86757.91, 22446.72, 81030.62, 129656.70, 99436.16, 0.00, 0.00, 0.00
113, 87193.73, 135829.02, 44185.73, 86759.79, 22462.29, 81040.78, 129661.15, 99440.98, 0.07, -0.27, 0.97
114, 87187.34, 135828.70, 44181.46, 86741.62, 22448.95, 81036.78, 129657.30, 99434.05, 0.00, 0.00, 0.00
115, 87185.05, 135825.38, 44182.25, 86750.72, 22447.25, 81039.33, 129666.29, 99432.49, 0.00, 0.00, 0.00
116, 87184.63, 135822.92, 44183.83, 86762.25, 22449.64, 81041.34, 129677.53, 99432.76, 0.00, 0.00, 0.00
117, 87188.03, 135824.73, 44175.94, 86748.48, 22457.54, 81040.20, 129678.23, 99436.38, 0.00, 0.00, 0.00
118, 87187.85, 135831.17, 44181.86, 86758.07, 22468.80, 81043.98, 129676.97, 99439.78, 0.00, 0.00, 0.00
119, 87186.02, 135831.77, 44190.20, 86767.52, 22456.55, 81036.60, 129675.97, 99433.50, 0.00, 0.00, 0.00
120, 87194.58, 135836.42, 44192.35, 86763.68, 22462.70, 81046.77, 129669.02, 99435.64, 0.00, 0.00, 0.00
121, 87194.17, 135836.55, 44193.04, 86768.46, 22464.51, 81049.84, 129689.91, 99438.17, 0.00, 0.00, 0.00
122, 87192.81, 135830.67, 44192.53, 86767.95, 22453.96, 81038.46, 129660.97, 99442.80, 0.00, 0.00, 0.00
123, 87190.11, 135828.78, 44192.28, 86762.18, 22451.66, 81036.67, 129655.71, 99439.11, 0.07, -0.26, 0.97
124, 87189.66, 135827.09, 44193.02, 86758.70, 22460.89, 81040.07, 129663.29, 99439.98, 0.00, 0.00, 0.00
125, 87181.91, 135826.66, 44182.91, 86747.99, 22450.05, 81032.47, 129661.02, 99432.05, 0.00, 0.00, 0.00
126, 87180.43, 135829.20, 44175.61, 86737.93, 22442.20, 81028.47, 129661.19, 99430.55, 0.00, 0.00, 0.00
127, 87189.32, 135831.19, 44179.85, 86738.76, 22456.26, 81046.53, 129677.64, 99442.10, 0.00, 0.00, 0.00
128, 87194.58, 135831.05, 44184.14, 86747.19, 22457.04, 81042.93, 129681.17, 99445.50, 0.00, 0.00, 0.00
129, 87196.03, 135831.30, 44190.40, 86744.32, 22458.90, 81041.68, 129673.66, 99444.98, 0.00, 0.00, 0.00
130, 87194.69, 135831.72, 44194.32, 86748.73, 22436.79, 81034.81, 129690.98, 99444.20, 0.00, 0.00, 0.00
131, 87197.08, 135839.55, 44199.19, 86753.51, 22444.66, 81033.14, 129648.16, 99444.52, 0.00, 0.00, 0.00
132, 87191.47, 135834.11, 44194.23, 86752.23, 22450.63, 81031.84, 129660.25, 99438.46, 0.00, 0.00, 0.00
133, 87191.05, 135831.33, 44184.61, 86741.57, 22451.90, 81035.30, 129668.23, 99438.48, 0.07, -0.27, 0.97
134, 87194.22, 135836.78, 44186.58, 86746.52, 22443.77, 81036.67, 129664.09, 99443.42, 0.00, 0.00, 0.00
135, 87188.99, 135829.72, 44181.80, 86749.38, 22444.12, 81027.55, 129668.70, 99441.09, 0.00, 0.00, 0.00
136, 87197.26, 135825.44, 44185.29, 86747.05, 22446.11, 81033.09, 129679.92, 99451.49, 0.00, 0.00, 0.00
137, 87198.58, 135829.52, 44183.77, 86746.40, 22444.15, 81027.40, 129676.30, 99452.27, 0.00, 0.00, 0.00
138, 87192.52, 135834.31, 44185.62, 86747.36, 22440.44, 81025.95, 129669.02, 99447.80, 0.00, 0.00, 0.00
139, 87189.59, 135833.30, 44188.19, 86748.01, 22433.08, 81025.72, 129674.29, 99446.28, 0.00, 0.00, 0.00
140, 87194.48, 135830.88, 44184.12, 86742.60, 22441.40, 81035.20, 129703.30, 99452.45, 0.00, 0.00, 0.00
141, 87191.56, 135829.61, 44182.51, 86733.52, 22439.50, 81029.90, 129671.25, 99448.18, 0.00, 0.00, 0.00
142, 87185.97, 135836.98, 44184.86, 86744.75, 22436.59, 81030.75, 129679.66, 99444.16, 0.00, 0.00, 0.00
143, 87187.76, 135830.72, 44181.13, 86747.50, 22424.23, 81032.20, 129657.84, 99441.66, 0.07, -0.26, 0.97
144, 87184.49, 135826.58, 44180.59, 86752.93, 22447.50, 81036.11, 129669.28, 99439.13, 0.00, 0.00, 0.00
145, 87181.92, 135821.64, 44183.27, 86752.17, 22448.93, 81042.30, 129664.79, 99438.51, 0.00, 0.00, 0.00
146, 87186.42, 135825.31, 44189.22, 86751.34, 22436.32, 81036.72, 129679.25, 99441.25, 0.00, 0.00, 0.00
147, 87187.31, 135830.89, 44193.09, 86752.02, 22445.26, 81040.74, 129690.25, 99441.37, 0.00, 0.00, 0.00
148, 87186.93, 135835.28, 44187.16, 86748.44, 22456.86, 81041.08, 129683.27, 99444.77, 0.00, 0.00, 0.00
149, 87187.49, 135831.91, 44182.78, 86747.19, 22446.87, 81036.91, 129677.46, 99445.66, 0.00, 0.00, 0.00
150, 87181.99, 135829.67, 44183.05, 86748.55, 22435.59, 81030.05, 129673.95, 99436.42, 0.00, 0.00, 0.00
151, 87173.27, 135825.09, 44189.42, 86754.85, 22436.97, 81024.87, 129662.73, 99427.30, 0.00, 0.00, 0.00
152, 87173.84, 135820.03, 44190.49, 86756.13, 22444.15, 81033.25, 129680.48, 99425.98, 0.00, 0.00, 0.00
153, 87178.57, 135818.84, 44181.77, 86752.68, 22448.50, 81033.52, 129661.33, 99431.64, 0.07, -0.27, 0.96
154, 87172.18, 135819.05, 44177.62, 86745.64, 22442.71, 81032.05, 129668.37, 99430.48, 0.00, 0.00, 0.00
155, 87166.15, 135813.02, 44180.16, 86745.17, 22432.68, 81031.62, 129681.87, 99426.73, 0.00, 0.00, 0.00
156, 87169.99, 135818.14, 44189.40, 86752.02, 22437.37, 81037.09, 129677.42, 99427.10, 0.00, 0.00, 0.00
157, 87171.76, 135829.44, 44193.42, 86757.53, 22442.58, 81039.84, 129674.02, 99428.70, 0.00, 0.00, 0.00
158, 87174.48, 135829.52, 44193.00, 86755.68, 22432.32, 81026.50, 129670.02, 99425.83, 0.00, 0.00, 0.00
159, 87164.18, 135810.84, 44187.09, 86744.39, 22418.38, 81023.20, 129664.19, 99414.92, 0.00, 0.00, 0.00
160, 87165.41, 135817.69, 44192.82, 86745.09, 22428.21, 81025.48, 129677.04, 99418.45, 0.00, 0.00, 0.00
161, 87168.29, 135819.34, 44190.05, 86747.77, 22424.59, 81026.21, 129678.24, 99426.28, 0.00, 0.00, 0.00
162, 87169.37, 135823.92, 44189.15, 86750.18, 22430.96, 81034.33, 129696.64, 99425.00, 0.00, 0.00, 0.00
163, 87165.77, 135819.67, 44187.34, 86751.41, 22428.10, 81027.80, 129664.55, 99420.09, 0.07, -0.27, 0.96
164, 87165.27, 135818.00, 44183.09, 86748.03, 22430.85, 81028.02, 129664.95, 99417.65, 0.00, 0.00, 0.00
165, 87167.98, 135809.17, 44183.38, 86747.81, 22429.37, 81028.83, 129664.99, 99420.40, 0.00, 0.00, 0.00
166, 87166.41, 135810.61, 44182.27, 86745.75, 22422.73, 81026.66, 129668.84, 99415.77, 0.00, 0.00, 0.00
167, 87165.14, 135811.16, 44182.11, 86740.55, 22419.98, 81025.48, 129670.29, 99409.73, 0.00, 0.00, 0.00
168, 87167.02, 135815.66, 44185.80, 86749.33, 22417.01, 81027.73, 129685.09, 99413.29, 0.00, 0.00, 0.00
169, 87172.56, 135822.69, 44193.71, 86772.89, 22424.50, 81033.14, 129665.26, 99420.31, 0.00, 0.00, 0.00
170, 87175.00, 135820.97, 44191.39, 86765.70, 22433.26, 81031.93, 129669.28, 99426.91, 0.00, 0.00, 0.00
171, 87171.71, 135817.94, 44191.21, 86758.90, 22423.29, 81031.64, 129675.32, 99422.30, 0.00, 0.00, 0.00
172, 87171.27, 135813.39, 44184.55, 86748.86, 22440.39, 81030.93, 129654.62, 99416.47, 0.00, 0.00, 0.00
173, 87180.27, 135812.66, 44184.17, 86751.01, 22446.60, 81034.62, 129677.75, 99416.94, 0.07, -0.27, 0.96
174, 87175.80, 135828.22, 44186.67, 86770.32, 22439.05, 81031.89, 129685.69, 99417.90, 0.00, 0.00, 0.00
175, 87174.70, 135824.80, 44174.78, 86764.38, 22439.61, 81034.70, 129667.16, 99417.85, 0.00, 0.00, 0.00
176, 87178.22, 135815.36, 44187.83, 86773.91, 22440.48, 81042.02, 129685.91, 99420.58, 0.00, 0.00, 0.00
177, 87163.73, 135802.88, 44199.70, 86758.49, 22424.97, 81028.40, 129677.02, 99405.83, 0.00, 0.00, 0.00
178, 87162.73, 135804.75, 44208.15, 86753.40, 22405.63, 81023.98, 129665.95, 99406.98, 0.00, 0.00, 0.00
179, 87175.84, 135812.66, 44199.57, 86757.38, 22417.41, 81030.19, 129654.58, 99415.64, 0.00, 0.00, 0.00
180, 87170.82, 135809.94, 44188.46, 86756.59, 22424.63, 81028.60, 129661.73, 99412.30, 0.00, 0.00, 0.00
181, 87172.36, 135810.80, 44187.05, 86752.28, 22420.79, 81028.05, 129694.18, 99411.03, 0.00, 0.00, 0.00
182, 87178.17, 135811.23, 44186.63, 86753.11, 22425.97, 81022.92, 129651.05, 99412.58, 0.00, 0.00, 0.00
183, 87187.29, 135819.55, 44193.20, 86763.63, 22432.43, 81034.37, 129671.49, 99426.01, 0.07, -0.27, 0.96
184, 87182.51, 135824.55, 44201.64, 86759.14, 22427.70, 81029.81, 129680.52, 99418.90, 0.00, 0.00, 0.00
185, 87179.27, 135812.06, 44195.50, 86762.00, 22434.33, 81031.51, 129675.54, 99416.63, 0.00, 0.00, 0.00
186, 87171.40, 135809.27, 44182.47, 86755.32, 22422.82, 81033.77, 129684.10, 99411.13, 0.00, 0.00, 0.00
187, 87171.27, 135807.52, 44180.90, 86759.61, 22417.73, 81031.91, 129665.68, 99412.29, 0.00, 0.00, 0.00
188, 87169.95, 135818.83, 44195.84, 86771.55, 22431.21, 81036.27, 129671.80, 99411.98, 0.00, 0.00, 0.00
189, 87172.36, 135816.77, 44199.88, 86761.63, 22433.82, 81033.84, 129678.58, 99414.03, 0.00, 0.00, 0.00
190, 87170.21, 135818.73, 44192.35, 86750.83, 22421.50, 81032.13, 129678.31, 99409.63, 0.00, 0.00, 0.00
191, 87167.64, 135819.55, 44190.70, 86761.02, 22428.03, 81033.23, 129699.32, 99401.98, 0.00, 0.00, 0.00
192, 87178.22, 135808.77, 44194.02, 86765.05, 22431.16, 81035.30, 129671.90, 99410.99, 0.00, 0.00, 0.00
193, 87163.48, 135809.22, 44187.12, 86751.70, 22399.98, 81019.80, 129648.74, 99398.05, 0.07, -0.26, 0.97
194, 87161.20, 135809.48, 44188.41, 86752.15, 22414.71, 81018.95, 129662.84, 99393.84, 0.00, 0.00, 0.00
195, 87169.12, 135816.30, 44191.30, 86759.59, 22433.35, 81031.93, 129671.14, 99403.45, 0.00, 0.00, 0.00
196, 87171.78, 135816.30, 44187.63, 86755.37, 22425.30, 81034.57, 129691.63, 99405.87, 0.00, 0.00, 0.00
197, 87171.40, 135819.28, 44187.77, 86749.87, 22419.22, 81026.88, 129665.46, 99403.68, 0.00, 0.00, 0.00
198, 87173.05, 135820.34, 44196.39, 86765.20, 22394.93, 81020.55, 129657.62, 99405.80, 0.00, 0.00, 0.00
199, 87171.98, 135824.22, 44197.55, 86770.68, 22403.00, 81029.72, 129671.05, 99407.39, 0.00, 0.00, 0.00
200, 87180.74, 135818.19, 44188.57, 86759.26, 22456.15, 81051.02, 129697.02, 99411.23, 0.00, 0.00, 0.00
201, 87175.29, 135817.38, 44189.31, 86764.53, 22436.93, 81032.72, 129671.63, 99403.32, 0.00, 0.00, 0.00
202, 87170.05, 135820.03, 44191.86, 86761.40, 22428.63, 81024.80, 129665.13, 99398.67, 0.00, 0.00, 0.00
203, 87176.74, 135819.31, 44191.45, 86759.95, 22427.81, 81026.99, 129653.26, 99407.57, 0.07, -0.26, 0.97
204, 87178.59, 135817.27, 44191.14, 86768.42, 22426.04, 81032.23, 129672.66, 99410.74, 0.00, 0.00, 0.00
205, 87178.98, 135818.53, 44186.02, 86761.53, 22420.25, 81024.09, 129676.26, 99409.60, 0.00, 0.00, 0.00
206, 87176.29, 135815.94, 44184.50, 86754.00, 22415.96, 81025.85, 129666.63, 99407.08, 0.00, 0.00, 0.00
207, 87171.42, 135813.11, 44188.75, 86756.73, 22409.97, 81022.26, 129673.40, 99407.55, 0.00, 0.00, 0.00
208, 87177.01, 135813.91, 44186.43, 86753.35, 22417.53, 81025.48, 129679.61, 99408.02, 0.00, 0.00, 0.00
209, 87172.09, 135825.13, 44186.18, 86758.88, 22422.78, 81028.67, 129658.80, 99403.59, 0.00, 0.00, 0.00
210, 87179.58, 135810.20, 44183.16, 86759.92, 22419.98, 81038.05, 129692.75, 99416.09, 0.00, 0.00, 0.00
211, 87179.80, 135812.86, 44181.04, 86762.00, 22415.00, 81031.33, 129671.02, 99410.34, 0.00, 0.00, 0.00
212, 87176.70, 135805.53, 44185.31, 86763.41, 22423.40, 81034.05, 129666.91, 99410.59, 0.00, 0.00, 0.00
213, 87177.32, 135809.38, 44182.67, 86760.04, 22428.92, 81040.25, 129673.04, 99415.17, 0.07, -0.26, 0.97
214, 87171.38, 135811.23, 44188.91, 86750.13, 22413.95, 81027.55, 129676.79, 99405.40, 0.00, 0.00, 0.00
215, 87173.56, 135813.69, 44197.29, 86749.53, 22408.16, 81024.76, 129673.26, 99403.23, 0.00, 0.00, 0.00
216, 87176.80, 135821.17, 44192.73, 86749.04, 22406.93, 81027.26, 129650.20, 99408.80, 0.00, 0.00, 0.00
217, 87178.08, 135818.56, 44189.51, 86749.09, 22416.97, 81020.89, 129665.33, 99411.37, 0.00, 0.00, 0.00
218, 87178.35, 135814.81, 44190.09, 86754.83, 22408.65, 81022.03, 129675.18, 99415.99, 0.00, 0.00, 0.00
219, 87179.80, 135820.33, 44186.09, 86754.52, 22396.58, 81020.00, 129681.13, 99417.80, 0.00, 0.00, 0.00
220, 87171.78, 135819.36, 44177.84, 86749.22, 22409.57, 81021.96, 129667.78, 99414.41, 0.00, 0.00, 0.00
221, 87170.44, 135808.44, 44183.34, 86748.62, 22403.73, 81022.23, 129663.60, 99413.27, 0.00, 0.00, 0.00
222, 87172.65, 135806.92, 44191.81, 86762.85, 22428.66, 81033.63, 129659.54, 99412.04, 0.07, -0.27, 0.97
223, 87171.76, 135811.50, 44183.43, 86759.99, 22425.64, 81030.28, 129673.53, 99411.73, 0.00, 0.00, 0.00
224, 87171.94, 135814.09, 44181.26, 86760.33, 22420.27, 81030.08, 129657.86, 99413.29, 0.00, 0.00, 0.00
225, 87178.82, 135815.28, 44181.69, 86755.81, 22412.38, 81030.55, 129665.46, 99415.02, 0.00, 0.00, 0.00
226, 87172.31, 135815.45, 44178.67, 86748.23, 22399.60, 81023.71, 129666.17, 99407.13, 0.00, 0.00, 0.00
227, 87163.04, 135816.33, 44194.05, 86746.40, 22396.76, 81017.52, 129660.30, 99404.98, 0.00, 0.00, 0.00
228, 87170.93, 135816.41, 44193.67, 86751.23, 22407.38, 81027.77, 129689.09, 99416.29, 0.00, 0.00, 0.00
229, 87169.66, 135823.14, 44194.36, 86752.95, 22408.81, 81026.81, 129670.60, 99411.23, 0.00, 0.00, 0.00
230, 87164.55, 135818.52, 44187.96, 86748.26, 22411.96, 81025.02, 129658.80, 99400.35, 0.00, 0.00, 0.00
231, 87168.63, 135815.20, 44182.07, 86747.63, 22414.84, 81030.30, 129672.99, 99402.90, 0.00, 0.00, 0.00
232, 87170.39, 135818.61, 44187.72, 86755.14, 22411.13, 81026.30, 129665.17, 99402.90, 0.07, -0.26, 0.97
233, 87172.16, 135826.98, 44186.29, 86754.80, 22406.17, 81026.45, 129689.58, 99407.01, 0.00, 0.00, 0.00
234, 87167.62, 135816.58, 44181.93, 86753.42, 22398.26, 81024.24, 129663.23, 99405.67, 0.00, 0.00, 0.00
235, 87169.05, 135812.39, 44179.16, 86752.30, 22418.40, 81032.73, 129671.70, 99407.03, 0.00, 0.00, 0.00
236, 87167.87, 135819.16, 44188.41, 86755.08, 22405.86, 81033.99, 129677.73, 99409.60, 0.00, 0.00, 0.00
237, 87167.76, 135823.97, 44187.70, 86748.62, 22400.76, 81028.98, 129676.50, 99407.62, 0.00, 0.00, 0.00
238, 87170.55, 135818.20, 44186.13, 86754.41, 22415.18, 81038.05, 129675.18, 99410.56, 0.00, 0.00, 0.00
239, 87169.77, 135818.56, 44177.71, 86748.75, 22417.79, 81038.33, 129672.77, 99406.34, 0.00, 0.00, 0.00
240, 87167.40, 135819.30, 44179.05, 86750.11, 22423.43, 81048.41, 129679.92, 99401.29, 0.00, 0.00, 0.00
241, 87169.59, 135826.16, 44186.63, 86756.64, 22415.69, 81044.92, 129707.88, 99402.36, 0.00, 0.00, 0.00
242, 87175.40, 135827.61, 44190.83, 86757.80, 22417.14, 81039.29, 129677.69, 99409.27, 0.07, -0.26, 0.96
243, 87171.55, 135826.61, 44186.22, 86755.99, 22406.62, 81033.48, 129679.72, 99406.23, 0.00, 0.00, 0.00
244, 87173.55, 135828.55, 44193.98, 86764.17, 22402.33, 81032.80, 129666.51, 99408.35, 0.00, 0.00, 0.00
245, 87176.34, 135830.20, 44192.73, 86755.48, 22410.44, 81038.10, 129681.58, 99409.63, 0.00, 0.00, 0.00
246, 87170.88, 135829.31, 44198.43, 86757.82, 22414.02, 81041.63, 129684.17, 99409.29, 0.00, 0.00, 0.00
247, 87173.55, 135825.72, 44194.83, 86752.95, 22416.90, 81044.38, 129678.83, 99411.66, 0.00, 0.00, 0.00
248, 87177.26, 135821.31, 44185.39, 86744.30, 22394.73, 81038.39, 129689.94, 99412.02, 0.00, 0.00, 0.00
249, 87172.85, 135820.66, 44189.15, 86752.39, 22390.93, 81035.89, 129692.88, 99402.65, 0.00, 0.00, 0.00
250, 87176.13, 135820.30, 44185.31, 86748.64, 22413.17, 81046.66, 129678.73, 99412.94, 0.00, 0.00, 0.00
251, 87168.47, 135819.59, 44191.23, 86748.66, 22408.03, 81032.63, 129662.22, 99404.41, 0.00, 0.00, 0.00
252, 87178.93, 135822.73, 44192.23, 86759.21, 22406.48, 81038.21, 129671.98, 99406.90, 0.07, -0.26, 0.97
253, 87184.01, 135828.59, 44191.99, 86754.91, 22421.59, 81038.48, 129686.18, 99405.31, 0.00, 0.00, 0.00
254, 87174.73, 135827.88, 44198.65, 86756.55, 22413.88, 81032.52, 129659.60, 99398.07, 0.00, 0.00, 0.00
255, 87175.22, 135825.05, 44194.85, 86753.98, 22408.61, 81040.09, 129677.48, 99401.94, 0.00, 0.00, 0.00
0, 87177.16, 135822.36, 44193.84, 86755.19, 22410.66, 81047.45, 129688.26, 99408.55, 0.00, 0.00, 0.00
1, 87170.15, 135821.78, 44190.38, 86750.27, 22395.64, 81039.63, 129681.98, 99399.86, 0.00, 0.00, 0.00
2, 87174.62, 135826.47, 44192.39, 86756.86, 22416.77, 81045.73, 129682.09, 99403.70, 0.00, 0.00, 0.00
3, 87177.90, 135835.22, 44191.83, 86755.09, 22416.47, 81043.98, 129686.72, 99413.98, 0.00, 0.00, 0.00
4, 87174.86, 135826.89, 44186.29, 86751.52, 22429.39, 81056.59, 129691.39, 99410.74, 0.00, 0.00, 0.00
5, 87173.01, 135814.97, 44179.14, 86751.43, 22419.78, 81051.85, 129710.03, 99407.99, 0.00, 0.00, 0.00
6, 87175.58, 135819.00, 44177.55, 86762.31, 22418.20, 81047.71, 129673.26, 99409.58, 0.07, -0.27, 0.97
7, 87173.84, 135822.84, 44171.89, 86752.46, 22411.27, 81045.50, 129674.94, 99404.84, 0.00, 0.00, 0.00
8, 87173.92, 135816.02, 44185.91, 86746.70, 22402.64, 81044.27, 129680.21, 99406.30, 0.00, 0.00, 0.00
9, 87163.71, 135823.48, 44199.70, 86744.95, 22396.09, 81038.08, 129684.77, 99397.09, 0.00, 0.00, 0.00
10, 87168.13, 135825.05, 44205.67, 86744.91, 22379.84, 81030.95, 129666.02, 99399.61, 0.00, 0.00, 0.00
11, 87171.30, 135824.61, 44195.59, 86741.75, 22373.13, 81026.37, 129673.13, 99401.27, 0.00, 0.00, 0.00
12, 87176.18, 135830.47, 44199.10, 86749.93, 22414.75, 81045.95, 129689.60, 99407.70, 0.00, 0.00, 0.00
13, 87179.02, 135826.14, 44201.82, 86751.90, 22415.07, 81047.11, 129693.04, 99405.34, 0.00, 0.00, 0.00
14, 87175.73, 135822.22, 44200.26, 86756.86, 22416.77, 81043.66, 129683.99, 99402.48, 0.00, 0.00, 0.00
15, 87175.33, 135824.08, 44201.15, 86754.31, 22419.47, 81037.68, 129680.93, 99399.08, 0.00, 0.00, 0.00
16, 87162.62, 135819.09, 44191.61, 86746.40, 22410.71, 81032.63, 129683.79, 99388.81, 0.07, -0.27, 0.97
17, 87169.74, 135821.06, 44192.77, 86751.12, 22424.14, 81040.90, 129673.04, 99397.38, 0.00, 0.00, 0.00
18, 87171.27, 135820.89, 44193.44, 86758.16, 22422.02, 81046.28, 129670.98, 99401.58, 0.00, 0.00, 0.00
19, 87162.26, 135821.67, 44194.85, 86775.13, 22413.72, 81039.29, 129667.12, 99391.77, 0.00, 0.00, 0.00
20, 87169.07, 135822.19, 44202.36, 86778.70, 22419.80, 81044.43, 129685.04, 99397.51, 0.00, 0.00, 0.00
21, 87166.39, 135821.88, 44202.88, 86760.28, 22413.72, 81034.75, 129686.00, 99394.38, 0.00, 0.00, 0.00
22, 87163.91, 135820.17, 44201.87, 86750.45, 22406.55, 81027.38, 129660.70, 99392.51, 0.00, 0.00, 0.00
23, 87162.16, 135813.36, 44191.18, 86740.61, 22392.33, 81015.08, 129666.29, 99388.05, 0.00, 0.00, 0.00
24, 87166.44, 135811.03, 44185.29, 86736.41, 22393.68, 81022.95, 129674.13, 99394.70, 0.00, 0.00, 0.00
25, 87165.05, 135811.86, 44185.53, 86737.15, 22382.77, 81024.42, 129660.14, 99391.25, 0.00, 0.00, 0.00
26, 87159.64, 135809.48, 44187.74, 86742.18, 22396.51, 81021.74, 129665.95, 99389.91, 0.07, -0.27, 0.97
27, 87164.18, 135815.31, 44186.71, 86739.07, 22412.54, 81029.41, 129678.98, 99394.80, 0.00, 0.00, 0.00
28, 87168.34, 135818.56, 44192.39, 86746.20, 22427.83, 81035.95, 129689.60, 99394.98, 0.00, 0.00, 0.00
29, 87164.27, 135820.80, 44195.72, 86755.79, 22428.39, 81036.05, 129666.40, 99394.36, 0.00, 0.00, 0.00
30, 87168.96, 135817.94, 44184.70, 86749.95, 22420.03, 81034.34, 129678.02, 99396.77, 0.00, 0.00, 0.00
31, 87166.55, 135812.03, 44187.70, 86745.04, 22414.53, 81031.69, 129684.23, 99390.74, 0.00, 0.00, 0.00
32, 87164.60, 135815.13, 44191.48, 86749.58, 22406.15, 81026.44, 129658.06, 99387.95, 0.00, 0.00, 0.00
33, 87159.13, 135813.08, 44182.56, 86745.09, 22401.30, 81025.56, 129661.95, 99382.91, 0.00, 0.00, 0.00
34, 87158.70, 135817.31, 44190.87, 86740.45, 22416.32, 81031.46, 129680.16, 99383.30, 0.00, 0.00, 0.00
35, 87152.09, 135819.28, 44195.21, 86747.07, 22413.35, 81026.59, 129668.30, 99374.94, 0.00, 0.00, 0.00
36, 87153.49, 135812.45, 44200.11, 86751.37, 22406.86, 81025.02, 129657.81, 99374.47, 0.07, -0.27, 0.97
37, 87156.55, 135811.70, 44199.19, 86751.77, 22416.88, 81029.56, 129664.72, 99377.22, 0.00, 0.00, 0.00
38, 87158.41, 135813.80, 44198.25, 86748.93, 22419.38, 81028.31, 129668.86, 99378.80, 0.00, 0.00, 0.00
39, 87161.77, 135813.39, 44193.06, 86744.50, 22412.16, 81028.55, 129673.62, 99386.05, 0.00, 0.00, 0.00
40, 87162.48, 135811.77, 44191.50, 86745.53, 22410.30, 81027.53, 129662.40, 99387.38, 0.00, 0.00, 0.00
41, 87159.40, 135808.92, 44187.00, 86740.77, 22401.97, 81029.16, 129666.35, 99386.24, 0.00, 0.00, 0.00
42, 87164.73, 135812.66, 44187.79, 86741.33, 22405.57, 81038.48, 129670.80, 99391.19, 0.00, 0.00, 0.00
43, 87167.82, 135815.94, 44186.54, 86741.48, 22415.31, 81041.63, 129682.94, 99397.04, 0.00, 0.00, 0.00
44, 87166.52, 135813.86, 44181.04, 86735.52, 22424.88, 81041.39, 129684.30, 99396.57, 0.00, 0.00, 0.00
45, 87161.05, 135809.94, 44175.47, 86730.60, 22411.15, 81032.85, 129675.23, 99390.25, 0.00, 0.00, 0.00
46, 87150.30, 135808.33, 44178.85, 86728.70, 22394.46, 81022.66, 129682.98, 99382.24, 0.07, -0.27, 0.97
47, 87153.56, 135808.56, 44189.00, 86740.92, 22390.32, 81017.78, 129668.99, 99381.59, 0.00, 0.00, 0.00
48, 87153.98, 135811.86, 44192.37, 86741.55, 22383.82, 81022.08, 129644.54, 99384.19, 0.00, 0.00, 0.00
49, 87156.34, 135816.59, 44194.29, 86752.03, 22401.28, 81027.28, 129654.35, 99385.17, 0.00, 0.00, 0.00
50, 87157.36, 135810.11, 44188.93, 86750.85, 22415.74, 81035.30, 129661.52, 99382.47, 0.00, 0.00, 0.00
51, 87156.22, 135811.78, 44196.10, 86743.59, 22402.17, 81029.14, 129655.34, 99379.27, 0.00, 0.00, 0.00
52, 87155.88, 135812.17, 44193.24, 86738.38, 22405.03, 81026.55, 129654.04, 99381.38, 0.00, 0.00, 0.00
53, 87159.75, 135810.56, 44190.96, 86738.04, 22407.38, 81028.49, 129659.88, 99385.71, 0.00, 0.00, 0.00
54, 87154.21, 135811.11, 44193.29, 86725.57, 22389.92, 81018.12, 129655.05, 99379.56, 0.00, 0.00, 0.00
55, 87153.59, 135810.27, 44197.13, 86738.98, 22398.75, 81026.32, 129656.41, 99380.77, 0.00, 0.00, 0.00
56, 87157.30, 135810.52, 44192.55, 86737.53, 22405.68, 81032.80, 129666.55, 99384.26, 0.07, -0.28, 0.96
57, 87158.99, 135811.91, 44188.37, 86736.50, 22407.20, 81035.17, 129659.94, 99384.28, 0.00, 0.00, 0.00
58, 87157.61, 135814.02, 44189.04, 86742.34, 22399.67, 81033.09, 129663.05, 99383.92, 0.00, 0.00, 0.00
59, 87153.23, 135811.41, 44193.04, 86742.22, 22386.88, 81020.11, 129656.01, 99381.66, 0.00, 0.00, 0.00
60, 87162.86, 135811.56, 44189.96, 86732.97, 22401.72, 81028.67, 129658.33, 99388.95, 0.00, 0.00, 0.00
61, 87156.45, 135813.89, 44200.71, 86735.59, 22405.68, 81035.27, 129651.13, 99374.58, 0.00, 0.00, 0.00
62, 87154.03, 135812.75, 44198.63, 86733.59, 22402.68, 81026.73, 129660.81, 99372.74, 0.00, 0.00, 0.00
63, 87157.38, 135813.80, 44193.29, 86735.12, 22403.55, 81026.03, 129667.49, 99377.55, 0.00, 0.00, 0.00
64, 87159.33, 135817.63, 44203.68, 86754.67, 22409.61, 81030.44, 129644.72, 99377.84, 0.00, 0.00, 0.00
65, 87155.06, 135814.64, 44199.97, 86746.40, 22398.93, 81027.75, 129645.23, 99374.80, 0.00, 0.00, 0.00
66, 87151.86, 135812.28, 44197.06, 86739.12, 22387.57, 81024.80, 129647.11, 99372.09, 0.07, -0.28, 0.96
67, 87157.54, 135814.22, 44199.07, 86745.27, 22386.14, 81026.39, 129650.77, 99373.08, 0.00, 0.00, 0.00
68, 87158.08, 135818.09, 44200.59, 86749.98, 22401.21, 81032.89, 129658.42, 99371.27, 0.00, 0.00, 0.00
69, 87159.06, 135815.92, 44196.04, 86747.84, 22402.50, 81032.96, 129659.25, 99373.59, 0.00, 0.00, 0.00
70, 87165.20, 135813.58, 44190.14, 86744.19, 22413.63, 81037.90, 129663.56, 99381.82, 0.00, 0.00, 0.00
71, 87165.16, 135816.38, 44198.07, 86757.65, 22427.49, 81044.43, 129664.99, 99382.42, 0.00, 0.00, 0.00
72, 87164.34, 135815.30, 44192.86, 86754.91, 22423.00, 81044.80, 129662.22, 99381.98, 0.00, 0.00, 0.00
73, 87163.17, 135817.89, 44198.25, 86746.73, 22419.85, 81045.77, 129663.43, 99377.59, 0.00, 0.00, 0.00
74, 87153.88, 135818.00, 44221.88, 86754.80, 22399.24, 81031.38, 129650.71, 99365.81, 0.00, 0.00, 0.00
75, 87151.64, 135812.17, 44215.08, 86740.26, 22387.48, 81025.98, 129647.89, 99366.64, 0.00, 0.00, 0.00
76, 87157.95, 135812.53, 44208.20, 86741.20, 22390.72, 81029.61, 129653.14, 99372.59, 0.07, -0.27, 0.96
77, 87164.34, 135815.47, 44205.36, 86740.61, 22392.33, 81035.53, 129660.38, 99380.37, 0.00, 0.00, 0.00
78, 87170.91, 135817.05, 44204.89, 86742.49, 22391.53, 81035.80, 129680.19, 99386.40, 0.00, 0.00, 0.00
79, 87168.73, 135814.06, 44209.47, 86747.19, 22392.67, 81033.54, 129668.79, 99386.11, 0.00, 0.00, 0.00
80, 87165.38, 135809.08, 44205.96, 86741.55, 22388.80, 81030.79, 129648.45, 99381.30, 0.00, 0.00, 0.00
81, 87168.34, 135809.00, 44203.95, 86744.95, 22396.13, 81036.70, 129655.13, 99384.37, 0.00, 0.00, 0.00
82, 87172.56, 135809.69, 44202.27, 86746.58, 22399.69, 81042.73, 129663.45, 99388.68, 0.00, 0.00, 0.00
83, 87175.69, 135810.78, 44207.50, 86761.13, 22397.68, 81047.22, 129668.88, 99390.72, 0.00, 0.00, 0.00
84, 87174.44, 135811.14, 44207.66, 86764.62, 22414.17, 81054.59, 129679.30, 99389.55, 0.00, 0.00, 0.00
85, 87172.72, 135808.39, 44204.02, 86751.90, 22404.22, 81052.85, 129677.17, 99387.12, 0.00, 0.00, 0.00
86, 87166.80, 135805.59, 44204.17, 86737.59, 22393.97, 81047.84, 129677.42, 99380.32, 0.07, -0.27, 0.96
87, 87164.49, 135807.83, 44208.57, 86742.73, 22400.61, 81047.16, 129673.33, 99378.87, 0.00, 0.00, 0.00
88, 87164.76, 135814.73, 44220.33, 86759.32, 22394.99, 81043.84, 129673.51, 99383.66, 0.00, 0.00, 0.00
89, 87173.30, 135810.98, 44216.58, 86759.05, 22406.86, 81049.86, 129694.79, 99389.17, 0.00, 0.00, 0.00
90, 87175.58, 135806.94, 44214.66, 86750.98, 22407.24, 81050.44, 129680.75, 99387.56, 0.00, 0.00, 0.00
91, 87174.13, 135806.02, 44213.05, 86744.91, 22403.98, 81050.06, 129680.66, 99388.30, 0.00, 0.00, 0.00
92, 87175.63, 135806.63, 44219.66, 86771.81, 22406.91, 81055.38, 129686.29, 99391.07, 0.00, 0.00, 0.00
93, 87174.05, 135803.31, 44205.89, 86757.71, 22391.73, 81041.19, 129671.56, 99385.66, 0.00, 0.00, 0.00
94, 87172.49, 135801.95, 44201.38, 86751.34, 22383.15, 81041.63, 129676.86, 99386.76, 0.00, 0.00, 0.00
95, 87172.20, 135803.47, 44206.90, 86747.52, 22382.10, 81039.80, 129674.78, 99387.54, 0.00, 0.00, 0.00
96, 87172.60, 135809.06, 44213.09, 86748.32, 22392.67, 81036.88, 129673.93, 99387.72, 0.07, -0.26, 0.97
97, 87164.78, 135808.70, 44222.10, 86750.56, 22413.59, 81050.20, 129681.55, 99382.47, 0.00, 0.00, 0.00
98, 87166.93, 135807.66, 44219.44, 86752.46, 22410.48, 81054.89, 129688.08, 99387.54, 0.00, 0.00, 0.00
99, 87162.13, 135804.52, 44213.00, 86744.70, 22401.10, 81048.00, 129678.36, 99382.67, 0.00, 0.00, 0.00
100, 87162.13, 135804.45, 44206.18, 86740.37, 22389.38, 81046.39, 129673.06, 99381.75, 0.00, 0.00, 0.00
101, 87167.04, 135807.81, 44210.41, 86743.50, 22389.81, 81051.70, 129674.85, 99387.48, 0.00, 0.00, 0.00
102, 87164.23, 135807.14, 44217.36, 86749.95, 22387.80, 81045.95, 129683.38, 99383.25, 0.00, 0.00, 0.00
103, 87161.02, 135806.47, 44210.99, 86739.61, 22380.67, 81042.37, 129680.41, 99379.79, 0.00, 0.00, 0.00
104, 87163.15, 135808.13, 44212.17, 86746.29, 22386.41, 81045.99, 129679.81, 99380.28, 0.00, 0.00, 0.00
105, 87160.67, 135804.55, 44210.39, 86742.49, 22378.83, 81040.63, 129684.66, 99376.99, 0.00, 0.00, 0.00
106, 87161.74, 135805.13, 44209.00, 86747.52, 22395.44, 81049.86, 129669.55, 99375.16, 0.07, -0.27, 0.96
107, 87163.53, 135807.77, 44207.82, 86749.64, 22405.19, 81053.73, 129678.78, 99378.00, 0.00, 0.00, 0.00
108, 87164.67, 135809.39, 44209.47, 86753.95, 22399.31, 81050.46, 129679.41, 99380.39, 0.00, 0.00, 0.00
109, 87167.09, 135809.55, 44212.29, 86761.89, 22405.23, 81056.12, 129683.01, 99384.77, 0.00, 0.00, 0.00
110, 87166.97, 135808.14, 44210.72, 86758.05, 22399.04, 81052.85, 129689.33, 99385.66, 0.00, 0.00, 0.00
111, 87168.13, 135809.22, 44208.42, 86752.34, 22392.69, 81053.95, 129699.37, 99384.81, 0.00, 0.00, 0.00
112, 87166.88, 135800.55, 44207.50, 86742.71, 22398.48, 81059.18, 129693.29, 99383.36, 0.00, 0.00, 0.00
113, 87164.78, 135803.20, 44219.59, 86753.69, 22399.31, 81057.05, 129663.47, 99380.79, 0.00, 0.00, 0.00
114, 87157.41, 135801.45, 44217.88, 86757.27, 22378.61, 81045.91, 129669.66, 99371.34, 0.00, 0.00, 0.00
115, 87158.12, 135794.70, 44211.46, 86753.60, 22396.31, 81046.55, 129683.27, 99371.90, 0.00, 0.00, 0.00
116, 87161.25, 135790.11, 44207.57, 86751.23, 22403.85, 81053.91, 129691.99, 99377.20, 0.07, -0.27, 0.96
117, 87165.92, 135795.36, 44215.57, 86758.45, 22400.94, 81055.76, 129672.99, 99380.32, 0.00, 0.00, 0.00
118, 87165.09, 135796.05, 44211.93, 86755.09, 22399.82, 81053.44, 129665.68, 99375.05, 0.00, 0.00, 0.00
119, 87166.62, 135800.34, 44217.00, 86762.52, 22417.64, 81063.70, 129672.88, 99377.95, 0.00, 0.00, 0.00
120, 87162.03, 135799.94, 44220.36, 86763.16, 22409.66, 81052.27, 129677.62, 99375.36, 0.00, 0.00, 0.00
121, 87160.98, 135793.86, 44210.30, 86753.35, 22394.14, 81052.48, 129676.37, 99374.22, 0.00, 0.00, 0.00
122, 87160.55, 135794.78, 44204.93, 86755.70, 22394.97, 81050.40, 129671.36, 99375.20, 0.00, 0.00, 0.00
123, 87160.16, 135795.50, 44203.57, 86769.31, 22410.62, 81055.94, 129672.26, 99376.99, 0.00, 0.00, 0.00
124, 87158.01, 135795.67, 44205.02, 86761.53, 22391.87, 81045.92, 129679.20, 99371.23, 0.00, 0.00, 0.00
125, 87160.58, 135798.05, 44215.13, 86750.70, 22386.79, 81039.48, 129670.20, 99372.81, 0.00, 0.00, 0.00
126, 87163.09, 135793.34, 44214.95, 86744.39, 22392.00, 81047.55, 129662.35, 99377.17, 0.07, -0.27, 0.97
127, 87159.66, 135794.73, 44229.90, 86755.19, 22376.04, 81039.89, 129656.19, 99371.70, 0.00, 0.00, 0.00
128, 87163.15, 135796.52, 44223.06, 86755.05, 22391.64, 81046.87, 129667.47, 99374.35, 0.00, 0.00, 0.00
129, 87167.46, 135792.23, 44208.08, 86743.23, 22381.83, 81039.06, 129677.69, 99371.13, 0.00, 0.00, 0.00
130, 87180.92, 135789.30, 44199.12, 86746.80, 22384.44, 81038.93, 129658.40, 99382.85, 0.00, 0.00, 0.00
131, 87164.65, 135796.36, 44213.27, 86759.09, 22391.71, 81057.52, 129674.67, 99378.63, 0.00, 0.00, 0.00
132, 87147.55, 135793.81, 44223.68, 86761.38, 22394.73, 81059.70, 129677.44, 99366.11, 0.00, 0.00, 0.00
133, 87143.21, 135794.75, 44224.11, 86767.10, 22388.65, 81053.97, 129673.84, 99366.60, 0.00, 0.00, 0.00
134, 87145.41, 135795.84, 44225.47, 86762.30, 22398.44, 81067.49, 129676.91, 99369.51, 0.00, 0.00, 0.00
135, 87150.09, 135790.17, 44221.23, 86755.81, 22396.31, 81057.57, 129685.80, 99376.16, 0.00, 0.00, 0.00
136, 87147.82, 135785.19, 44218.81, 86761.34, 22408.47, 81065.17, 129690.78, 99375.36, 0.08, -0.26, 0.97
137, 87143.08, 135782.44, 44218.07, 86757.87, 22389.61, 81060.79, 129693.18, 99371.74, 0.00, 0.00, 0.00
138, 87147.95, 135784.55, 44219.37, 86760.88, 22396.98, 81062.22, 129686.56, 99373.69, 0.00, 0.00, 0.00
139, 87151.84, 135785.48, 44218.43, 86763.30, 22406.84, 81067.61, 129696.41, 99374.98, 0.00, 0.00, 0.00
140, 87148.84, 135784.08, 44218.36, 86764.89, 22423.07, 81076.73, 129721.27, 99378.73, 0.00, 0.00, 0.00
141, 87142.50, 135784.19, 44213.96, 86757.20, 22407.04, 81068.61, 129696.91, 99378.94, 0.00, 0.00, 0.00
142, 87146.30, 135782.08, 44212.78, 86751.84, 22405.21, 81068.41, 129675.14, 99380.05, 0.00, 0.00, 0.00
143, 87146.16, 135781.02, 44217.52, 86760.02, 22415.65, 81078.60, 129694.27, 99384.75, 0.00, 0.00, 0.00
144, 87147.48, 135780.55, 44219.75, 86774.97, 22412.63, 81080.26, 129701.83, 99381.04, 0.00, 0.00, 0.00
145, 87150.16, 135778.42, 44213.67, 86768.46, 22408.94, 81078.02, 129688.93, 99378.78, 0.00, 0.00, 0.00
146, 87147.75, 135777.09, 44215.91, 86773.52, 22399.55, 81076.16, 129696.75, 99377.17, 0.08, -0.27, 0.97
147, 87142.59, 135777.80, 44213.43, 86769.42, 22391.02, 81077.35, 129695.57, 99368.79, 0.00, 0.00, 0.00
148, 87140.13, 135778.97, 44212.82, 86767.01, 22395.06, 81075.54, 129687.21, 99369.84, 0.00, 0.00, 0.00
149, 87140.17, 135771.11, 44221.65, 86767.59, 22412.27, 81073.55, 129683.79, 99371.96, 0.00, 0.00, 0.00
150, 87144.82, 135767.16, 44212.35, 86766.09, 22422.73, 81082.63, 129703.10, 99377.98, 0.00, 0.00, 0.00
151, 87146.88, 135765.23, 44212.40, 86763.86, 22407.33, 81075.54, 129694.14, 99378.94, 0.00, 0.00, 0.00
152, 87149.13, 135765.52, 44216.13, 86760.39, 22392.54, 81069.64, 129695.41, 99379.77, 0.00, 0.00, 0.00
153, 87154.23, 135767.73, 44226.28, 86767.68, 22402.55, 81077.89, 129682.72, 99381.24, 0.00, 0.00, 0.00
154, 87151.52, 135768.63, 44230.75, 86765.60, 22396.58, 81075.12, 129684.08, 99384.97, 0.00, 0.00, 0.00
155, 87148.87, 135761.89, 44217.09, 86754.25, 22408.27, 81074.16, 129681.42, 99378.76, 0.00, 0.00, 0.00
156, 87151.08, 135755.19, 44215.55, 86752.77, 22399.02, 81070.47, 129676.05, 99379.79, 0.07, -0.26, 0.98
157, 87151.10, 135758.02, 44223.04, 86762.79, 22398.17, 81071.18, 129682.54, 99381.40, 0.00, 0.00, 0.00
158, 87152.17, 135759.94, 44225.03, 86772.17, 22413.97, 81077.11, 129691.14, 99382.42, 0.00, 0.00, 0.00
159, 87143.10, 135757.70, 44219.71, 86767.66, 22401.68, 81072.75, 129686.43, 99372.95, 0.00, 0.00, 0.00
160, 87140.35, 135755.55, 44220.91, 86764.64, 22393.61, 81067.25, 129679.25, 99370.38, 0.00, 0.00, 0.00
161, 87140.71, 135756.73, 44225.56, 86770.61, 22400.02, 81068.91, 129683.74, 99370.96, 0.00, 0.00, 0.00
162, 87137.47, 135753.67, 44219.66, 86766.43, 22402.44, 81067.00, 129677.59, 99368.72, 0.00, 0.00, 0.00
163, 87145.52, 135753.34, 44219.50, 86775.68, 22427.34, 81078.80, 129700.09, 99373.59, 0.00, 0.00, 0.00
164, 87140.33, 135749.98, 44220.31, 86765.80, 22411.36, 81072.28, 129667.65, 99368.99, 0.00, 0.00, 0.00
165, 87144.11, 135749.72, 44231.35, 86764.73, 22400.65, 81071.98, 129682.56, 99368.66, 0.00, 0.00, 0.00
166, 87142.03, 135746.09, 44224.60, 86765.87, 22402.17, 81071.38, 129660.79, 99369.62, 0.08, -0.26, 0.97
167, 87146.66, 135746.05, 44216.22, 86763.48, 22410.93, 81078.72, 129677.58, 99374.11, 0.00, 0.00, 0.00
168, 87150.16, 135748.20, 44221.29, 86765.96, 22409.54, 81079.66, 129687.25, 99378.52, 0.00, 0.00, 0.00
169, 87154.27, 135751.38, 44227.53, 86781.74, 22401.43, 81078.85, 129686.65, 99381.30, 0.00, 0.00, 0.00
170, 87147.05, 135741.30, 44222.59, 86776.24, 22397.23, 81074.89, 129694.14, 99376.79, 0.00, 0.00, 0.00
171, 87138.36, 135737.73, 44219.89, 86759.77, 22389.81, 81066.89, 129683.34, 99369.23, 0.00, 0.00, 0.00
172, 87138.30, 135734.67, 44221.14, 86756.35, 22398.77, 81070.58, 129688.48, 99368.74, 0.00, 0.00, 0.00
173, 87147.95, 135743.23, 44229.14, 86768.64, 22398.62, 81076.01, 129686.56, 99375.61, 0.00, 0.00, 0.00
174, 87147.28, 135744.53, 44228.31, 86768.87, 22399.26, 81077.30, 129672.75, 99374.71, 0.00, 0.00, 0.00
175, 87147.64, 135742.39, 44226.75, 86771.46, 22412.72, 81079.74, 129692.06, 99374.29, 0.00, 0.00, 0.00
176, 87151.55, 135740.03, 44220.31, 86767.95, 22400.34, 81075.20, 129685.45, 99373.55, 0.07, -0.26, 0.97
177, 87146.21, 135741.33, 44220.64, 86768.98, 22392.07, 81073.15, 129672.19, 99373.23, 0.00, 0.00, 0.00
178, 87151.33, 135744.63, 44219.37, 86766.92, 22400.27, 81070.09, 129685.29, 99378.52, 0.00, 0.00, 0.00
179, 87156.98, 135744.80, 44226.25, 86767.19, 22404.81, 81077.59, 129690.85, 99381.62, 0.00, 0.00, 0.00
180, 87156.35, 135741.69, 44227.46, 86764.57, 22395.15, 81071.98, 129682.73, 99378.52, 0.00, 0.00, 0.00
181, 87152.33, 135741.78, 44221.56, 86760.13, 22402.62, 81076.32, 129687.41, 99376.03, 0.00, 0.00, 0.00
182, 87152.87, 135743.23, 44219.13, 86762.63, 22415.02, 81083.59, 129689.40, 99376.84, 0.00, 0.00, 0.00
183, 87149.20, 135744.63, 44227.17, 86779.41, 22398.95, 81071.36, 129688.08, 99373.23, 0.00, 0.00, 0.00
184, 87148.45, 135749.03, 44225.41, 86773.47, 22417.10, 81082.07, 129696.91, 99371.96, 0.00, 0.00, 0.00
185, 87144.66, 135747.13, 44236.40, 86779.26, 22408.76, 81077.46, 129701.34, 99370.53, 0.00, 0.00, 0.00
186, 87141.98, 135736.13, 44230.48, 86771.84, 22395.46, 81071.74, 129684.17, 99368.61, 0.07, -0.27, 0.97
187, 87149.25, 135742.61, 44227.13, 86770.79, 22408.07, 81080.80, 129687.21, 99376.92, 0.00, 0.00, 0.00
188, 87147.23, 135745.06, 44229.21, 86772.27, 22401.63, 81075.74, 129681.76, 99374.84, 0.00, 0.00, 0.00
189, 87152.98, 135747.61, 44235.17, 86771.55, 22401.77, 81075.90, 129689.87, 99374.02, 0.00, 0.00, 0.00
190, 87149.27, 135747.75, 44245.05, 86778.14, 22398.21, 81076.52, 129689.65, 99371.05, 0.00, 0.00, 0.00
191, 87154.45, 135745.52, 44233.96, 86775.57, 22387.80, 81071.88, 129687.79, 99372.57, 0.00, 0.00, 0.00
192, 87156.35, 135744.53, 44233.00, 86763.32, 22388.98, 81070.71, 129701.31, 99372.52, 0.00, 0.00, 0.00
193, 87160.22, 135745.78, 44240.52, 86780.00, 22404.96, 81081.62, 129707.08, 99378.45, 0.00, 0.00, 0.00
194, 87160.09, 135748.17, 44242.95, 86791.82, 22421.79, 81088.53, 129690.77, 99377.77, 0.00, 0.00, 0.00
195, 87158.81, 135749.92, 44238.82, 86787.41, 22418.78, 81094.02, 129690.88, 99381.28, 0.00, 0.00, 0.00
196, 87159.28, 135748.42, 44236.58, 86774.48, 22411.78, 81083.43, 129703.73, 99378.55, 0.07, -0.27, 0.97
197, 87159.26, 135737.47, 44230.95, 86760.59, 22390.50, 81076.95, 129697.76, 99374.02, 0.00, 0.00, 0.00
198, 87162.70, 135737.78, 44234.44, 86777.43, 22395.80, 81076.10, 129684.93, 99375.12, 0.00, 0.00, 0.00
199, 87164.29, 135747.64, 44239.04, 86787.38, 22409.39, 81082.94, 129690.94, 99379.45, 0.00, 0.00, 0.00
200, 87164.52, 135746.41, 44235.35, 86780.45, 22406.21, 81088.30, 129697.22, 99380.61, 0.00, 0.00, 0.00
201, 87158.84, 135734.19, 44231.78, 86768.17, 22397.88, 81081.60, 129692.70, 99374.65, 0.00, 0.00, 0.00
202, 87155.95, 135736.22, 44240.72, 86775.91, 22402.91, 81084.55, 129709.43, 99372.55, 0.00, 0.00, 0.00
203, 87154.43, 135736.86, 44241.05, 86781.38, 22399.24, 81080.80, 129708.63, 99375.27, 0.00, 0.00, 0.00
204, 87155.13, 135738.23, 44236.02, 86774.23, 22407.98, 81084.37, 129693.94, 99379.56, 0.00, 0.00, 0.00
205, 87160.71, 135735.03, 44231.15, 86770.88, 22401.14, 81082.76, 129705.52, 99384.30, 0.00, 0.00, 0.00
206, 87173.12, 135732.70, 44231.64, 86773.89, 22395.06, 81081.69, 129695.41, 99407.86, 0.07, -0.26, 0.97
207, 87156.35, 135732.70, 44232.85, 86779.37, 22402.66, 81084.13, 129688.77, 99380.52, 0.00, 0.00, 0.00
208, 87147.03, 135733.83, 44232.40, 86779.48, 22409.37, 81086.72, 129682.45, 99367.23, 0.00, 0.00, 0.00
209, 87159.82, 135740.53, 44235.26, 86776.80, 22405.41, 81082.90, 129701.94, 99378.24, 0.00, 0.00, 0.00
210, 87167.58, 135739.55, 44238.66, 86780.38, 22403.33, 81081.30, 129699.75, 99383.77, 0.00, 0.00, 0.00
211, 87167.93, 135739.55, 44242.19, 86782.19, 22409.75, 81084.80, 129686.25, 99382.63, 0.00, 0.00, 0.00
212, 87163.17, 135738.19, 44232.25, 86778.88, 22396.22, 81079.09, 129689.89, 99375.14, 0.00, 0.00, 0.00
213, 87165.38, 135734.61, 44239.44, 86774.34, 22399.38, 81079.56, 129710.74, 99379.49, 0.00, 0.00, 0.00
214, 87170.52, 135735.61, 44249.50, 86780.63, 22403.85, 81081.20, 129678.73, 99384.37, 0.00, 0.00, 0.00
215, 87173.56, 135735.19, 44242.89, 86771.93, 22405.86, 81081.13, 129688.48, 99386.67, 0.00, 0.00, 0.00
216, 87170.23, 135729.73, 44235.33, 86770.95, 22419.22, 81085.89, 129686.74, 99378.98, 0.07, -0.26, 0.97
217, 87172.38, 135732.95, 44246.64, 86788.47, 22405.23, 81083.52, 129695.50, 99379.83, 0.00, 0.00, 0.00
218, 87172.45, 135737.95, 44245.99, 86784.94, 22390.43, 81084.03, 129693.51, 99385.66, 0.00, 0.00, 0.00
219, 87177.86, 135731.92, 44239.62, 86777.63, 22397.74, 81081.46, 129689.00, 99388.48, 0.00, 0.00, 0.00
220, 87176.20, 135733.38, 44238.59, 86781.29, 22432.57, 81093.89, 129697.40, 99387.66, 0.00, 0.00, 0.00
221, 87171.80, 135733.59, 44236.98, 86779.59, 22426.18, 81092.26, 129691.63, 99385.82, 0.00, 0.00, 0.00
222, 87167.93, 135732.84, 44239.20, 86780.51, 22413.84, 81087.86, 129681.04, 99386.94, 0.00, 0.00, 0.00
223, 87166.50, 135732.44, 44237.68, 86778.92, 22410.28, 81082.60, 129701.76, 99383.63, 0.00, 0.00, 0.00
224, 87173.05, 135733.48, 44229.25, 86769.27, 22406.19, 81079.79, 129696.69, 99383.72, 0.00, 0.00, 0.00
225, 87175.63, 135731.81, 44238.39, 86773.60, 22408.36, 81086.52, 129696.24, 99386.58, 0.00, 0.00, 0.00
226, 87173.63, 135732.63, 44243.64, 86769.47, 22400.00, 81085.09, 129674.63, 99386.27, 0.07, -0.26, 0.97
227, 87170.03, 135728.75, 44243.62, 86774.27, 22406.26, 81086.67, 129688.26, 99384.30, 0.00, 0.00, 0.00
228, 87164.05, 135728.58, 44243.49, 86784.13, 22418.75, 81089.91, 129707.37, 99379.18, 0.00, 0.00, 0.00
229, 87168.07, 135732.11, 44242.86, 86787.48, 22430.11, 81095.16, 129692.75, 99383.07, 0.00, 0.00, 0.00
230, 87164.83, 135729.72, 44240.89, 86785.14, 22415.71, 81093.63, 129690.09, 99380.23, 0.00, 0.00, 0.00
231, 87165.99, 135725.00, 44238.59, 86784.45, 22413.88, 81091.05, 129699.66, 99385.91, 0.00, 0.00, 0.00
232, 87164.29, 135724.95, 44245.81, 86787.41, 22424.57, 81089.89, 129699.34, 99382.20, 0.00, 0.00, 0.00
233, 87159.75, 135726.30, 44252.07, 86782.63, 22411.15, 81084.15, 129695.92, 99382.00, 0.00, 0.00, 0.00
234, 87162.32, 135728.75, 44255.22, 86783.08, 22418.78, 81089.76, 129700.53, 99384.63, 0.00, 0.00, 0.00
235, 87168.09, 135731.05, 44249.48, 86783.20, 22416.03, 81092.41, 129708.17, 99389.80, 0.00, 0.00, 0.00
236, 87162.52, 135724.80, 44246.57, 86784.49, 22406.60, 81085.80, 129713.54, 99384.66, 0.07, -0.27, 0.97
237, 87163.22, 135723.13, 44245.93, 86784.73, 22425.97, 81087.84, 129684.62, 99380.28, 0.00, 0.00, 0.00
238, 87159.24, 135716.86, 44236.09, 86773.29, 22427.99, 81091.01, 129698.77, 99380.28, 0.00, 0.00, 0.00
239, 87164.16, 135721.27, 44257.41, 86797.59, 22441.22, 81095.92, 129691.66, 99386.16, 0.00, 0.00, 0.00
240, 87160.87, 135721.94, 44256.07, 86795.64, 22436.81, 81090.45, 129705.36, 99383.97, 0.00, 0.00, 0.00
241, 87161.92, 135720.66, 44249.21, 86789.85, 22432.77, 81087.61, 129701.78, 99384.08, 0.00, 0.00, 0.00
242, 87163.89, 135720.64, 44249.43, 86792.58, 22423.63, 81085.82, 129707.08, 99392.57, 0.00, 0.00, 0.00
243, 87171.04, 135723.52, 44250.48, 86784.53, 22412.52, 81085.35, 129706.21, 99393.20, 0.00, 0.00, 0.00
244, 87168.47, 135724.77, 44251.85, 86789.38, 22421.79, 81086.59, 129706.37, 99392.35, 0.00, 0.00, 0.00
245, 87163.66, 135721.95, 44246.17, 86783.66, 22418.80, 81086.47, 129696.41, 99387.30, 0.00, 0.00, 0.00
246, 87155.51, 135717.39, 44247.38, 86779.13, 22414.98, 81078.67, 129700.55, 99379.56, 0.08, -0.27, 0.97
247, 87155.33, 135718.17, 44243.89, 86778.32, 22415.16, 81069.20, 129693.45, 99382.76, 0.00, 0.00, 0.00
248, 87161.25, 135720.77, 44242.77, 86771.81, 22412.27, 81072.99, 129702.67, 99383.05, 0.00, 0.00, 0.00
249, 87163.98, 135718.02, 44245.90, 86771.08, 22403.35, 81077.17, 129707.48, 99389.33, 0.00, 0.00, 0.00
250, 87156.40, 135715.00, 44242.82, 86775.75, 22399.64, 81073.44, 129700.95, 99384.32, 0.00, 0.00, 0.00
251, 87161.77, 135725.55, 44243.29, 86781.02, 22426.38, 81089.51, 129700.59, 99389.15, 0.00, 0.00, 0.00
252, 87175.11, 135724.55, 44243.58, 86784.87, 22426.60, 81099.81, 129711.80, 99402.88, 0.00, 0.00, 0.00
253, 87169.34, 135710.88, 44234.66, 86776.69, 22426.73, 81099.86, 129715.77, 99399.27, 0.00, 0.00, 0.00
254, 87165.38, 135712.36, 44246.73, 86786.88, 22430.15, 81085.60, 129714.81, 99388.19, 0.00, 0.00, 0.00
255, 87156.24, 135707.81, 44245.12, 86776.80, 22412.67, 81071.30, 129696.38, 99377.87, 0.00, 0.00, 0.00
0, 87158.12, 135710.13, 44256.16, 86775.88, 22402.33, 81066.00, 129697.94, 99382.89, 0.07, -0.27, 0.97
1, 87153.00, 135708.64, 44249.88, 86779.39, 22401.54, 81073.66, 129708.38, 99376.19, 0.00, 0.00, 0.00
2, 87157.30, 135710.75, 44247.58, 86783.17, 22417.44, 81084.70, 129702.45, 99381.15, 0.00, 0.00, 0.00
3, 87160.18, 135712.09, 44248.74, 86786.68, 22433.08, 81090.31, 129711.33, 99379.48, 0.00, 0.00, 0.00
4, 87160.70, 135713.11, 44253.28, 86793.38, 22431.83, 81086.00, 129736.83, 99377.88, 0.00, 0.00, 0.00
5, 87155.69, 135711.61, 44250.95, 86787.44, 22423.56, 81075.45, 129699.62, 99375.83, 0.00, 0.00, 0.00
6, 87161.61, 135713.22, 44246.42, 86788.76, 22425.91, 81094.02, 129690.49, 99381.53, 0.00, 0.00, 0.00
7, 87155.35, 135708.25, 44245.90, 86782.34, 22415.09, 81080.03, 129707.86, 99382.63, 0.00, 0.00, 0.00
8, 87158.48, 135706.67, 44243.71, 86775.68, 22410.93, 81079.20, 129720.29, 99384.32, 0.00, 0.00, 0.00
9, 87149.02, 135709.64, 44247.31, 86770.95, 22407.02, 81074.71, 129682.83, 99377.17, 0.00, 0.00, 0.00
10, 87153.54, 135707.22, 44250.93, 86777.74, 22413.86, 81076.13, 129704.22, 99381.64, 0.07, -0.27, 0.97
11, 87155.82, 135698.95, 44244.34, 86779.04, 22412.21, 81075.12, 129704.35, 99381.98, 0.00, 0.00, 0.00
12, 87155.80, 135701.97, 44244.32, 86779.59, 22410.04, 81075.54, 129705.07, 99381.02, 0.00, 0.00, 0.00
13, 87158.57, 135704.52, 44242.55, 86775.95, 22409.23, 81073.55, 129704.69, 99382.09, 0.00, 0.00, 0.00
14, 87164.89, 135709.78, 44239.42, 86770.25, 22415.42, 81080.95, 129733.90, 99388.44, 0.00, 0.00, 0.00
15, 87166.28, 135710.09, 44248.32, 86787.04, 22431.36, 81094.16, 129737.57, 99391.63, 0.00, 0.00, 0.00
16, 87164.52, 135708.30, 44257.04, 86806.51, 22440.35, 81097.00, 129707.66, 99393.29, 0.00, 0.00, 0.00
17, 87161.95, 135705.64, 44252.56, 86792.38, 22435.81, 81094.48, 129697.06, 99387.59, 0.00, 0.00, 0.00
18, 87160.58, 135705.89, 44249.57, 86788.69, 22431.43, 81083.05, 129708.94, 99385.20, 0.00, 0.00, 0.00
19, 87161.88, 135707.94, 44250.60, 86787.30, 22427.90, 81087.41, 129716.96, 99393.27, 0.00, 0.00, 0.00
20, 87163.75, 135708.36, 44252.30, 86790.99, 22431.72, 81099.01, 129716.31, 99395.68, 0.07, -0.27, 0.97
21, 87156.51, 135707.88, 44246.71, 86787.09, 22401.90, 81083.38, 129709.80, 99381.87, 0.00, 0.00, 0.00
22, 87158.84, 135702.31, 44240.52, 86782.43, 22401.79, 81080.88, 129722.01, 99381.41, 0.00, 0.00, 0.00
23, 87170.02, 135699.47, 44242.44, 86785.25, 22440.46, 81095.99, 129714.21, 99393.16, 0.00, 0.00, 0.00
24, 87165.30, 135699.20, 44245.79, 86783.46, 22441.40, 81092.73, 129711.17, 99391.63, 0.00, 0.00, 0.00
25, 87161.32, 135702.39, 44257.14, 86783.98, 22445.22, 81093.69, 129716.63, 99387.54, 0.00, 0.00, 0.00
26, 87156.00, 135700.31, 44255.04, 86784.04, 22436.50, 81084.75, 129714.41, 99385.82, 0.00, 0.00, 0.00
27, 87154.12, 135698.91, 44251.47, 86784.31, 22428.66, 81077.89, 129718.37, 99387.05, 0.00, 0.00, 0.00
28, 87162.93, 135703.66, 44247.31, 86780.09, 22425.84, 81079.30, 129708.94, 99392.99, 0.00, 0.00, 0.00
29, 87165.27, 135704.88, 44250.95, 86787.38, 22426.38, 81075.56, 129701.98, 99393.53, 0.00, 0.00, 0.00
30, 87164.40, 135703.97, 44247.47, 86789.09, 22413.86, 81081.20, 129731.15, 99395.77, 0.08, -0.27, 0.97
31, 87156.80, 135700.66, 44243.82, 86784.83, 22424.59, 81096.02, 129732.52, 99388.59, 0.00, 0.00, 0.00
32, 87156.69, 135696.88, 44245.48, 86786.03, 22429.73, 81095.05, 129702.79, 99386.31, 0.00, 0.00, 0.00
33, 87151.10, 135703.03, 44256.81, 86792.36, 22428.75, 81090.23, 129710.25, 99382.49, 0.00, 0.00, 0.00
34, 87149.60, 135702.70, 44256.18, 86789.63, 22440.19, 81091.59, 129719.77, 99383.09, 0.00, 0.00, 0.00
35, 87153.02, 135701.03, 44255.36, 86801.95, 22433.91, 81098.36, 129736.77, 99386.00, 0.00, 0.00, 0.00
36, 87154.05, 135695.53, 44258.78, 86811.60, 22422.31, 81095.52, 129721.07, 99383.12, 0.00, 0.00, 0.00
37, 87154.01, 135692.98, 44251.87, 86803.69, 22424.74, 81093.65, 129706.54, 99384.30, 0.00, 0.00, 0.00
38, 87155.44, 135695.98, 44251.58, 86798.10, 22444.53, 81101.27, 129716.22, 99383.70, 0.00, 0.00, 0.00
39, 87159.98, 135703.45, 44258.89, 86794.26, 22442.38, 81091.61, 129703.23, 99390.90, 0.00, 0.00, 0.00
40, 87149.98, 135693.66, 44257.75, 86783.51, 22422.13, 81079.23, 129700.44, 99379.90, 0.08, -0.27, 0.97
41, 87156.29, 135691.89, 44251.00, 86778.66, 22417.14, 81076.73, 129706.81, 99390.67, 0.00, 0.00, 0.00
42, 87159.77, 135695.30, 44249.75, 86773.56, 22406.44, 81082.34, 129714.16, 99395.21, 0.00, 0.00, 0.00
43, 87154.95, 135696.98, 44244.76, 86776.09, 22381.99, 81068.57, 129712.55, 99388.44, 0.00, 0.00, 0.00
44, 87154.30, 135695.00, 44243.62, 86788.42, 22424.03, 81081.09, 129714.05, 99391.34, 0.00, 0.00, 0.00
45, 87160.09, 135701.53, 44258.42, 86802.41, 22440.37, 81091.70, 129740.20, 99394.70, 0.00, 0.00, 0.00
46, 87159.66, 135702.11, 44257.04, 86797.43, 22426.31, 81083.66, 129715.28, 99397.80, 0.00, 0.00, 0.00
47, 87156.31, 135700.41, 44263.45, 86791.91, 22424.50, 81074.55, 129705.07, 99390.34, 0.00, 0.00, 0.00
48, 87154.03, 135678.38, 44259.49, 86779.86, 22419.47, 81060.01, 129724.63, 99389.40, 0.00, 0.00, 0.00
49, 87156.16, 135656.08, 44257.55, 86775.77, 22423.22, 81082.02, 129712.04, 99391.90, 0.00, 0.00, 0.00
50, 87157.14, 135655.80, 44259.52, 86788.65, 22428.16, 81091.59, 129707.03, 99388.68, 0.08, -0.27, 0.96
51, 87158.92, 135661.03, 44257.97, 86791.51, 22430.85, 81089.29, 129715.57, 99400.62, 0.00, 0.00, 0.00
52, 87155.22, 135667.11, 44259.71, 86795.48, 22443.45, 81092.48, 129731.15, 99395.37, 0.00, 0.00, 0.00
53, 87147.52, 135668.41, 44257.97, 86792.54, 22429.60, 81088.41, 129729.85, 99386.42, 0.00, 0.00, 0.00
54, 87141.09, 135668.63, 44255.49, 86785.70, 22420.52, 81078.91, 129715.08, 99379.83, 0.00, 0.00, 0.00
55, 87136.95, 135664.41, 44257.88, 86784.69, 22424.19, 81083.07, 129726.01, 99381.13, 0.00, 0.00, 0.00
56, 87139.75, 135664.72, 44255.51, 86784.31, 22419.16, 81082.85, 129709.91, 99381.55, 0.00, 0.00, 0.00
57, 87136.69, 135669.03, 44255.09, 86787.55, 22426.13, 81085.55, 129713.00, 99381.35, 0.00, 0.00, 0.00
58, 87142.43, 135680.78, 44265.59, 86801.39, 22438.00, 81091.84, 129742.53, 99383.81, 0.00, 0.00, 0.00
59, 87138.85, 135677.08, 44261.62, 86800.07, 22426.02, 81081.80, 129732.60, 99379.95, 0.08, -0.27, 0.96
60, 87137.67, 135670.30, 44247.55, 86788.36, 22422.58, 81078.52, 129693.96, 99375.85, 0.00, 0.00, 0.00
61, 87134.34, 135671.78, 44261.26, 86797.79, 22428.81, 81086.34, 129718.16, 99378.49, 0.00, 0.00, 0.00
62, 87128.55, 135675.08, 44269.21, 86789.95, 22409.84, 81073.64, 129695.32, 99366.82, 0.00, 0.00, 0.00
63, 87130.30, 135676.38, 44263.74, 86782.68, 22423.45, 81082.56, 129699.10, 99374.60, 0.00, 0.00, 0.00
64, 87126.23, 135671.03, 44264.28, 86793.20, 22419.65, 81077.62, 129712.17, 99374.80, 0.00, 0.00, 0.00
65, 87126.52, 135674.66, 44269.44, 86795.62, 22405.46, 81070.31, 129716.76, 99369.46, 0.00, 0.00, 0.00
66, 87131.55, 135674.22, 44262.22, 86791.93, 22425.04, 81086.67, 129711.52, 99369.62, 0.00, 0.00, 0.00
67, 87129.13, 135676.73, 44264.07, 86792.91, 22434.06, 81087.34, 129715.69, 99373.20, 0.00, 0.00, 0.00
68, 87121.64, 135675.73, 44255.76, 86782.74, 22411.33, 81070.96, 129710.92, 99364.88, 0.00, 0.00, 0.00
69, 87131.74, 135677.39, 44255.40, 86785.16, 22418.87, 81075.72, 129716.02, 99371.13, 0.08, -0.27, 0.97
70, 87129.31, 135672.30, 44250.89, 86780.89, 22425.53, 81074.09, 129692.91, 99368.97, 0.00, 0.00, 0.00
71, 87130.13, 135671.02, 44246.93, 86779.88, 22417.88, 81075.20, 129693.20, 99370.55, 0.00, 0.00, 0.00
72, 87129.38, 135672.53, 44246.19, 86786.73, 22413.17, 81075.52, 129712.60, 99369.17, 0.00, 0.00, 0.00
73, 87134.00, 135676.41, 44245.07, 86791.91, 22421.21, 81080.41, 129706.74, 99374.13, 0.00, 0.00, 0.00
74, 87128.75, 135681.86, 44241.61, 86791.22, 22421.12, 81080.34, 129713.52, 99370.98, 0.00, 0.00, 0.00
75, 87121.33, 135677.39, 44242.71, 86786.10, 22414.75, 81072.30, 129712.82, 99363.07, 0.00, 0.00, 0.00
76, 87128.37, 135674.64, 44246.77, 86789.79, 22419.56, 81073.77, 129690.13, 99367.13, 0.00, 0.00, 0.00
77, 87127.90, 135669.41, 44241.23, 86787.51, 22416.63, 81076.10, 129695.59, 99368.41, 0.00, 0.00, 0.00
78, 87129.11, 135671.78, 44245.57, 86792.24, 22416.72, 81071.85, 129725.14, 99364.97, 0.00, 0.00, 0.00
79, 87131.66, 135671.02, 44233.36, 86786.81, 22419.83, 81076.28, 129698.09, 99369.39, 0.07, -0.27, 0.97
80, 87126.72, 135670.64, 44235.55, 86783.28, 22412.14, 81073.26, 129714.68, 99367.18, 0.00, 0.00, 0.00
81, 87133.27, 135674.34, 44238.97, 86781.94, 22417.48, 81078.52, 129700.53, 99369.05, 0.00, 0.00, 0.00
82, 87124.55, 135673.52, 44241.41, 86780.24, 22415.31, 81074.83, 129695.16, 99359.96, 0.00, 0.00, 0.00
83, 87121.53, 135678.59, 44251.29, 86798.99, 22416.74, 81072.88, 129700.17, 99362.44, 0.00, 0.00, 0.00
84, 87121.98, 135676.33, 44239.53, 86786.92, 22412.74, 81059.09, 129706.34, 99360.97, 0.00, 0.00, 0.00
85, 87110.63, 135671.16, 44242.21, 86774.50, 22395.87, 81056.84, 129690.63, 99349.70, 0.00, 0.00, 0.00
86, 87118.02, 135679.64, 44251.94, 86777.25, 22396.74, 81060.37, 129683.12, 99356.83, 0.00, 0.00, 0.00
87, 87117.27, 135673.05, 44249.64, 86778.55, 22409.63, 81067.61, 129699.99, 99361.84, 0.00, 0.00, 0.00
88, 87125.24, 135676.67, 44250.39, 86784.76, 22419.65, 81077.51, 129707.52, 99366.64, 0.00, 0.00, 0.00
89, 87128.33, 135678.89, 44241.95, 86780.94, 22418.08, 81079.97, 129727.93, 99367.49, 0.07, -0.27, 0.97
90, 87125.66, 135677.88, 44238.04, 86779.93, 22406.26, 81067.94, 129703.68, 99363.09, 0.00, 0.00, 0.00
91, 87130.09, 135679.80, 44237.14, 86783.08, 22413.70, 81068.50, 129710.48, 99365.26, 0.00, 0.00, 0.00
92, 87133.89, 135679.89, 44232.94, 86776.91, 22414.08, 81073.69, 129706.05, 99372.12, 0.00, 0.00, 0.00
93, 87129.78, 135677.31, 44236.09, 86772.24, 22403.26, 81069.33, 129697.76, 99363.02, 0.00, 0.00, 0.00
94, 87132.22, 135680.31, 44239.87, 86780.73, 22402.73, 81069.87, 129706.59, 99363.70, 0.00, 0.00, 0.00
95, 87133.38, 135679.05, 44231.29, 86778.86, 22409.03, 81071.20, 129718.16, 99364.92, 0.00, 0.00, 0.00
96, 87133.45, 135679.36, 44236.70, 86783.75, 22413.57, 81072.66, 129707.68, 99364.66, 0.00, 0.00, 0.00
97, 87130.13, 135681.08, 44238.30, 86777.00, 22409.59, 81069.39, 129699.66, 99360.95, 0.00, 0.00, 0.00
98, 87131.88, 135683.16, 44234.48, 86771.80, 22408.05, 81071.79, 129708.80, 99361.77, 0.00, 0.00, 0.00
99, 87139.14, 135681.75, 44239.82, 86787.15, 22413.95, 81078.34, 129705.16, 99369.68, 0.07, -0.26, 0.97
100, 87143.91, 135688.25, 44242.66, 86797.54, 22422.73, 81084.68, 129714.86, 99377.26, 0.00, 0.00, 0.00
101, 87142.99, 135682.86, 44237.99, 86805.50, 22429.57, 81087.86, 129719.20, 99372.48, 0.00, 0.00, 0.00
102, 87147.03, 135677.91, 44218.59, 86796.45, 22435.12, 81090.92, 129718.37, 99380.61, 0.00, 0.00, 0.00
103, 87141.07, 135678.30, 44218.10, 86793.90, 22433.80, 81089.47, 129719.87, 99378.83, 0.00, 0.00, 0.00
104, 87126.36, 135681.61, 44255.36, 86802.86, 22421.77, 81076.14, 129707.19, 99362.66, 0.00, 0.00, 0.00
105, 87116.86, 135675.22, 44254.17, 86772.02, 22402.10, 81060.52, 129708.42, 99346.66, 0.00, 0.00, 0.00
106, 87124.95, 135678.84, 44248.88, 86768.75, 22405.46, 81071.00, 129721.98, 99357.88, 0.00, 0.00, 0.00
107, 87125.73, 135682.48, 44242.86, 86773.54, 22408.88, 81064.73, 129695.84, 99361.01, 0.00, 0.00, 0.00
108, 87124.91, 135680.97, 44249.32, 86787.55, 22414.08, 81063.74, 129690.92, 99357.61, 0.00, 0.00, 0.00
109, 87135.48, 135677.28, 44248.36, 86791.80, 22421.28, 81073.24, 129701.76, 99369.21, 0.07, -0.26, 0.96
110, 87143.03, 135682.14, 44243.89, 86791.69, 22414.91, 81075.23, 129702.67, 99370.60, 0.00, 0.00, 0.00
111, 87137.52, 135677.70, 44239.44, 86788.83, 22416.88, 81072.86, 129705.18, 99365.64, 0.00, 0.00, 0.00
112, 87137.91, 135679.64, 44233.43, 86780.63, 22422.69, 81076.13, 129707.03, 99367.27, 0.00, 0.00, 0.00
113, 87143.50, 135684.16, 44233.18, 86778.59, 22424.01, 81078.02, 129728.72, 99374.04, 0.00, 0.00, 0.00
114, 87138.67, 135689.14, 44233.63, 86784.45, 22422.89, 81076.39, 129707.46, 99372.50, 0.00, 0.00, 0.00
115, 87145.96, 135689.17, 44243.38, 86803.87, 22419.51, 81077.30, 129696.84, 99377.51, 0.00, 0.00, 0.00
116, 87160.18, 135683.06, 44236.74, 86797.19, 22425.15, 81084.03, 129713.96, 99399.14, 0.00, 0.00, 0.00
117, 87166.13, 135675.89, 44224.51, 86783.17, 22421.53, 81077.24, 129737.43, 99408.02, 0.00, 0.00, 0.00
118, 87168.56, 135690.55, 44238.26, 86803.22, 22416.56, 81087.88, 129726.48, 99396.64, 0.00, 0.00, 0.00
119, 87159.02, 135694.48, 44241.70, 86804.92, 22419.22, 81085.78, 129716.02, 99382.91, 0.07, -0.25, 0.97
120, 87159.87, 135683.58, 44228.09, 86786.75, 22414.93, 81076.55, 129706.72, 99378.47, 0.00, 0.00, 0.00
121, 87166.75, 135683.64, 44237.99, 86816.16, 22434.42, 81084.46, 129709.65, 99386.49, 0.00, 0.00, 0.00
122, 87164.24, 135683.91, 44242.10, 86791.62, 22409.84, 81075.41, 129708.17, 99387.61, 0.00, 0.00, 0.00
123, 87148.24, 135681.14, 44241.28, 86765.85, 22367.90, 81046.26, 129685.63, 99367.20, 0.00, 0.00, 0.00
124, 87145.98, 135685.34, 44246.93, 86772.60, 22389.65, 81054.69, 129697.42, 99367.54, 0.00, 0.00, 0.00
125, 87144.46, 135686.80, 44244.83, 86774.25, 22403.44, 81065.59, 129708.06, 99369.26, 0.00, 0.00, 0.00
126, 87147.41, 135687.78, 44246.35, 86780.66, 22403.73, 81067.78, 129706.97, 99371.49, 0.00, 0.00, 0.00
127, 87156.13, 135697.80, 44252.99, 86788.78, 22400.45, 81069.75, 129682.54, 99381.38, 0.00, 0.00, 0.00
128, 87159.13, 135696.56, 44258.20, 86797.88, 22402.97, 81062.71, 129691.26, 99381.98, 0.00, 0.00, 0.00
129, 87157.14, 135694.63, 44255.29, 86805.41, 22415.80, 81078.18, 129700.73, 99384.05, 0.07, -0.25, 0.97
130, 87152.42, 135693.92, 44250.62, 86799.63, 22418.29, 81077.51, 129703.03, 99377.87, 0.00, 0.00, 0.00
131, 87156.02, 135694.48, 44242.50, 86795.58, 22417.86, 81064.95, 129706.25, 99376.59, 0.00, 0.00, 0.00
132, 87156.47, 135701.09, 44243.71, 86790.21, 22412.83, 81066.96, 129702.79, 99381.66, 0.00, 0.00, 0.00
133, 87158.79, 135699.30, 44251.11, 86791.64, 22409.17, 81067.25, 129697.06, 99378.55, 0.00, 0.00, 0.00
134, 87159.44, 135694.59, 44256.32, 86809.79, 22408.38, 81073.22, 129697.13, 99382.42, 0.00, 0.00, 0.00
135, 87166.84, 135704.34, 44256.21, 86818.87, 22416.79, 81085.60, 129711.39, 99392.26, 0.00, 0.00, 0.00
136, 87168.02, 135708.67, 44251.82, 86813.41, 22420.86, 81091.88, 129730.15, 99394.83, 0.00, 0.00, 0.00
137, 87164.94, 135707.66, 44245.48, 86799.11, 22429.33, 81086.74, 129739.04, 99389.95, 0.00, 0.00, 0.00
138, 87166.26, 135702.58, 44252.79, 86805.03, 22440.90, 81089.31, 129702.27, 99393.35, 0.00, 0.00, 0.00
139, 87163.15, 135707.69, 44258.29, 86816.34, 22436.32, 81090.59, 129720.87, 99396.17, 0.07, -0.26, 0.97
140, 87151.52, 135699.53, 44256.70, 86794.34, 22413.35, 81074.27, 129703.50, 99382.29, 0.00, 0.00, 0.00
141, 87151.52, 135696.75, 44250.39, 86791.84, 22398.71, 81067.78, 129696.75, 99378.83, 0.00, 0.00, 0.00
142, 87155.91, 135697.28, 44244.36, 86795.24, 22384.06, 81061.75, 129704.13, 99384.91, 0.00, 0.00, 0.00
143, 87165.07, 135707.63, 44242.77, 86803.31, 22389.43, 81073.75, 129719.59, 99396.21, 0.00, 0.00, 0.00
144, 87159.59, 135701.69, 44254.46, 86792.80, 22407.31, 81078.96, 129715.57, 99392.26, 0.00, 0.00, 0.00
145, 87160.87, 135701.95, 44268.10, 86813.73, 22417.12, 81079.23, 129710.23, 99390.91, 0.00, 0.00, 0.00
146, 87170.52, 135702.67, 44260.79, 86811.02, 22414.51, 81085.15, 129723.26, 99400.53, 0.00, 0.00, 0.00
147, 87164.09, 135698.42, 44254.84, 86799.58, 22410.78, 81081.13, 129726.86, 99399.45, 0.00, 0.00, 0.00
148, 87163.22, 135700.03, 44256.81, 86797.32, 22406.15, 81073.93, 129742.93, 99399.61, 0.00, 0.00, 0.00
149, 87163.69, 135701.30, 44258.33, 86801.01, 22403.44, 81074.27, 129707.57, 99396.17, 0.07, -0.26, 0.97
150, 87161.79, 135703.38, 44257.37, 86800.65, 22406.48, 81077.58, 129696.57, 99398.00, 0.00, 0.00, 0.00
151, 87164.16, 135703.00, 44249.88, 86800.31, 22401.65, 81078.05, 129709.36, 99400.64, 0.00, 0.00, 0.00
152, 87168.13, 135695.00, 44242.66, 86796.02, 22407.04, 81085.89, 129713.07, 99405.65, 0.00, 0.00, 0.00
153, 87166.32, 135699.66, 44256.77, 86813.01, 22411.67, 81084.34, 129718.99, 99404.62, 0.00, 0.00, 0.00
154, 87165.01, 135706.16, 44264.57, 86810.69, 22406.66, 81079.19, 129714.95, 99400.20, 0.00, 0.00, 0.00
155, 87163.71, 135702.69, 44248.54, 86795.11, 22400.58, 81075.88, 129711.39, 99396.10, 0.00, 0.00, 0.00
156, 87173.01, 135708.20, 44249.68, 86801.01, 22410.66, 81091.97, 129715.41, 99407.86, 0.00, 0.00, 0.00
157, 87172.11, 135696.30, 44249.99, 86799.29, 22407.49, 81087.77, 129741.91, 99410.23, 0.00, 0.00, 0.00
158, 87168.56, 135701.33, 44265.48, 86809.12, 22405.21, 81077.42, 129727.02, 99405.60, 0.00, 0.00, 0.00
159, 87172.49, 135703.27, 44262.18, 86806.55, 22408.92, 81080.77, 129718.44, 99411.26, 0.07, -0.27, 0.97
160, 87157.12, 135687.73, 44233.34, 86779.37, 22376.53, 81060.27, 129707.64, 99397.63, 0.00, 0.00, 0.00
161, 87158.19, 135693.39, 44241.32, 86781.63, 22381.79, 81069.75, 129726.23, 99401.04, 0.00, 0.00, 0.00
162, 87160.20, 135699.31, 44260.86, 86791.10, 22401.83, 81080.19, 129723.10, 99404.55, 0.00, 0.00, 0.00
163, 87162.26, 135702.42, 44266.40, 86792.85, 22403.82, 81077.42, 129686.52, 99404.41, 0.00, 0.00, 0.00
164, 87175.06, 135702.78, 44266.27, 86810.30, 22417.79, 81089.84, 129720.16, 99416.45, 0.00, 0.00, 0.00
165, 87174.28, 135703.38, 44251.18, 86804.27, 22415.24, 81087.39, 129721.09, 99412.48, 0.00, 0.00, 0.00
166, 87169.63, 135703.27, 44241.32, 86804.31, 22409.17, 81082.65, 129710.70, 99410.23, 0.00, 0.00, 0.00
167, 87175.02, 135697.72, 44249.39, 86808.45, 22407.31, 81090.18, 129718.34, 99414.66, 0.00, 0.00, 0.00
168, 87168.52, 135695.83, 44255.60, 86782.59, 22388.42, 81076.50, 129709.54, 99407.05, 0.00, 0.00, 0.00
169, 87165.79, 135701.19, 44274.54, 86796.07, 22379.42, 81056.61, 129701.34, 99403.88, 0.07, -0.27, 0.97
170, 87164.11, 135704.72, 44264.57, 86800.27, 22386.37, 81074.89, 129707.86, 99401.89, 0.00, 0.00, 0.00
171, 87157.54, 135692.55, 44258.31, 86800.23, 22377.20, 81065.55, 129707.75, 99397.04, 0.00, 0.00, 0.00
172, 87166.59, 135696.39, 44258.42, 86805.97, 22386.32, 81074.89, 129699.44, 99412.20, 0.00, 0.00, 0.00
173, 87179.11, 135703.19, 44263.70, 86810.75, 22402.88, 81082.18, 129717.70, 99419.13, 0.00, 0.00, 0.00
174, 87184.49, 135708.13, 44270.54, 86812.79, 22405.63, 81083.19, 129700.87, 99423.08, 0.00, 0.00, 0.00
175, 87182.44, 135710.38, 44260.79, 86803.73, 22402.21, 81084.82, 129707.98, 99421.72, 0.00, 0.00, 0.00
176, 87177.70, 135708.98, 44256.83, 86804.00, 22398.21, 81081.04, 129710.32, 99418.09, 0.00, 0.00, 0.00
177, 87179.60, 135709.53, 44258.35, 86813.13, 22403.73, 81088.46, 129724.16, 99422.37, 0.00, 0.00, 0.00
178, 87176.80, 135709.02, 44257.01, 86813.34, 22405.12, 81088.13, 129707.70, 99419.30, 0.00, 0.00, 0.00
179, 87177.97, 135699.69, 44267.52, 86812.97, 22412.52, 81091.21, 129712.06, 99422.01, 0.07, -0.26, 0.97
180, 87177.99, 135709.30, 44275.65, 86812.38, 22414.37, 81090.52, 129715.95, 99425.61, 0.00, 0.00, 0.00
181, 87181.95, 135713.53, 44266.60, 86810.46, 22413.70, 81090.52, 129721.79, 99423.98, 0.00, 0.00, 0.00
182, 87188.52, 135710.02, 44265.71, 86817.84, 22414.62, 81094.34, 129731.17, 99431.98, 0.00, 0.00, 0.00
183, 87185.48, 135713.31, 44268.72, 86831.47, 22414.98, 81083.43, 129720.49, 99435.87, 0.00, 0.00, 0.00
184, 87178.13, 135712.44, 44260.72, 86827.05, 22414.46, 81080.23, 129693.84, 99428.05, 0.00, 0.00, 0.00
185, 87176.31, 135711.77, 44261.84, 86824.37, 22416.32, 81083.50, 129698.32, 99423.48, 0.00, 0.00, 0.00
186, 87179.40, 135713.94, 44261.82, 86821.19, 22419.22, 81086.41, 129717.34, 99427.91, 0.00, 0.00, 0.00
187, 87172.65, 135712.39, 44266.53, 86805.63, 22401.34, 81077.51, 129704.06, 99417.45, 0.00, 0.00, 0.00
188, 87164.80, 135715.83, 44273.53, 86794.30, 22389.16, 81066.11, 129692.82, 99407.57, 0.00, 0.00, 0.00
189, 87168.98, 135729.56, 44289.60, 86809.10, 22393.77, 81066.91, 129697.69, 99414.05, 0.07, -0.26, 0.97
190, 87178.48, 135726.00, 44283.10, 86816.77, 22405.81, 81077.27, 129707.23, 99422.95, 0.00, 0.00, 0.00
191, 87185.68, 135720.86, 44281.62, 86825.15, 22411.02, 81082.96, 129706.77, 99430.28, 0.00, 0.00, 0.00
192, 87178.39, 135719.63, 44279.45, 86820.72, 22398.21, 81073.93, 129708.60, 99425.32, 0.00, 0.00, 0.00
193, 87183.98, 135728.86, 44276.99, 86818.30, 22401.34, 81072.14, 129724.45, 99430.15, 0.00, 0.00, 0.00
194, 87191.18, 135730.72, 44281.46, 86833.28, 22427.45, 81094.79, 129712.31, 99440.90, 0.00, 0.00, 0.00
195, 87189.80, 135729.75, 44283.25, 86823.91, 22420.45, 81097.29, 129715.93, 99443.34, 0.00, 0.00, 0.00
196, 87177.48, 135724.55, 44288.13, 86826.48, 22406.06, 81080.84, 129690.94, 99427.06, 0.00, 0.00, 0.00
197, 87182.41, 135720.50, 44282.71, 86839.16, 22396.63, 81080.37, 129718.88, 99435.33, 0.00, 0.00, 0.00
198, 87191.34, 135729.16, 44283.70, 86834.16, 22389.43, 81092.15, 129717.36, 99444.96, 0.00, 0.00, 0.00
199, 87190.53, 135737.09, 44292.95, 86831.95, 22403.58, 81087.45, 129709.18, 99442.15, 0.07, -0.26, 0.97
200, 87192.77, 135740.94, 44298.81, 86830.09, 22440.73, 81095.77, 129719.95, 99445.91, 0.00, 0.00, 0.00
201, 87195.34, 135735.67, 44293.51, 86825.04, 22439.41, 81094.38, 129713.94, 99447.58, 0.00, 0.00, 0.00
202, 87182.88, 135727.75, 44278.98, 86810.69, 22399.00, 81068.19, 129696.87, 99432.47, 0.00, 0.00, 0.00
203, 87187.54, 135725.02, 44275.96, 86805.21, 22394.17, 81067.30, 129703.52, 99436.18, 0.00, 0.00, 0.00
204, 87195.67, 135727.61, 44293.63, 86812.70, 22407.49, 81076.34, 129706.30, 99445.23, 0.00, 0.00, 0.00
205, 87199.90, 135743.17, 44305.02, 86826.87, 22415.96, 81090.16, 129728.27, 99451.91, 0.00, 0.00, 0.00
206, 87200.21, 135739.03, 44309.63, 86834.94, 22410.75, 81092.91, 129738.93, 99454.33, 0.00, 0.00, 0.00
207, 87199.47, 135736.86, 44305.40, 86835.20, 22414.51, 81092.57, 129726.16, 99451.45, 0.00, 0.00, 0.00
208, 87192.54, 135732.14, 44296.04, 86822.78, 22412.07, 81086.34, 129718.86, 99443.87, 0.00, 0.00, 0.00
209, 87195.45, 135737.20, 44298.88, 86824.55, 22436.26, 81100.82, 129734.39, 99445.55, 0.07, -0.25, 0.97
210, 87200.08, 135743.28, 44307.32, 86851.70, 22438.16, 81104.30, 129700.77, 99450.44, 0.00, 0.00, 0.00
211, 87200.81, 135740.28, 44308.49, 86846.60, 22431.67, 81112.20, 129716.06, 99452.36, 0.00, 0.00, 0.00
212, 87208.52, 135736.55, 44315.42, 86842.18, 22425.93, 81105.63, 129732.60, 99457.62, 0.00, 0.00, 0.00
213, 87216.19, 135751.27, 44317.09, 86851.63, 22431.54, 81115.69, 129737.63, 99467.47, 0.00, 0.00, 0.00
214, 87218.20, 135748.64, 44317.23, 86866.95, 22429.08, 81119.91, 129737.97, 99471.61, 0.00, 0.00, 0.00
215, 87222.74, 135740.31, 44299.21, 86848.68, 22442.40, 81129.27, 129760.99, 99477.62, 0.00, 0.00, 0.00
216, 87215.16, 135737.63, 44297.38, 86850.29, 22442.71, 81122.23, 129748.61, 99469.35, 0.00, 0.00, 0.00
217, 87202.96, 135730.11, 44304.75, 86842.25, 22421.97, 81106.12, 129715.75, 99458.58, 0.00, 0.00, 0.00
218, 87205.87, 135737.42, 44310.23, 86834.24, 22407.60, 81099.97, 129729.79, 99458.91, 0.00, 0.00, 0.00
219, 87203.34, 135735.88, 44317.50, 86821.34, 22403.51, 81092.66, 129726.57, 99453.21, 0.07, -0.26, 0.96
220, 87213.24, 135739.25, 44320.91, 86830.34, 22416.47, 81104.11, 129741.30, 99464.84, 0.00, 0.00, 0.00
221, 87214.11, 135744.36, 44318.21, 86836.99, 22414.06, 81103.80, 129714.81, 99464.95, 0.00, 0.00, 0.00
222, 87217.53, 135739.88, 44315.86, 86840.39, 22420.32, 81106.45, 129723.40, 99469.71, 0.00, 0.00, 0.00
223, 87218.70, 135739.53, 44310.57, 86838.73, 22419.18, 81098.92, 129729.50, 99473.66, 0.00, 0.00, 0.00
224, 87219.09, 135742.83, 44315.28, 86844.77, 22422.82, 81110.84, 129728.49, 99473.48, 0.00, 0.00, 0.00
225, 87215.14, 135741.09, 44310.63, 86847.25, 22422.89, 81118.41, 129737.37, 99471.16, 0.00, 0.00, 0.00
226, 87218.54, 135740.70, 44304.75, 86835.49, 22420.97, 81113.74, 129741.05, 99473.71, 0.00, 0.00, 0.00
227, 87214.78, 135741.16, 44311.06, 86841.58, 22419.83, 81103.62, 129726.10, 99467.31, 0.00, 0.00, 0.00
228, 87217.58, 135739.64, 44308.49, 86840.88, 22418.87, 81109.43, 129726.15, 99470.20, 0.00, 0.00, 0.00
229, 87221.51, 135734.30, 44313.14, 86841.13, 22414.15, 81115.10, 129735.31, 99475.61, 0.07, -0.26, 0.96
