%OpenBCI Raw EEG Data
%Sample Rate = 250.0 Hz
%First Column = SampleIndex
%Other Columns = EEG data in microvolts followed by Accel Data (in G) interleaved with Aux Data
14, 87588.02, 137352.67, 60314.97, 92415.66, 28581.60, 90449.41, 133093.39, 99109.46, 0.00, 0.00, 0.00
15, 87608.58, 137353.28, 60326.35, 92433.24, 28597.54, 90462.38, 133111.58, 99133.31, 0.00, 0.00, 0.00
16, 87594.02, 137349.08, 60315.33, 92419.07, 28581.76, 90446.64, 133092.67, 99116.75, 0.00, 0.00, 0.00
17, 87585.64, 137342.48, 60312.45, 92415.95, 28564.93, 90428.72, 133074.59, 99097.88, 0.00, 0.00, 0.00
18, 87583.01, 137340.58, 60304.58, 92409.24, 28562.62, 90430.30, 133079.13, 99095.36, 0.00, 0.00, 0.00
19, 87590.76, 137347.78, 60311.02, 92411.30, 28582.52, 90447.67, 133094.03, 99109.73, 0.00, 0.00, 0.00
20, 87584.75, 137349.67, 60307.39, 92388.36, 28566.89, 90431.18, 133074.41, 99097.28, 0.07, -0.27, 0.97
21, 87600.33, 137343.59, 60309.54, 92393.48, 28553.01, 90423.13, 133068.22, 99104.95, 0.00, 0.00, 0.00
22, 87597.22, 137351.23, 60316.56, 92401.13, 28568.93, 90423.51, 133073.59, 99113.58, 0.00, 0.00, 0.00
23, 87580.52, 137356.05, 60321.01, 92407.30, 28575.47, 90447.85, 133096.88, 99115.37, 0.00, 0.00, 0.00
24, 87579.90, 137356.63, 60316.00, 92402.17, 28557.77, 90445.73, 133102.20, 99120.57, 0.00, 0.00, 0.00
25, 87575.23, 137344.25, 60316.89, 92410.16, 28586.90, 90443.85, 133089.03, 99108.66, 0.00, 0.00, 0.00
26, 87580.48, 137348.20, 60317.70, 92416.66, 28587.95, 90446.69, 133085.83, 99109.98, 0.00, 0.00, 0.00
27, 87579.23, 137351.16, 60313.59, 92413.82, 28589.76, 90446.84, 133088.56, 99109.48, 0.00, 0.00, 0.00
28, 87581.80, 137351.67, 60314.91, 92416.93, 28583.77, 90444.88, 133093.13, 99114.85, 0.00, 0.00, 0.00
29, 87572.05, 137330.75, 60300.45, 92402.73, 28549.95, 90418.01, 133068.31, 99096.61, 0.00, 0.00, 0.00
30, 87584.10, 137338.64, 60305.52, 92403.63, 28547.04, 90423.84, 133075.16, 99103.88, 0.07, -0.26, 0.96
31, 87587.34, 137348.17, 60310.61, 92415.90, 28559.63, 90425.27, 133076.00, 99106.60, 0.00, 0.00, 0.00
32, 87585.89, 137358.23, 60315.91, 92412.26, 28583.66, 90436.41, 133073.55, 99110.13, 0.00, 0.00, 0.00
33, 87572.90, 137350.19, 60311.64, 92402.31, 28575.83, 90430.70, 133068.05, 99105.93, 0.00, 0.00, 0.00
34, 87585.04, 137328.23, 60314.41, 92413.38, 28580.97, 90441.64, 133094.33, 99117.58, 0.00, 0.00, 0.00
35, 87584.03, 137331.39, 60316.43, 92419.07, 28606.12, 90443.11, 133089.17, 99112.80, 0.00, 0.00, 0.00
36, 87572.01, 137331.45, 60311.55, 92404.37, 28584.44, 90432.00, 133065.34, 99102.54, 0.00, 0.00, 0.00
37, 87577.41, 137337.39, 60311.84, 92405.57, 28578.65, 90432.77, 133067.00, 99105.30, 0.00, 0.00, 0.00
38, 87577.33, 137335.34, 60301.41, 92395.02, 28559.94, 90417.38, 133053.22, 99097.15, 0.00, 0.00, 0.00
39, 87570.73, 137333.50, 60296.42, 92388.83, 28543.60, 90410.30, 133062.59, 99100.61, 0.00, 0.00, 0.00
40, 87570.31, 137337.41, 60301.99, 92396.48, 28556.23, 90422.73, 133065.50, 99103.36, 0.07, -0.27, 0.96
41, 87575.67, 137348.84, 60312.49, 92409.24, 28572.93, 90433.63, 133061.06, 99104.21, 0.00, 0.00, 0.00
42, 87570.13, 137328.84, 60310.61, 92401.68, 28583.83, 90428.90, 133057.34, 99097.44, 0.00, 0.00, 0.00
43, 87576.88, 137332.22, 60309.52, 92397.28, 28580.68, 90432.83, 133066.95, 99103.36, 0.00, 0.00, 0.00
44, 87576.23, 137336.63, 60307.93, 92399.16, 28567.67, 90426.73, 133061.06, 99103.18, 0.00, 0.00, 0.00
45, 87573.20, 137328.75, 60294.45, 92381.12, 28545.81, 90409.31, 133040.03, 99095.92, 0.00, 0.00, 0.00
46, 87578.22, 137333.83, 60315.20, 92411.41, 28547.42, 90412.55, 133051.59, 99102.98, 0.00, 0.00, 0.00
47, 87567.63, 137334.55, 60310.91, 92411.02, 28545.99, 90412.67, 133053.77, 99096.99, 0.00, 0.00, 0.00
48, 87562.09, 137341.58, 60303.84, 92405.82, 28539.91, 90406.84, 133045.53, 99087.58, 0.00, 0.00, 0.00
49, 87564.97, 137325.63, 60295.24, 92384.43, 28541.03, 90403.86, 133044.58, 99090.29, 0.00, 0.00, 0.00
50, 87571.02, 137321.00, 60303.21, 92389.68, 28543.13, 90413.54, 133050.56, 99095.56, 0.06, -0.27, 0.97
51, 87577.48, 137332.67, 60311.55, 92403.83, 28572.64, 90428.96, 133063.78, 99106.76, 0.00, 0.00, 0.00
52, 87579.81, 137343.95, 60313.70, 92408.45, 28587.46, 90439.85, 133073.72, 99114.41, 0.00, 0.00, 0.00
53, 87570.38, 137331.45, 60304.40, 92399.36, 28579.74, 90430.38, 133059.48, 99100.93, 0.00, 0.00, 0.00
54, 87556.61, 137323.97, 60298.48, 92389.32, 28569.17, 90418.01, 133046.30, 99077.26, 0.00, 0.00, 0.00
55, 87566.04, 137331.30, 60303.73, 92399.34, 28559.09, 90423.60, 133057.00, 99090.73, 0.00, 0.00, 0.00
56, 87571.72, 137333.31, 60310.21, 92406.78, 28562.15, 90430.33, 133061.11, 99094.65, 0.00, 0.00, 0.00
57, 87573.46, 137328.67, 60298.84, 92391.36, 28575.65, 90426.17, 133045.20, 99087.88, 0.00, 0.00, 0.00
58, 87584.34, 137338.45, 60302.57, 92398.42, 28579.01, 90436.01, 133064.47, 99108.10, 0.00, 0.00, 0.00
59, 87582.70, 137351.47, 60312.22, 92409.80, 28582.72, 90447.67, 133073.55, 99111.74, 0.00, 0.00, 0.00
60, 87573.41, 137324.16, 60301.38, 92399.18, 28580.35, 90442.80, 133060.91, 99100.41, 0.07, -0.27, 0.97
61, 87573.30, 137322.16, 60308.87, 92406.63, 28584.04, 90443.27, 133062.83, 99098.83, 0.00, 0.00, 0.00
62, 87572.99, 137327.73, 60315.87, 92416.88, 28569.06, 90436.63, 133064.59, 99105.84, 0.00, 0.00, 0.00
63, 87555.20, 137319.34, 60298.84, 92396.70, 28555.00, 90426.30, 133051.84, 99088.90, 0.00, 0.00, 0.00
64, 87551.91, 137317.56, 60294.01, 92392.70, 28554.15, 90420.29, 133041.09, 99077.44, 0.00, 0.00, 0.00
65, 87568.84, 137322.52, 60301.27, 92401.17, 28572.41, 90430.13, 133046.77, 99095.25, 0.00, 0.00, 0.00
66, 87581.10, 137327.91, 60308.00, 92410.85, 28571.05, 90438.91, 133062.30, 99112.91, 0.00, 0.00, 0.00
67, 87566.47, 137327.23, 60305.54, 92402.89, 28559.02, 90429.48, 133053.31, 99096.59, 0.00, 0.00, 0.00
68, 87557.32, 137324.11, 60295.15, 92386.59, 28552.99, 90422.64, 133044.38, 99080.12, 0.00, 0.00, 0.00
69, 87567.85, 137322.66, 60297.79, 92387.98, 28546.39, 90423.53, 133046.98, 99090.95, 0.00, 0.00, 0.00
70, 87569.51, 137320.95, 60297.54, 92381.21, 28554.42, 90425.61, 133045.41, 99092.12, 0.07, -0.27, 0.97
71, 87565.37, 137312.70, 60295.91, 92382.30, 28565.15, 90424.54, 133051.73, 99092.74, 0.00, 0.00, 0.00
72, 87568.86, 137317.69, 60303.95, 92404.21, 28561.04, 90428.36, 133057.34, 99099.54, 0.00, 0.00, 0.00
73, 87562.27, 137313.38, 60295.08, 92383.38, 28531.29, 90404.06, 133019.89, 99080.12, 0.00, 0.00, 0.00
74, 87553.12, 137308.06, 60286.77, 92370.30, 28506.21, 90388.17, 133010.72, 99068.70, 0.00, 0.00, 0.00
75, 87563.29, 137316.58, 60295.53, 92377.81, 28549.90, 90427.13, 133041.92, 99086.24, 0.00, 0.00, 0.00
76, 87580.50, 137327.75, 60301.83, 92391.65, 28568.57, 90438.89, 133053.53, 99100.16, 0.00, 0.00, 0.00
77, 87583.19, 137321.61, 60308.22, 92399.80, 28544.79, 90422.73, 133046.41, 99096.95, 0.00, 0.00, 0.00
78, 87584.37, 137337.11, 60310.44, 92401.88, 28548.68, 90432.38, 133065.42, 99108.19, 0.00, 0.00, 0.00
79, 87582.42, 137321.98, 60307.20, 92395.70, 28563.58, 90438.28, 133064.73, 99105.02, 0.00, 0.00, 0.00
80, 87569.70, 137299.61, 60287.88, 92380.56, 28531.26, 90407.80, 133035.64, 99084.85, 0.07, -0.27, 0.97
81, 87564.70, 137302.16, 60282.30, 92368.88, 28530.75, 90395.66, 133018.64, 99077.86, 0.00, 0.00, 0.00
82, 87574.87, 137313.22, 60295.48, 92375.71, 28525.92, 90410.92, 133029.95, 99081.68, 0.00, 0.00, 0.00
83, 87589.17, 137321.61, 60307.02, 92389.21, 28553.23, 90425.50, 133047.97, 99096.52, 0.00, 0.00, 0.00
84, 87577.40, 137316.80, 60302.64, 92382.93, 28543.71, 90415.10, 133034.77, 99088.50, 0.00, 0.00, 0.00
85, 87579.23, 137322.27, 60303.75, 92388.79, 28531.35, 90408.89, 133032.45, 99092.41, 0.00, 0.00, 0.00
86, 87594.13, 137338.48, 60303.77, 92389.70, 28562.53, 90425.23, 133039.19, 99103.07, 0.00, 0.00, 0.00
87, 87581.82, 137328.36, 60301.52, 92378.98, 28542.60, 90413.05, 133027.72, 99085.97, 0.00, 0.00, 0.00
88, 87574.83, 137320.53, 60302.08, 92384.65, 28555.13, 90425.68, 133037.56, 99082.62, 0.00, 0.00, 0.00
89, 87576.10, 137306.14, 60297.94, 92383.47, 28558.49, 90428.29, 133039.80, 99086.30, 0.00, 0.00, 0.00
90, 87565.46, 137309.84, 60296.13, 92382.73, 28541.19, 90411.73, 133023.88, 99071.38, 0.08, -0.27, 0.97
91, 87573.51, 137312.06, 60303.84, 92392.92, 28542.75, 90417.59, 133026.31, 99078.15, 0.00, 0.00, 0.00
92, 87583.84, 137313.48, 60312.25, 92398.80, 28548.63, 90426.28, 133034.45, 99088.27, 0.00, 0.00, 0.00
93, 87582.98, 137311.81, 60308.27, 92387.71, 28540.79, 90424.13, 133040.58, 99089.26, 0.00, 0.00, 0.00
94, 87592.26, 137318.09, 60303.93, 92382.23, 28536.76, 90423.78, 133044.69, 99095.85, 0.00, 0.00, 0.00
95, 87586.96, 137319.25, 60303.75, 92387.85, 28524.04, 90403.51, 133022.89, 99084.90, 0.00, 0.00, 0.00
96, 87570.29, 137313.89, 60299.89, 92384.12, 28510.41, 90392.95, 133019.92, 99068.25, 0.00, 0.00, 0.00
97, 87561.99, 137306.38, 60293.54, 92371.84, 28507.48, 90393.34, 133010.38, 99058.93, 0.00, 0.00, 0.00
98, 87571.13, 137316.81, 60303.75, 92382.93, 28520.56, 90403.33, 133015.36, 99071.65, 0.00, 0.00, 0.00
99, 87582.24, 137313.44, 60311.04, 92391.55, 28532.76, 90419.55, 133029.73, 99084.50, 0.00, 0.00, 0.00
100, 87574.34, 137312.66, 60304.78, 92386.28, 28538.39, 90409.20, 133015.73, 99068.23, 0.07, -0.27, 0.98
101, 87579.56, 137304.28, 60298.54, 92383.02, 28549.14, 90418.55, 133026.92, 99077.01, 0.00, 0.00, 0.00
102, 87585.66, 137302.47, 60303.24, 92396.99, 28544.16, 90427.13, 133041.31, 99088.81, 0.00, 0.00, 0.00
103, 87587.74, 137313.28, 60307.98, 92400.09, 28535.71, 90421.88, 133035.09, 99087.78, 0.00, 0.00, 0.00
104, 87579.56, 137316.06, 60299.75, 92390.28, 28535.17, 90414.73, 133022.61, 99075.84, 0.00, 0.00, 0.00
105, 87576.05, 137310.86, 60297.18, 92384.09, 28538.59, 90417.59, 133021.47, 99071.27, 0.00, 0.00, 0.00
106, 87580.63, 137298.83, 60296.09, 92370.81, 28533.65, 90415.89, 133022.48, 99077.73, 0.00, 0.00, 0.00
107, 87573.64, 137291.72, 60296.87, 92364.53, 28509.49, 90395.50, 133010.95, 99067.31, 0.00, 0.00, 0.00
108, 87565.62, 137288.50, 60285.18, 92359.17, 28481.64, 90377.47, 133004.63, 99056.31, 0.00, 0.00, 0.00
109, 87582.11, 137296.75, 60292.38, 92371.20, 28526.12, 90402.84, 133021.91, 99070.70, 0.00, 0.00, 0.00
110, 87603.95, 137310.58, 60309.63, 92391.70, 28555.54, 90432.23, 133045.47, 99102.29, 0.07, -0.27, 0.97
111, 87587.74, 137306.38, 60308.07, 92386.33, 28541.41, 90419.58, 133030.30, 99087.70, 0.00, 0.00, 0.00
112, 87569.73, 137296.66, 60295.37, 92374.59, 28528.83, 90407.66, 133015.03, 99067.71, 0.00, 0.00, 0.00
113, 87581.44, 137299.56, 60290.27, 92370.46, 28529.38, 90409.14, 133018.89, 99074.98, 0.00, 0.00, 0.00
114, 87594.12, 137307.80, 60295.39, 92378.08, 28530.91, 90415.10, 133026.69, 99091.07, 0.00, 0.00, 0.00
115, 87597.67, 137313.00, 60304.87, 92389.13, 28537.43, 90423.60, 133045.92, 99097.26, 0.00, 0.00, 0.00
116, 87581.24, 137305.48, 60295.95, 92377.16, 28524.40, 90411.98, 133037.94, 99079.96, 0.00, 0.00, 0.00
117, 87576.99, 137295.66, 60290.90, 92372.85, 28512.89, 90400.82, 133018.11, 99068.20, 0.00, 0.00, 0.00
118, 87583.43, 137297.11, 60289.56, 92371.22, 28512.69, 90406.09, 133017.70, 99070.15, 0.00, 0.00, 0.00
119, 87586.18, 137301.11, 60289.61, 92376.13, 28503.30, 90400.48, 133015.77, 99072.95, 0.00, 0.00, 0.00
120, 87598.85, 137314.31, 60303.21, 92390.69, 28521.90, 90420.98, 133035.83, 99088.12, 0.07, -0.27, 0.97
121, 87584.55, 137303.28, 60298.03, 92374.70, 28520.91, 90417.92, 133032.69, 99074.80, 0.00, 0.00, 0.00
123, 87587.54, 137303.05, 60303.02, 92385.39, 28504.17, 90404.84, 133019.56, 99074.28, 0.00, 0.00, 0.00
124, 87582.11, 137304.02, 60297.36, 92377.90, 28509.96, 90407.39, 133026.16, 99073.41, 0.00, 0.00, 0.00
125, 87579.67, 137297.42, 60298.93, 92379.00, 28527.91, 90412.65, 133029.16, 99072.05, 0.00, 0.00, 0.00
126, 87579.79, 137298.88, 60293.96, 92377.39, 28536.38, 90409.63, 133020.80, 99062.84, 0.00, 0.00, 0.00
127, 87591.21, 137304.66, 60302.28, 92383.13, 28533.81, 90416.11, 133026.58, 99070.21, 0.00, 0.00, 0.00
128, 87604.04, 137305.52, 60299.04, 92375.11, 28528.83, 90419.80, 133035.72, 99081.86, 0.00, 0.00, 0.00
129, 87586.29, 137296.44, 60294.84, 92379.84, 28507.10, 90400.13, 133015.06, 99060.09, 0.00, 0.00, 0.00
130, 87591.79, 137302.16, 60300.22, 92389.77, 28521.47, 90413.61, 133024.25, 99067.51, 0.07, -0.26, 0.97
131, 87592.80, 137315.72, 60306.70, 92390.55, 28521.07, 90415.33, 133033.36, 99077.19, 0.00, 0.00, 0.00
132, 87582.38, 137302.05, 60307.15, 92390.59, 28522.57, 90423.84, 133044.80, 99072.49, 0.00, 0.00, 0.00
133, 87588.30, 137299.19, 60305.07, 92387.65, 28526.03, 90424.38, 133038.89, 99072.95, 0.00, 0.00, 0.00
134, 87586.70, 137296.33, 60288.55, 92368.78, 28504.69, 90401.60, 133017.22, 99064.72, 0.00, 0.00, 0.00
135, 87579.41, 137297.13, 60289.45, 92370.44, 28503.57, 90389.73, 133006.20, 99055.55, 0.00, 0.00, 0.00
136, 87592.28, 137304.91, 60292.75, 92379.40, 28513.70, 90406.12, 133021.66, 99074.17, 0.00, 0.00, 0.00
137, 87592.98, 137308.61, 60299.71, 92385.03, 28522.95, 90414.95, 133028.75, 99080.25, 0.00, 0.00, 0.00
138, 87583.27, 137316.02, 60302.64, 92390.87, 28521.67, 90414.16, 133028.59, 99071.82, 0.00, 0.00, 0.00
139, 87584.77, 137303.81, 60297.50, 92383.24, 28509.38, 90402.72, 133020.30, 99071.11, 0.00, 0.00, 0.00
140, 87584.39, 137297.42, 60308.16, 92387.34, 28509.22, 90406.73, 133023.00, 99073.39, 0.07, -0.26, 0.97
141, 87587.07, 137304.53, 60303.33, 92387.09, 28516.22, 90411.08, 133033.31, 99079.34, 0.00, 0.00, 0.00
142, 87586.16, 137304.45, 60295.82, 92378.91, 28504.62, 90405.23, 133028.84, 99079.60, 0.00, 0.00, 0.00
143, 87597.02, 137304.80, 60295.46, 92373.86, 28487.61, 90398.77, 133022.58, 99081.93, 0.00, 0.00, 0.00
144, 87596.33, 137304.33, 60302.81, 92388.97, 28508.24, 90402.81, 133019.16, 99077.16, 0.00, 0.00, 0.00
145, 87592.52, 137304.06, 60297.16, 92382.15, 28514.50, 90395.93, 133017.47, 99074.20, 0.00, 0.00, 0.00
146, 87588.68, 137306.30, 60303.62, 92385.75, 28503.88, 90398.01, 133023.30, 99072.77, 0.00, 0.00, 0.00
147, 87588.73, 137310.14, 60301.56, 92375.91, 28498.88, 90404.71, 133033.02, 99073.70, 0.00, 0.00, 0.00
148, 87593.00, 137302.48, 60295.68, 92371.15, 28506.59, 90405.72, 133030.78, 99077.55, 0.00, 0.00, 0.00
149, 87593.20, 137304.14, 60297.14, 92383.55, 28506.05, 90396.84, 133022.47, 99073.37, 0.00, 0.00, 0.00
150, 87591.66, 137304.44, 60297.36, 92388.90, 28496.73, 90395.70, 133019.63, 99074.41, 0.06, -0.27, 0.97
151, 87593.00, 137307.09, 60303.20, 92390.66, 28512.02, 90407.30, 133029.55, 99081.37, 0.00, 0.00, 0.00
152, 87585.38, 137302.77, 60297.41, 92379.55, 28498.74, 90399.84, 133032.91, 99074.06, 0.00, 0.00, 0.00
153, 87588.91, 137302.67, 60304.13, 92386.59, 28513.63, 90410.19, 133037.44, 99074.22, 0.00, 0.00, 0.00
154, 87589.95, 137304.55, 60301.29, 92386.89, 28525.52, 90408.06, 133023.27, 99070.33, 0.00, 0.00, 0.00
155, 87590.67, 137306.72, 60296.64, 92382.55, 28513.87, 90400.80, 133017.89, 99070.70, 0.00, 0.00, 0.00
156, 87588.68, 137307.28, 60298.81, 92396.16, 28504.91, 90397.72, 133018.20, 99064.85, 0.00, 0.00, 0.00
157, 87600.46, 137305.69, 60301.29, 92398.20, 28514.07, 90409.36, 133033.95, 99080.36, 0.00, 0.00, 0.00
158, 87592.44, 137304.34, 60299.21, 92392.45, 28506.88, 90402.52, 133030.97, 99073.99, 0.00, 0.00, 0.00
159, 87584.59, 137300.02, 60293.89, 92382.08, 28493.64, 90390.54, 133018.77, 99062.33, 0.00, 0.00, 0.00
160, 87578.73, 137294.42, 60293.76, 92367.71, 28476.59, 90384.20, 133012.75, 99058.44, 0.07, -0.27, 0.96
161, 87584.84, 137293.00, 60292.02, 92364.60, 28482.00, 90385.45, 133015.16, 99063.95, 0.00, 0.00, 0.00
162, 87579.23, 137292.30, 60288.20, 92367.84, 28478.69, 90385.60, 133015.88, 99055.98, 0.00, 0.00, 0.00
163, 87585.28, 137300.39, 60296.98, 92378.77, 28488.82, 90397.91, 133022.58, 99064.78, 0.00, 0.00, 0.00
164, 87587.56, 137300.41, 60295.66, 92379.09, 28505.27, 90399.50, 133021.80, 99066.51, 0.00, 0.00, 0.00
165, 87592.28, 137302.61, 60302.86, 92382.39, 28509.43, 90406.86, 133030.11, 99071.84, 0.00, 0.00, 0.00
166, 87584.41, 137295.73, 60295.08, 92376.36, 28496.89, 90397.07, 133021.86, 99066.30, 0.00, 0.00, 0.00
167, 87582.40, 137293.81, 60286.39, 92365.01, 28486.04, 90389.11, 133018.69, 99063.64, 0.00, 0.00, 0.00
168, 87596.91, 137298.67, 60288.64, 92368.60, 28483.90, 90393.83, 133031.31, 99083.49, 0.00, 0.00, 0.00
169, 87597.16, 137298.63, 60295.55, 92377.68, 28497.76, 90399.41, 133029.95, 99083.20, 0.00, 0.00, 0.00
170, 87592.04, 137296.64, 60299.73, 92386.75, 28491.77, 90391.70, 133023.55, 99073.61, 0.07, -0.27, 0.96
171, 87591.55, 137293.63, 60298.43, 92383.91, 28499.01, 90395.80, 133024.72, 99068.36, 0.00, 0.00, 0.00
172, 87582.80, 137285.61, 60286.65, 92366.66, 28491.61, 90391.59, 133015.27, 99057.14, 0.00, 0.00, 0.00
173, 87580.52, 137287.34, 60295.08, 92376.47, 28484.08, 90390.61, 133019.30, 99055.20, 0.00, 0.00, 0.00
174, 87592.75, 137295.50, 60309.56, 92396.59, 28514.01, 90415.58, 133041.69, 99071.45, 0.00, 0.00, 0.00
175, 87590.98, 137294.28, 60305.45, 92392.23, 28516.82, 90409.27, 133033.53, 99070.93, 0.00, 0.00, 0.00
176, 87581.93, 137287.30, 60294.12, 92376.54, 28501.11, 90395.10, 133010.33, 99055.84, 0.00, 0.00, 0.00
177, 87580.59, 137289.17, 60297.76, 92373.25, 28498.14, 90392.09, 133008.41, 99053.34, 0.00, 0.00, 0.00
178, 87574.34, 137285.27, 60291.95, 92368.23, 28495.10, 90389.89, 133009.86, 99049.88, 0.00, 0.00, 0.00
179, 87574.20, 137280.59, 60295.30, 92378.86, 28479.56, 90390.66, 133014.36, 99054.19, 0.00, 0.00, 0.00
180, 87573.26, 137274.47, 60291.32, 92373.48, 28483.41, 90388.26, 133013.95, 99048.94, 0.07, -0.27, 0.96
181, 87562.66, 137268.73, 60282.47, 92357.78, 28498.43, 90388.09, 133010.13, 99035.57, 0.00, 0.00, 0.00
182, 87576.19, 137277.30, 60288.42, 92368.83, 28499.61, 90397.49, 133021.66, 99048.55, 0.00, 0.00, 0.00
183, 87590.70, 137287.97, 60299.68, 92386.53, 28491.30, 90404.20, 133036.69, 99065.74, 0.00, 0.00, 0.00
184, 87569.69, 137277.91, 60295.53, 92381.16, 28464.07, 90385.31, 133023.00, 99047.30, 0.00, 0.00, 0.00
185, 87569.20, 137279.84, 60286.14, 92369.16, 28490.27, 90393.49, 133018.48, 99042.61, 0.00, 0.00, 0.00
186, 87577.51, 137287.11, 60290.21, 92376.70, 28520.09, 90394.77, 133008.52, 99038.23, 0.00, 0.00, 0.00
187, 87579.90, 137281.30, 60294.90, 92378.48, 28498.79, 90386.90, 133010.05, 99039.33, 0.00, 0.00, 0.00
188, 87584.84, 137284.66, 60302.23, 92381.37, 28493.76, 90396.55, 133023.47, 99053.23, 0.00, 0.00, 0.00
189, 87588.46, 137292.45, 60305.54, 92392.88, 28519.95, 90410.70, 133033.69, 99067.20, 0.00, 0.00, 0.00
190, 87588.73, 137280.55, 60305.77, 92394.02, 28514.21, 90412.87, 133035.39, 99068.36, 0.07, -0.27, 0.96
191, 87584.91, 137273.08, 60297.25, 92375.24, 28502.14, 90399.03, 133021.50, 99055.62, 0.00, 0.00, 0.00
192, 87573.39, 137264.16, 60290.39, 92366.84, 28485.31, 90385.11, 133017.47, 99039.44, 0.00, 0.00, 0.00
193, 87582.96, 137270.47, 60299.39, 92380.36, 28492.24, 90394.27, 133023.36, 99049.65, 0.00, 0.00, 0.00
194, 87582.88, 137270.70, 60297.98, 92378.30, 28493.31, 90398.14, 133021.84, 99049.14, 0.00, 0.00, 0.00
195, 87582.65, 137270.44, 60296.85, 92374.91, 28473.08, 90392.66, 133016.19, 99045.80, 0.00, 0.00, 0.00
196, 87577.28, 137267.56, 60297.36, 92371.91, 28482.47, 90389.40, 133006.33, 99037.47, 0.00, 0.00, 0.00
197, 87580.13, 137268.86, 60301.43, 92370.88, 28503.55, 90398.70, 133016.52, 99041.85, 0.00, 0.00, 0.00
198, 87587.52, 137271.67, 60304.20, 92378.35, 28496.48, 90403.39, 133022.95, 99046.59, 0.00, 0.00, 0.00
199, 87589.47, 137273.80, 60309.27, 92389.16, 28499.90, 90412.20, 133031.95, 99056.65, 0.00, 0.00, 0.00
200, 87584.93, 137275.36, 60310.28, 92386.64, 28497.98, 90406.05, 133028.89, 99056.80, 0.07, -0.27, 0.96
201, 87585.28, 137273.22, 60308.91, 92384.02, 28492.21, 90405.67, 133028.25, 99052.29, 0.00, 0.00, 0.00
202, 87575.98, 137264.03, 60294.14, 92366.14, 28478.67, 90393.55, 133018.41, 99038.77, 0.00, 0.00, 0.00
203, 87568.23, 137261.75, 60296.15, 92369.19, 28499.84, 90393.09, 133010.89, 99029.83, 0.00, 0.00, 0.00
204, 87576.05, 137272.08, 60315.24, 92402.55, 28515.93, 90407.70, 133020.41, 99042.34, 0.00, 0.00, 0.00
205, 87585.09, 137272.09, 60321.79, 92401.41, 28511.62, 90414.30, 133032.39, 99054.97, 0.00, 0.00, 0.00
206, 87583.43, 137268.81, 60314.37, 92382.66, 28511.10, 90409.43, 133023.97, 99043.28, 0.00, 0.00, 0.00
207, 87587.86, 137272.97, 60312.40, 92381.86, 28502.54, 90416.07, 133031.16, 99047.48, 0.00, 0.00, 0.00
208, 87599.59, 137280.45, 60310.32, 92375.38, 28467.45, 90403.77, 133033.44, 99058.39, 0.00, 0.00, 0.00
209, 87599.23, 137274.78, 60306.88, 92370.95, 28487.01, 90401.72, 133029.84, 99060.78, 0.00, 0.00, 0.00
210, 87592.46, 137260.97, 60304.58, 92373.66, 28501.09, 90398.45, 133027.67, 99056.40, 0.06, -0.27, 0.97
211, 87576.52, 137252.98, 60297.70, 92366.73, 28489.11, 90380.28, 133014.89, 99042.74, 0.00, 0.00, 0.00
212, 87577.02, 137254.02, 60298.61, 92356.49, 28489.96, 90387.59, 133020.09, 99042.09, 0.00, 0.00, 0.00
213, 87589.71, 137261.44, 60305.70, 92372.52, 28502.41, 90403.98, 133027.03, 99052.55, 0.00, 0.00, 0.00
214, 87594.00, 137263.56, 60308.04, 92386.44, 28503.05, 90397.63, 133024.72, 99054.86, 0.00, 0.00, 0.00
215, 87588.62, 137264.66, 60303.75, 92376.88, 28485.04, 90391.23, 133020.19, 99051.38, 0.00, 0.00, 0.00
216, 87580.97, 137265.81, 60302.84, 92368.54, 28486.98, 90389.29, 133013.89, 99043.80, 0.00, 0.00, 0.00
217, 87588.30, 137259.31, 60304.25, 92370.44, 28499.43, 90405.47, 133023.20, 99052.27, 0.00, 0.00, 0.00
218, 87593.55, 137260.78, 60322.57, 92388.01, 28490.70, 90403.70, 133038.97, 99056.54, 0.00, 0.00, 0.00
219, 87588.88, 137259.67, 60319.96, 92388.01, 28503.97, 90398.56, 133025.63, 99048.49, 0.00, 0.00, 0.00
220, 87591.19, 137245.05, 60312.67, 92380.96, 28514.37, 90399.23, 133023.78, 99051.41, 0.07, -0.27, 0.97
221, 87585.95, 137243.19, 60297.88, 92369.63, 28495.41, 90393.45, 133019.67, 99044.40, 0.00, 0.00, 0.00
222, 87588.55, 137247.48, 60306.46, 92374.70, 28494.29, 90392.48, 133025.16, 99045.90, 0.00, 0.00, 0.00
223, 87590.54, 137254.48, 60312.52, 92379.17, 28496.08, 90396.11, 133027.03, 99049.38, 0.00, 0.00, 0.00
224, 87592.95, 137253.28, 60311.31, 92380.18, 28492.46, 90390.92, 133020.39, 99048.76, 0.00, 0.00, 0.00
225, 87590.47, 137247.28, 60312.31, 92384.02, 28505.92, 90401.43, 133025.55, 99044.96, 0.00, 0.00, 0.00
226, 87588.17, 137250.84, 60313.14, 92379.89, 28489.89, 90398.14, 133026.64, 99046.43, 0.00, 0.00, 0.00
227, 87595.74, 137251.80, 60315.35, 92381.50, 28508.15, 90405.07, 133029.16, 99050.95, 0.00, 0.00, 0.00
228, 87592.41, 137241.81, 60306.95, 92374.02, 28501.51, 90397.34, 133020.45, 99044.64, 0.00, 0.00, 0.00
229, 87595.09, 137240.75, 60310.73, 92387.60, 28496.86, 90400.82, 133024.86, 99047.64, 0.00, 0.00, 0.00
230, 87586.96, 137238.19, 60308.25, 92384.07, 28487.95, 90391.08, 133019.98, 99042.19, 0.07, -0.27, 0.97
231, 87589.24, 137236.94, 60302.05, 92378.88, 28494.03, 90388.69, 133019.25, 99046.59, 0.00, 0.00, 0.00
232, 87596.62, 137241.09, 60304.96, 92379.00, 28504.35, 90398.52, 133025.95, 99053.25, 0.00, 0.00, 0.00
233, 87603.81, 137251.84, 60318.28, 92392.30, 28512.94, 90407.80, 133037.25, 99064.20, 0.00, 0.00, 0.00
234, 87591.61, 137241.77, 60308.27, 92379.06, 28494.18, 90391.88, 133016.66, 99049.02, 0.00, 0.00, 0.00
235, 87585.09, 137229.52, 60305.81, 92378.37, 28487.50, 90384.22, 133018.13, 99043.66, 0.00, 0.00, 0.00
236, 87588.66, 137238.83, 60306.79, 92384.90, 28487.34, 90391.86, 133029.33, 99046.19, 0.00, 0.00, 0.00
237, 87603.21, 137231.03, 60310.32, 92390.17, 28480.50, 90393.67, 133027.72, 99063.71, 0.00, 0.00, 0.00
238, 87595.90, 137226.36, 60308.27, 92388.49, 28488.62, 90392.71, 133026.38, 99058.48, 0.00, 0.00, 0.00
239, 87589.76, 137228.89, 60305.59, 92380.49, 28493.73, 90399.91, 133025.33, 99051.30, 0.00, 0.00, 0.00
240, 87580.93, 137227.28, 60296.33, 92366.77, 28475.99, 90385.67, 133014.28, 99041.83, 0.07, -0.27, 0.97
241, 87588.91, 137232.47, 60301.85, 92370.75, 28502.45, 90398.19, 133024.75, 99054.28, 0.00, 0.00, 0.00
242, 87590.18, 137229.33, 60303.75, 92378.05, 28490.38, 90390.61, 133018.94, 99055.35, 0.00, 0.00, 0.00
243, 87590.65, 137232.84, 60310.37, 92385.10, 28484.03, 90393.05, 133013.23, 99048.42, 0.00, 0.00, 0.00
244, 87591.56, 137225.61, 60309.32, 92381.01, 28491.28, 90393.78, 133013.50, 99043.73, 0.00, 0.00, 0.00
245, 87593.87, 137226.20, 60313.32, 92385.55, 28501.33, 90401.16, 133022.02, 99050.73, 0.00, 0.00, 0.00
246, 87581.27, 137225.73, 60312.58, 92387.20, 28501.85, 90405.36, 133026.72, 99048.09, 0.00, 0.00, 0.00
247, 87582.29, 137221.95, 60304.56, 92383.00, 28494.09, 90397.54, 133018.89, 99045.96, 0.00, 0.00, 0.00
248, 87584.39, 137214.92, 60291.37, 92359.28, 28474.04, 90378.34, 133006.17, 99040.73, 0.00, 0.00, 0.00
249, 87595.08, 137219.83, 60298.63, 92366.73, 28468.03, 90373.60, 133004.88, 99043.70, 0.00, 0.00, 0.00
250, 87586.18, 137232.00, 60317.43, 92396.54, 28486.76, 90396.28, 133021.34, 99048.58, 0.07, -0.26, 0.96
251, 87587.90, 137234.63, 60316.16, 92390.59, 28497.31, 90404.40, 133029.58, 99055.91, 0.00, 0.00, 0.00
252, 87602.34, 137234.13, 60309.27, 92386.59, 28498.50, 90412.47, 133030.77, 99070.17, 0.00, 0.00, 0.00
253, 87601.20, 137236.27, 60324.43, 92412.81, 28499.66, 90413.90, 133029.52, 99072.27, 0.00, 0.00, 0.00
254, 87607.30, 137241.56, 60321.50, 92396.72, 28500.53, 90416.52, 133033.83, 99079.11, 0.00, 0.00, 0.00
255, 87621.98, 137238.16, 60326.37, 92402.96, 28507.84, 90423.45, 133044.31, 99095.30, 0.00, 0.00, 0.00
0, 87616.89, 137225.67, 60316.83, 92395.65, 28496.26, 90412.94, 133038.56, 99095.09, 0.00, 0.00, 0.00
1, 87627.51, 137228.39, 60323.73, 92401.57, 28508.82, 90424.00, 133048.39, 99109.42, 0.00, 0.00, 0.00
2, 87628.85, 137227.69, 60322.62, 92399.29, 28501.54, 90421.84, 133043.09, 99113.58, 0.00, 0.00, 0.00
3, 87636.91, 137230.50, 60328.18, 92401.98, 28511.57, 90427.27, 133050.63, 99126.81, 0.00, 0.00, 0.00
4, 87646.51, 137234.86, 60336.70, 92412.97, 28530.28, 90446.76, 133064.17, 99147.57, 0.07, -0.27, 0.96
5, 87662.31, 137239.39, 60339.27, 92415.50, 28534.24, 90453.95, 133074.09, 99166.44, 0.00, 0.00, 0.00
6, 87663.56, 137243.55, 60362.23, 92447.93, 28534.97, 90453.39, 133074.97, 99167.45, 0.00, 0.00, 0.00
7, 87651.29, 137235.50, 60349.44, 92424.10, 28522.26, 90446.78, 133067.70, 99158.28, 0.00, 0.00, 0.00
8, 87671.41, 137238.52, 60348.41, 92425.38, 28533.48, 90462.00, 133087.06, 99189.88, 0.00, 0.00, 0.00
9, 87675.43, 137229.73, 60337.48, 92411.90, 28512.64, 90439.71, 133064.77, 99190.65, 0.00, 0.00, 0.00
10, 87664.95, 137225.98, 60325.79, 92399.67, 28497.15, 90422.03, 133047.38, 99174.46, 0.00, 0.00, 0.00
11, 87676.23, 137237.89, 60339.47, 92415.07, 28512.24, 90439.85, 133060.64, 99186.76, 0.00, 0.00, 0.00
12, 87676.26, 137240.33, 60350.89, 92422.31, 28516.24, 90446.58, 133066.75, 99185.66, 0.00, 0.00, 0.00
13, 87683.86, 137240.98, 60345.37, 92414.23, 28474.51, 90429.32, 133067.94, 99194.00, 0.00, 0.00, 0.00
14, 87693.34, 137238.34, 60343.98, 92416.50, 28499.41, 90437.52, 133067.84, 99200.97, 0.07, -0.27, 0.96
15, 87698.14, 137237.66, 60343.14, 92411.18, 28529.77, 90450.51, 133069.41, 99206.83, 0.00, 0.00, 0.00
16, 87684.91, 137231.91, 60331.80, 92392.23, 28511.19, 90433.50, 133056.56, 99193.09, 0.00, 0.00, 0.00
17, 87679.95, 137233.02, 60342.62, 92419.63, 28528.22, 90454.38, 133056.48, 99183.47, 0.00, 0.00, 0.00
18, 87686.09, 137241.30, 60354.13, 92428.77, 28530.39, 90455.95, 133068.41, 99197.55, 0.00, 0.00, 0.00
19, 87692.53, 137247.11, 60356.68, 92428.82, 28547.49, 90468.19, 133082.44, 99212.98, 0.00, 0.00, 0.00
20, 87686.38, 137237.20, 60348.39, 92423.23, 28530.30, 90455.79, 133071.63, 99197.09, 0.00, 0.00, 0.00
21, 87682.54, 137232.38, 60336.32, 92412.03, 28512.38, 90445.30, 133059.22, 99185.33, 0.00, 0.00, 0.00
22, 87673.28, 137231.59, 60338.80, 92411.30, 28495.05, 90440.56, 133049.72, 99179.96, 0.00, 0.00, 0.00
23, 87677.89, 137236.73, 60342.62, 92415.84, 28517.09, 90445.46, 133062.45, 99192.14, 0.00, 0.00, 0.00
24, 87690.79, 137244.20, 60353.87, 92424.33, 28529.12, 90460.28, 133086.23, 99211.39, 0.06, -0.27, 0.97
25, 87694.16, 137242.36, 60347.72, 92404.19, 28509.89, 90453.28, 133077.67, 99207.66, 0.00, 0.00, 0.00
26, 87685.96, 137243.08, 60356.17, 92415.09, 28487.14, 90442.58, 133065.47, 99195.07, 0.00, 0.00, 0.00
27, 87692.95, 137243.75, 60356.50, 92412.84, 28444.40, 90434.51, 133068.63, 99206.56, 0.00, 0.00, 0.00
28, 87684.41, 137235.17, 60340.41, 92376.83, 28444.18, 90431.11, 133060.75, 99198.80, 0.00, 0.00, 0.00
29, 87670.34, 137234.77, 60341.01, 92406.83, 28492.71, 90431.35, 133057.42, 99182.95, 0.00, 0.00, 0.00
30, 87686.25, 137245.30, 60362.54, 92447.10, 28516.38, 90455.12, 133085.52, 99205.55, 0.00, 0.00, 0.00
31, 87676.26, 137239.84, 60357.29, 92427.79, 28504.60, 90448.30, 133073.70, 99195.67, 0.00, 0.00, 0.00
32, 87676.39, 137235.77, 60351.96, 92419.12, 28507.01, 90452.50, 133072.05, 99189.53, 0.00, 0.00, 0.00
33, 87688.95, 137241.45, 60342.33, 92392.90, 28527.62, 90460.13, 133076.31, 99197.71, 0.00, 0.00, 0.00
34, 87695.19, 137241.34, 60342.02, 92394.27, 28538.97, 90460.95, 133072.58, 99200.81, 0.06, -0.27, 0.97
35, 87691.66, 137236.42, 60349.73, 92416.26, 28501.09, 90454.60, 133072.77, 99201.42, 0.00, 0.00, 0.00
36, 87682.20, 137232.06, 60349.28, 92416.70, 28515.93, 90457.33, 133069.70, 99194.16, 0.00, 0.00, 0.00
37, 87689.55, 137236.13, 60345.44, 92414.88, 28506.34, 90455.34, 133068.22, 99199.14, 0.00, 0.00, 0.00
38, 87687.97, 137238.66, 60343.07, 92413.89, 28518.57, 90460.93, 133076.38, 99200.93, 0.00, 0.00, 0.00
39, 87678.72, 137231.34, 60332.50, 92400.90, 28512.85, 90450.78, 133062.28, 99192.41, 0.00, 0.00, 0.00
40, 87676.16, 137227.25, 60333.35, 92400.68, 28491.14, 90443.34, 133059.28, 99183.20, 0.00, 0.00, 0.00
41, 87680.70, 137223.70, 60337.86, 92404.73, 28490.63, 90451.34, 133065.03, 99187.13, 0.00, 0.00, 0.00
42, 87679.38, 137226.36, 60341.01, 92403.72, 28494.05, 90454.73, 133062.02, 99188.30, 0.00, 0.00, 0.00
43, 87674.71, 137233.42, 60341.37, 92405.33, 28504.75, 90454.02, 133063.08, 99182.45, 0.00, 0.00, 0.00
44, 87667.92, 137229.17, 60337.44, 92400.50, 28503.93, 90450.45, 133059.80, 99175.20, 0.06, -0.27, 0.97
45, 87676.93, 137230.50, 60338.71, 92398.24, 28486.02, 90440.14, 133050.81, 99179.23, 0.00, 0.00, 0.00
46, 87675.45, 137226.81, 60333.88, 92394.38, 28482.67, 90437.75, 133050.91, 99177.13, 0.00, 0.00, 0.00
47, 87672.70, 137226.16, 60333.93, 92395.56, 28482.13, 90448.92, 133070.69, 99177.01, 0.00, 0.00, 0.00
48, 87663.43, 137222.52, 60329.23, 92393.10, 28467.02, 90434.17, 133054.30, 99162.84, 0.00, 0.00, 0.00
49, 87665.17, 137221.56, 60326.21, 92392.23, 28468.28, 90434.91, 133041.02, 99159.09, 0.00, 0.00, 0.00
50, 87665.73, 137223.88, 60333.68, 92401.02, 28487.61, 90435.38, 133048.70, 99164.92, 0.00, 0.00, 0.00
51, 87662.63, 137231.69, 60328.99, 92391.05, 28475.29, 90433.88, 133047.17, 99157.81, 0.00, 0.00, 0.00
52, 87653.08, 137222.81, 60333.10, 92390.91, 28470.87, 90437.26, 133035.45, 99144.06, 0.00, 0.00, 0.00
53, 87658.48, 137220.63, 60350.73, 92413.82, 28493.47, 90448.86, 133040.48, 99151.58, 0.00, 0.00, 0.00
54, 87659.85, 137218.66, 60350.87, 92414.55, 28492.01, 90456.45, 133048.08, 99151.87, 0.06, -0.26, 0.97
55, 87660.09, 137212.17, 60334.82, 92397.95, 28478.33, 90452.23, 133056.20, 99158.73, 0.00, 0.00, 0.00
56, 87654.45, 137211.75, 60336.16, 92391.67, 28461.93, 90444.27, 133048.06, 99153.70, 0.00, 0.00, 0.00
57, 87649.52, 137214.09, 60334.24, 92387.05, 28450.01, 90430.41, 133039.34, 99147.59, 0.00, 0.00, 0.00
58, 87634.88, 137212.19, 60336.36, 92400.27, 28473.24, 90437.59, 133029.95, 99132.80, 0.00, 0.00, 0.00
59, 87642.35, 137212.39, 60338.00, 92402.24, 28484.91, 90451.56, 133043.45, 99141.85, 0.00, 0.00, 0.00
60, 87653.21, 137218.45, 60342.85, 92411.14, 28494.85, 90463.05, 133055.22, 99154.34, 0.00, 0.00, 0.00
61, 87660.48, 137220.81, 60356.10, 92422.74, 28500.82, 90466.45, 133058.80, 99161.81, 0.00, 0.00, 0.00
62, 87644.45, 137212.86, 60338.38, 92399.00, 28481.04, 90448.92, 133032.75, 99138.32, 0.00, 0.00, 0.00
63, 87647.78, 137215.92, 60331.11, 92390.59, 28467.49, 90443.83, 133034.77, 99136.73, 0.00, 0.00, 0.00
64, 87660.84, 137223.14, 60335.05, 92389.57, 28458.60, 90440.54, 133035.55, 99145.83, 0.06, -0.27, 0.97
65, 87660.88, 137213.69, 60339.58, 92384.02, 28466.85, 90447.47, 133037.06, 99152.49, 0.00, 0.00, 0.00
66, 87651.27, 137212.69, 60355.83, 92406.38, 28483.68, 90452.84, 133052.00, 99145.95, 0.00, 0.00, 0.00
67, 87632.49, 137204.41, 60348.55, 92401.95, 28472.12, 90438.46, 133030.30, 99124.26, 0.00, 0.00, 0.00
68, 87653.64, 137213.95, 60351.96, 92411.16, 28476.41, 90447.43, 133040.64, 99143.75, 0.00, 0.00, 0.00
69, 87643.91, 137210.02, 60348.50, 92403.96, 28470.13, 90441.99, 133035.67, 99137.25, 0.00, 0.00, 0.00
70, 87638.59, 137207.47, 60347.72, 92405.23, 28471.56, 90442.73, 133033.84, 99133.20, 0.00, 0.00, 0.00
71, 87644.14, 137204.80, 60349.21, 92393.88, 28460.99, 90429.77, 133027.13, 99137.34, 0.00, 0.00, 0.00
72, 87637.43, 137197.66, 60337.04, 92379.71, 28455.29, 90421.21, 133014.09, 99128.71, 0.00, 0.00, 0.00
73, 87649.14, 137201.55, 60337.10, 92382.77, 28463.56, 90433.84, 133029.39, 99144.98, 0.06, -0.26, 0.97
74, 87656.54, 137201.22, 60331.07, 92375.98, 28458.08, 90433.57, 133037.64, 99161.37, 0.00, 0.00, 0.00
75, 87645.63, 137207.14, 60346.15, 92398.94, 28458.82, 90430.35, 133029.95, 99138.27, 0.00, 0.00, 0.00
76, 87643.65, 137220.23, 60353.64, 92403.56, 28475.23, 90445.57, 133035.66, 99127.21, 0.00, 0.00, 0.00
77, 87652.09, 137214.72, 60353.53, 92402.13, 28471.29, 90445.39, 133036.55, 99135.70, 0.00, 0.00, 0.00
78, 87659.41, 137211.25, 60345.98, 92388.83, 28468.14, 90444.05, 133033.73, 99138.81, 0.00, 0.00, 0.00
79, 87648.36, 137206.47, 60344.30, 92392.59, 28453.28, 90429.03, 133011.34, 99123.97, 0.00, 0.00, 0.00
80, 87654.33, 137209.28, 60350.47, 92396.74, 28453.61, 90435.83, 133020.03, 99133.98, 0.00, 0.00, 0.00
81, 87653.41, 137211.08, 60347.88, 92389.77, 28451.20, 90431.04, 133024.19, 99135.46, 0.00, 0.00, 0.00
82, 87666.58, 137219.88, 60349.46, 92392.56, 28446.68, 90434.75, 133029.59, 99147.95, 0.00, 0.00, 0.00
83, 87657.80, 137211.13, 60341.91, 92380.88, 28439.87, 90430.30, 133030.31, 99142.55, 0.07, -0.26, 0.97
84, 87651.38, 137209.05, 60347.27, 92380.63, 28456.34, 90428.05, 133023.75, 99134.19, 0.00, 0.00, 0.00
85, 87662.38, 137216.64, 60348.23, 92380.18, 28461.44, 90431.98, 133019.61, 99140.71, 0.00, 0.00, 0.00
86, 87668.19, 137220.22, 60349.51, 92389.01, 28477.55, 90441.95, 133030.06, 99146.86, 0.00, 0.00, 0.00
87, 87655.96, 137201.50, 60339.11, 92375.40, 28479.14, 90443.16, 133030.67, 99142.39, 0.00, 0.00, 0.00
88, 87660.50, 137205.64, 60340.59, 92384.23, 28468.66, 90443.49, 133033.47, 99148.55, 0.00, 0.00, 0.00
89, 87660.59, 137211.83, 60347.92, 92387.94, 28457.10, 90434.48, 133028.14, 99142.01, 0.00, 0.00, 0.00
90, 87662.38, 137212.17, 60352.14, 92388.16, 28454.22, 90435.71, 133020.66, 99140.73, 0.00, 0.00, 0.00
91, 87664.68, 137214.36, 60355.03, 92394.82, 28454.24, 90440.81, 133025.42, 99145.98, 0.00, 0.00, 0.00
92, 87651.40, 137208.64, 60354.16, 92389.10, 28460.83, 90432.83, 133016.20, 99131.50, 0.00, 0.00, 0.00
93, 87658.04, 137210.94, 60349.68, 92383.49, 28458.71, 90429.81, 133022.78, 99135.98, 0.07, -0.26, 0.96
94, 87664.25, 137214.30, 60355.59, 92386.48, 28457.44, 90423.35, 133021.39, 99142.10, 0.00, 0.00, 0.00
95, 87669.55, 137220.59, 60357.87, 92390.77, 28469.62, 90439.83, 133029.89, 99151.28, 0.00, 0.00, 0.00
96, 87666.20, 137217.59, 60356.01, 92389.73, 28471.61, 90442.33, 133024.61, 99149.98, 0.00, 0.00, 0.00
97, 87661.20, 137211.09, 60348.43, 92377.32, 28457.14, 90433.27, 133018.44, 99148.09, 0.00, 0.00, 0.00
98, 87652.56, 137205.48, 60341.46, 92370.13, 28420.11, 90419.02, 133008.86, 99135.98, 0.00, 0.00, 0.00
99, 87664.79, 137212.53, 60355.61, 92388.32, 28437.52, 90432.36, 133022.22, 99150.55, 0.00, 0.00, 0.00
100, 87676.05, 137217.33, 60355.03, 92384.79, 28465.59, 90448.56, 133032.44, 99162.46, 0.00, 0.00, 0.00
101, 87669.48, 137211.39, 60351.92, 92383.63, 28463.96, 90437.39, 133017.34, 99148.60, 0.00, 0.00, 0.00
102, 87672.21, 137216.03, 60360.28, 92394.02, 28459.27, 90436.48, 133014.28, 99146.03, 0.00, 0.00, 0.00
103, 87663.74, 137209.27, 60349.95, 92378.10, 28457.50, 90435.29, 133012.59, 99141.49, 0.08, -0.27, 0.97
104, 87669.38, 137209.58, 60351.74, 92379.24, 28461.66, 90435.27, 133015.58, 99148.96, 0.00, 0.00, 0.00
105, 87672.77, 137212.28, 60353.17, 92386.35, 28455.02, 90430.80, 133013.17, 99150.73, 0.00, 0.00, 0.00
106, 87678.27, 137212.50, 60354.00, 92389.66, 28455.31, 90436.36, 133018.72, 99155.60, 0.00, 0.00, 0.00
107, 87674.38, 137210.27, 60351.12, 92381.97, 28443.13, 90425.77, 133016.09, 99150.30, 0.00, 0.00, 0.00
108, 87662.48, 137202.36, 60346.64, 92373.38, 28408.71, 90408.51, 133001.50, 99142.48, 0.00, 0.00, 0.00
109, 87668.21, 137204.55, 60345.80, 92375.11, 28415.73, 90417.03, 133010.84, 99153.52, 0.00, 0.00, 0.00
110, 87681.33, 137212.08, 60356.39, 92391.89, 28459.09, 90448.81, 133029.02, 99163.45, 0.00, 0.00, 0.00
111, 87667.41, 137197.44, 60342.06, 92370.15, 28470.29, 90442.80, 133016.44, 99146.73, 0.00, 0.00, 0.00
112, 87664.19, 137195.72, 60343.54, 92371.11, 28454.28, 90433.97, 133013.94, 99144.71, 0.00, 0.00, 0.00
113, 87671.48, 137196.83, 60339.96, 92369.72, 28427.91, 90432.00, 133015.09, 99154.66, 0.08, -0.27, 0.98
114, 87674.00, 137202.52, 60343.61, 92373.68, 28429.29, 90433.10, 133015.25, 99157.27, 0.00, 0.00, 0.00
115, 87669.82, 137199.88, 60344.70, 92377.70, 28456.65, 90437.95, 133019.47, 99153.03, 0.00, 0.00, 0.00
116, 87664.34, 137195.63, 60337.66, 92376.09, 28458.93, 90432.92, 133011.77, 99144.83, 0.00, 0.00, 0.00
117, 87661.82, 137193.95, 60329.90, 92365.34, 28426.37, 90424.67, 133004.63, 99140.45, 0.00, 0.00, 0.00
118, 87668.92, 137198.42, 60338.82, 92378.41, 28424.78, 90433.95, 133013.59, 99150.63, 0.00, 0.00, 0.00
119, 87674.23, 137202.88, 60351.65, 92394.35, 28466.89, 90452.27, 133021.02, 99157.72, 0.00, 0.00, 0.00
120, 87666.34, 137199.23, 60348.88, 92381.63, 28472.48, 90444.79, 133019.27, 99149.74, 0.00, 0.00, 0.00
121, 87663.52, 137193.58, 60347.38, 92367.20, 28458.17, 90438.58, 133008.50, 99149.09, 0.00, 0.00, 0.00
122, 87668.75, 137193.80, 60348.59, 92383.87, 28457.70, 90443.29, 133009.27, 99149.72, 0.00, 0.00, 0.00
123, 87675.92, 137194.95, 60350.78, 92392.74, 28455.42, 90435.89, 133007.56, 99156.90, 0.07, -0.27, 0.97
124, 87682.20, 137199.31, 60350.36, 92381.27, 28455.36, 90444.61, 133016.81, 99169.34, 0.00, 0.00, 0.00
125, 87675.61, 137192.91, 60350.98, 92387.45, 28434.46, 90435.36, 133007.88, 99160.31, 0.00, 0.00, 0.00
126, 87666.71, 137187.53, 60353.71, 92398.63, 28442.33, 90435.27, 133007.00, 99154.41, 0.00, 0.00, 0.00
127, 87670.78, 137190.36, 60358.52, 92397.64, 28467.02, 90449.77, 133019.77, 99162.26, 0.00, 0.00, 0.00
128, 87679.30, 137194.42, 60359.61, 92391.85, 28445.03, 90452.97, 133020.30, 99168.07, 0.00, 0.00, 0.00
129, 87664.48, 137190.38, 60348.84, 92377.14, 28412.11, 90429.59, 133003.06, 99151.51, 0.00, 0.00, 0.00
130, 87663.63, 137187.52, 60347.27, 92379.94, 28427.26, 90435.91, 133005.53, 99151.13, 0.00, 0.00, 0.00
131, 87657.95, 137184.09, 60336.14, 92371.53, 28442.28, 90429.37, 132994.73, 99140.38, 0.00, 0.00, 0.00
132, 87667.30, 137189.22, 60341.57, 92374.59, 28442.06, 90431.84, 132992.72, 99148.16, 0.00, 0.00, 0.00
133, 87666.91, 137189.44, 60349.95, 92381.92, 28448.67, 90433.52, 132995.06, 99149.50, 0.07, -0.27, 0.97
134, 87667.34, 137186.47, 60333.01, 92354.30, 28415.06, 90428.36, 132994.50, 99151.53, 0.00, 0.00, 0.00
135, 87674.11, 137189.44, 60333.91, 92361.67, 28399.37, 90432.47, 133000.98, 99157.01, 0.00, 0.00, 0.00
136, 87677.91, 137200.77, 60350.54, 92393.91, 28453.75, 90450.29, 133010.44, 99160.80, 0.00, 0.00, 0.00
137, 87678.31, 137205.95, 60364.95, 92417.46, 28452.96, 90445.41, 133007.05, 99162.44, 0.00, 0.00, 0.00
138, 87675.34, 137187.81, 60359.34, 92408.99, 28477.75, 90448.74, 133000.16, 99158.62, 0.00, 0.00, 0.00
139, 87673.51, 137177.92, 60350.33, 92389.68, 28453.63, 90442.53, 132995.44, 99155.42, 0.00, 0.00, 0.00
140, 87673.35, 137182.39, 60351.41, 92381.16, 28431.44, 90441.75, 133006.47, 99157.90, 0.00, 0.00, 0.00
141, 87675.19, 137181.55, 60354.34, 92380.27, 28410.94, 90427.76, 132996.77, 99156.60, 0.00, 0.00, 0.00
142, 87675.97, 137185.69, 60354.91, 92395.56, 28448.70, 90443.60, 133003.56, 99161.19, 0.00, 0.00, 0.00
143, 87676.99, 137189.27, 60359.63, 92400.92, 28458.96, 90456.66, 133014.17, 99168.05, 0.07, -0.27, 0.97
144, 87673.51, 137186.52, 60350.58, 92388.56, 28458.42, 90448.43, 133004.98, 99163.42, 0.00, 0.00, 0.00
145, 87673.48, 137186.84, 60347.03, 92385.44, 28449.43, 90439.36, 132995.69, 99164.94, 0.00, 0.00, 0.00
146, 87668.03, 137184.25, 60356.48, 92381.79, 28427.46, 90423.22, 132985.28, 99157.70, 0.00, 0.00, 0.00
147, 87665.95, 137179.38, 60353.80, 92378.39, 28429.99, 90429.14, 132991.59, 99154.46, 0.00, 0.00, 0.00
148, 87669.08, 137178.22, 60348.90, 92373.70, 28421.00, 90428.45, 132994.39, 99159.91, 0.00, 0.00, 0.00
149, 87666.24, 137177.08, 60356.97, 92385.03, 28424.36, 90434.64, 132991.05, 99154.55, 0.00, 0.00, 0.00
150, 87676.39, 137182.39, 60357.26, 92384.41, 28434.23, 90442.73, 132997.88, 99160.85, 0.00, 0.00, 0.00
151, 87669.15, 137176.98, 60341.48, 92370.57, 28394.94, 90421.79, 132987.88, 99148.29, 0.00, 0.00, 0.00
152, 87671.07, 137179.67, 60351.00, 92382.64, 28398.40, 90428.83, 132998.02, 99150.77, 0.00, 0.00, 0.00
153, 87681.11, 137186.48, 60358.07, 92388.54, 28452.09, 90453.35, 133012.30, 99168.05, 0.07, -0.27, 0.98
154, 87671.70, 137183.95, 60354.40, 92381.08, 28447.82, 90448.81, 133006.98, 99157.03, 0.00, 0.00, 0.00
155, 87671.59, 137183.84, 60351.47, 92378.59, 28440.56, 90448.41, 133011.53, 99159.06, 0.00, 0.00, 0.00
156, 87675.27, 137183.36, 60345.86, 92367.77, 28429.61, 90439.71, 133005.80, 99159.24, 0.00, 0.00, 0.00
157, 87663.49, 137180.27, 60346.33, 92369.79, 28412.96, 90427.04, 132987.83, 99139.46, 0.00, 0.00, 0.00
158, 87661.66, 137178.08, 60349.95, 92374.57, 28399.32, 90425.52, 132979.63, 99136.95, 0.00, 0.00, 0.00
159, 87655.07, 137174.47, 60345.82, 92366.73, 28386.87, 90420.98, 132976.05, 99134.59, 0.00, 0.00, 0.00
160, 87652.61, 137174.58, 60346.47, 92372.25, 28414.23, 90425.19, 132991.89, 99137.09, 0.00, 0.00, 0.00
161, 87650.75, 137174.34, 60342.02, 92367.98, 28426.68, 90432.45, 132988.20, 99133.13, 0.00, 0.00, 0.00
162, 87656.03, 137175.53, 60350.33, 92379.45, 28421.47, 90434.80, 132984.84, 99135.62, 0.00, 0.00, 0.00
163, 87657.30, 137175.09, 60355.88, 92385.63, 28422.37, 90433.14, 132984.97, 99134.77, 0.08, -0.27, 0.96
164, 87650.71, 137175.69, 60351.72, 92375.76, 28419.93, 90437.05, 132981.88, 99132.45, 0.00, 0.00, 0.00
165, 87649.32, 137171.75, 60356.84, 92379.45, 28416.82, 90436.81, 132988.66, 99133.58, 0.00, 0.00, 0.00
166, 87648.52, 137166.61, 60349.02, 92372.11, 28416.58, 90439.71, 132988.77, 99132.64, 0.00, 0.00, 0.00
167, 87644.20, 137166.33, 60349.21, 92372.85, 28412.55, 90435.55, 132985.92, 99129.73, 0.00, 0.00, 0.00
168, 87654.22, 137164.58, 60350.29, 92377.77, 28406.59, 90423.48, 132985.67, 99145.38, 0.00, 0.00, 0.00
169, 87667.92, 137163.06, 60346.15, 92370.84, 28391.99, 90426.10, 132983.52, 99152.52, 0.00, 0.00, 0.00
170, 87645.12, 137167.59, 60351.94, 92379.00, 28401.11, 90435.18, 132985.72, 99124.41, 0.00, 0.00, 0.00
171, 87612.51, 137158.75, 60343.43, 92368.18, 28395.65, 90418.30, 132968.48, 99086.82, 0.00, 0.00, 0.00
172, 87601.05, 137157.66, 60338.78, 92360.02, 28382.29, 90413.43, 132958.08, 99070.51, 0.00, 0.00, 0.00
173, 87596.88, 137161.98, 60344.57, 92372.80, 28388.23, 90423.22, 132968.27, 99069.74, 0.07, -0.27, 0.97
174, 87575.63, 137165.28, 60346.49, 92373.61, 28425.36, 90441.28, 132977.09, 99049.95, 0.00, 0.00, 0.00
175, 87567.49, 137162.80, 60347.56, 92381.81, 28436.65, 90449.02, 132980.11, 99035.70, 0.00, 0.00, 0.00
176, 87560.48, 137157.31, 60337.10, 92375.42, 28420.42, 90445.99, 132984.22, 99031.88, 0.00, 0.00, 0.00
177, 87533.09, 137151.94, 60328.27, 92356.45, 28396.17, 90417.90, 132961.67, 98999.98, 0.00, 0.00, 0.00
178, 87517.49, 137153.14, 60337.23, 92368.31, 28412.04, 90414.37, 132944.33, 98977.50, 0.00, 0.00, 0.00
179, 87496.19, 137150.81, 60341.30, 92376.43, 28385.84, 90416.85, 132944.19, 98954.27, 0.00, 0.00, 0.00
180, 87492.15, 137143.91, 60332.52, 92361.65, 28386.60, 90405.31, 132936.44, 98947.84, 0.00, 0.00, 0.00
181, 87484.91, 137142.61, 60332.59, 92351.03, 28376.97, 90407.64, 132928.61, 98937.63, 0.00, 0.00, 0.00
182, 87468.97, 137144.00, 60329.68, 92350.09, 28387.83, 90413.79, 132928.30, 98919.56, 0.00, 0.00, 0.00
183, 87478.34, 137145.22, 60327.16, 92351.10, 28410.79, 90417.85, 132933.53, 98927.72, 0.07, -0.27, 0.97
184, 87474.27, 137145.58, 60329.95, 92359.30, 28402.65, 90410.30, 132931.47, 98912.59, 0.00, 0.00, 0.00
185, 87481.95, 137143.33, 60327.45, 92360.94, 28390.04, 90406.08, 132927.66, 98921.55, 0.00, 0.00, 0.00
186, 87482.94, 137151.78, 60321.72, 92349.18, 28388.68, 90410.30, 132930.84, 98930.96, 0.00, 0.00, 0.00
187, 87489.87, 137149.00, 60331.80, 92361.48, 28398.25, 90421.48, 132943.02, 98940.73, 0.00, 0.00, 0.00
188, 87492.75, 137133.45, 60335.00, 92374.10, 28391.90, 90415.24, 132938.06, 98939.97, 0.00, 0.00, 0.00
189, 87497.89, 137136.98, 60326.39, 92361.20, 28382.56, 90420.20, 132935.56, 98943.66, 0.00, 0.00, 0.00
190, 87492.26, 137140.36, 60325.64, 92356.16, 28379.70, 90419.20, 132932.69, 98938.92, 0.00, 0.00, 0.00
191, 87478.87, 137131.61, 60315.75, 92339.19, 28364.34, 90403.21, 132920.81, 98926.00, 0.00, 0.00, 0.00
192, 87495.48, 137136.17, 60320.07, 92352.33, 28374.89, 90414.32, 132929.22, 98945.05, 0.00, 0.00, 0.00
193, 87501.80, 137140.55, 60327.98, 92364.85, 28395.34, 90419.53, 132938.41, 98956.34, 0.07, -0.27, 0.97
194, 87511.62, 137145.72, 60339.56, 92370.95, 28395.90, 90425.79, 132950.42, 98966.80, 0.00, 0.00, 0.00
195, 87499.74, 137137.88, 60330.13, 92351.77, 28387.18, 90419.24, 132938.72, 98951.35, 0.00, 0.00, 0.00
196, 87502.85, 137134.94, 60327.22, 92347.23, 28365.93, 90404.48, 132927.52, 98947.26, 0.00, 0.00, 0.00
197, 87508.06, 137139.34, 60329.55, 92349.18, 28363.45, 90398.86, 132925.28, 98950.90, 0.00, 0.00, 0.00
198, 87517.49, 137152.67, 60338.55, 92370.03, 28394.72, 90424.59, 132941.27, 98962.61, 0.00, 0.00, 0.00
199, 87518.27, 137145.30, 60333.55, 92362.39, 28396.57, 90423.22, 132939.41, 98967.62, 0.00, 0.00, 0.00
200, 87507.52, 137135.33, 60325.03, 92342.12, 28370.64, 90408.35, 132926.05, 98952.42, 0.00, 0.00, 0.00
201, 87512.73, 137135.97, 60321.37, 92335.81, 28363.71, 90405.94, 132929.64, 98960.87, 0.00, 0.00, 0.00
202, 87528.31, 137142.44, 60333.39, 92358.48, 28387.38, 90421.03, 132950.27, 98979.78, 0.00, 0.00, 0.00
203, 87527.84, 137143.44, 60330.80, 92355.05, 28378.20, 90422.37, 132951.88, 98977.48, 0.07, -0.27, 0.96
204, 87523.93, 137140.53, 60321.77, 92340.33, 28352.11, 90414.34, 132937.69, 98971.87, 0.00, 0.00, 0.00
205, 87534.39, 137133.83, 60324.47, 92344.17, 28367.34, 90417.67, 132944.95, 98981.03, 0.00, 0.00, 0.00
206, 87537.54, 137133.84, 60325.10, 92343.77, 28363.33, 90414.21, 132940.53, 98982.64, 0.00, 0.00, 0.00
207, 87531.20, 137136.84, 60319.71, 92334.72, 28357.48, 90404.71, 132932.77, 98973.95, 0.00, 0.00, 0.00
208, 87535.80, 137144.39, 60330.98, 92347.70, 28384.46, 90420.00, 132943.09, 98980.05, 0.00, 0.00, 0.00
209, 87537.61, 137134.36, 60327.16, 92342.61, 28376.25, 90410.92, 132944.45, 98985.32, 0.00, 0.00, 0.00
210, 87535.09, 137128.08, 60323.24, 92340.71, 28370.76, 90409.98, 132942.98, 98982.44, 0.00, 0.00, 0.00
211, 87532.91, 137128.03, 60332.63, 92354.09, 28374.42, 90415.80, 132940.44, 98979.84, 0.00, 0.00, 0.00
212, 87535.33, 137138.08, 60330.53, 92349.41, 28367.58, 90410.57, 132935.97, 98982.10, 0.00, 0.00, 0.00
213, 87531.69, 137140.86, 60319.69, 92328.77, 28358.46, 90403.28, 132934.02, 98978.66, 0.07, -0.27, 0.97
214, 87528.49, 137124.19, 60331.18, 92346.14, 28368.92, 90413.49, 132942.50, 98981.52, 0.00, 0.00, 0.00
215, 87523.91, 137123.33, 60335.43, 92351.13, 28332.96, 90402.32, 132939.36, 98978.91, 0.00, 0.00, 0.00
216, 87520.51, 137120.22, 60334.09, 92352.22, 28343.82, 90402.03, 132935.88, 98968.45, 0.00, 0.00, 0.00
217, 87532.53, 137124.84, 60327.76, 92349.02, 28399.25, 90424.47, 132937.69, 98975.78, 0.00, 0.00, 0.00
218, 87531.13, 137128.38, 60327.58, 92343.01, 28392.28, 90418.70, 132937.55, 98975.84, 0.00, 0.00, 0.00
219, 87525.59, 137123.25, 60332.48, 92338.09, 28382.96, 90412.45, 132931.56, 98972.42, 0.00, 0.00, 0.00
220, 87527.44, 137125.53, 60345.71, 92349.94, 28386.38, 90415.28, 132933.86, 98977.21, 0.00, 0.00, 0.00
221, 87525.07, 137123.88, 60343.32, 92351.62, 28360.25, 90411.91, 132928.88, 98974.21, 0.00, 0.00, 0.00
222, 87531.09, 137124.17, 60341.57, 92352.02, 28368.21, 90415.28, 132932.44, 98979.91, 0.00, 0.00, 0.00
223, 87531.06, 137123.97, 60333.64, 92340.13, 28383.23, 90422.05, 132929.70, 98981.27, 0.08, -0.27, 0.96
224, 87534.19, 137128.27, 60329.88, 92335.03, 28372.59, 90416.02, 132923.11, 98981.55, 0.00, 0.00, 0.00
225, 87535.91, 137131.61, 60339.61, 92355.35, 28384.23, 90423.78, 132934.05, 98987.34, 0.00, 0.00, 0.00
226, 87535.53, 137128.69, 60344.97, 92363.73, 28388.08, 90434.26, 132952.44, 98994.73, 0.00, 0.00, 0.00
227, 87532.87, 137123.30, 60338.64, 92349.56, 28381.71, 90429.26, 132946.52, 98993.73, 0.00, 0.00, 0.00
228, 87540.56, 137123.50, 60337.55, 92346.85, 28377.08, 90426.39, 132938.56, 98989.99, 0.00, 0.00, 0.00
229, 87542.70, 137127.36, 60338.84, 92363.30, 28376.52, 90422.39, 132932.19, 98988.56, 0.00, 0.00, 0.00
230, 87542.70, 137132.66, 60340.57, 92362.61, 28385.06, 90427.96, 132935.67, 98988.25, 0.00, 0.00, 0.00
231, 87528.89, 137121.63, 60334.55, 92342.72, 28368.16, 90418.13, 132932.55, 98971.04, 0.00, 0.00, 0.00
232, 87534.55, 137127.48, 60340.90, 92345.11, 28379.43, 90424.07, 132929.89, 98982.44, 0.00, 0.00, 0.00
233, 87532.36, 137122.94, 60338.51, 92340.10, 28375.07, 90421.99, 132929.28, 98980.09, 0.08, -0.27, 0.96
234, 87532.76, 137121.05, 60339.05, 92344.73, 28374.29, 90421.48, 132931.16, 98982.20, 0.00, 0.00, 0.00
235, 87535.22, 137128.33, 60336.32, 92346.36, 28375.99, 90424.47, 132930.36, 98982.23, 0.00, 0.00, 0.00
236, 87536.29, 137130.09, 60333.01, 92336.55, 28358.24, 90421.90, 132924.97, 98978.41, 0.00, 0.00, 0.00
237, 87549.50, 137125.53, 60343.94, 92352.45, 28369.37, 90426.98, 132929.39, 98989.15, 0.00, 0.00, 0.00
238, 87546.73, 137117.02, 60342.93, 92349.70, 28376.84, 90429.48, 132934.38, 98989.59, 0.00, 0.00, 0.00
239, 87535.95, 137113.94, 60331.51, 92334.45, 28366.17, 90418.64, 132927.39, 98978.53, 0.00, 0.00, 0.00
240, 87546.28, 137120.13, 60336.77, 92336.06, 28367.69, 90424.88, 132937.27, 98992.61, 0.00, 0.00, 0.00
241, 87538.28, 137117.39, 60348.79, 92356.51, 28358.02, 90420.85, 132939.77, 98987.18, 0.00, 0.00, 0.00
242, 87544.45, 137119.00, 60343.58, 92350.54, 28355.82, 90424.31, 132934.11, 98988.63, 0.00, 0.00, 0.00
243, 87552.25, 137117.53, 60339.34, 92346.59, 28373.73, 90425.95, 132924.81, 98996.48, 0.07, -0.27, 0.97
244, 87552.05, 137119.19, 60339.29, 92340.28, 28354.06, 90415.80, 132929.86, 98995.74, 0.00, 0.00, 0.00
245, 87555.94, 137121.16, 60337.64, 92330.41, 28346.77, 90408.96, 132927.78, 98990.06, 0.00, 0.00, 0.00
246, 87562.71, 137133.41, 60346.15, 92352.06, 28389.58, 90433.86, 132933.39, 98998.69, 0.00, 0.00, 0.00
247, 87562.48, 137122.36, 60356.61, 92364.34, 28411.12, 90445.52, 132946.23, 99000.59, 0.00, 0.00, 0.00
248, 87555.98, 137114.09, 60353.60, 92354.79, 28390.07, 90439.27, 132942.72, 98996.99, 0.00, 0.00, 0.00
249, 87549.84, 137114.30, 60350.22, 92343.50, 28366.02, 90431.38, 132934.27, 98990.15, 0.00, 0.00, 0.00
250, 87554.87, 137115.81, 60345.13, 92344.59, 28367.20, 90429.30, 132929.16, 98993.30, 0.00, 0.00, 0.00
251, 87565.05, 137125.75, 60349.68, 92353.60, 28378.44, 90434.88, 132943.45, 99008.63, 0.00, 0.00, 0.00
252, 87557.59, 137122.61, 60348.70, 92350.03, 28363.89, 90427.13, 132930.58, 99003.72, 0.00, 0.00, 0.00
253, 87555.80, 137112.33, 60345.50, 92348.51, 28371.89, 90421.21, 132916.08, 98995.83, 0.08, -0.27, 0.96
254, 87549.81, 137108.34, 60335.47, 92333.17, 28371.81, 90420.13, 132911.02, 98988.23, 0.00, 0.00, 0.00
255, 87547.73, 137104.52, 60333.93, 92329.66, 28361.19, 90420.07, 132915.89, 98991.70, 0.00, 0.00, 0.00
0, 87552.43, 137105.27, 60334.15, 92329.04, 28360.36, 90420.47, 132922.31, 98993.33, 0.00, 0.00, 0.00
1, 87564.66, 137114.97, 60345.21, 92345.89, 28365.57, 90425.43, 132929.08, 99007.74, 0.00, 0.00, 0.00
2, 87559.85, 137112.48, 60342.36, 92339.57, 28355.87, 90422.17, 132927.08, 99007.23, 0.00, 0.00, 0.00
3, 87551.73, 137105.86, 60332.48, 92322.85, 28342.30, 90413.61, 132924.19, 99000.86, 0.00, 0.00, 0.00
4, 87555.18, 137112.02, 60340.19, 92328.66, 28337.70, 90420.05, 132931.25, 99004.48, 0.00, 0.00, 0.00
5, 87559.07, 137124.11, 60349.80, 92340.10, 28335.13, 90423.47, 132931.05, 99005.55, 0.00, 0.00, 0.00
6, 87553.92, 137120.34, 60341.28, 92329.27, 28336.40, 90417.05, 132921.94, 98995.78, 0.00, 0.00, 0.00
7, 87559.76, 137121.00, 60346.54, 92332.46, 28345.12, 90419.77, 132930.06, 99004.34, 0.07, -0.27, 0.97
8, 87553.68, 137106.58, 60339.14, 92328.02, 28342.28, 90414.63, 132932.45, 98998.47, 0.00, 0.00, 0.00
9, 87551.38, 137100.52, 60338.87, 92332.88, 28338.95, 90415.09, 132931.88, 98999.29, 0.00, 0.00, 0.00
10, 87558.75, 137105.81, 60341.19, 92339.73, 28357.01, 90424.60, 132942.38, 99008.84, 0.00, 0.00, 0.00
11, 87556.66, 137104.45, 60337.21, 92334.70, 28356.74, 90421.63, 132927.34, 98997.17, 0.00, 0.00, 0.00
12, 87555.13, 137109.97, 60341.06, 92335.26, 28354.95, 90426.05, 132928.80, 98998.73, 0.00, 0.00, 0.00
13, 87551.42, 137110.67, 60339.18, 92333.35, 28365.77, 90426.04, 132930.98, 98999.29, 0.00, 0.00, 0.00
14, 87547.82, 137104.41, 60337.13, 92333.78, 28339.57, 90409.72, 132924.05, 98992.41, 0.00, 0.00, 0.00
15, 87556.12, 137107.05, 60334.75, 92331.77, 28346.64, 90420.91, 132933.28, 99002.71, 0.00, 0.00, 0.00
16, 87554.13, 137108.14, 60329.23, 92319.50, 28347.51, 90422.88, 132928.50, 98999.41, 0.00, 0.00, 0.00
17, 87556.43, 137113.52, 60340.84, 92338.38, 28352.99, 90426.51, 132931.30, 98999.29, 0.07, -0.27, 0.96
18, 87564.45, 137119.77, 60345.39, 92347.66, 28364.38, 90433.91, 132942.67, 99010.36, 0.00, 0.00, 0.00
19, 87562.45, 137113.59, 60340.95, 92339.68, 28322.88, 90415.38, 132935.23, 99010.00, 0.00, 0.00, 0.00
20, 87552.72, 137100.41, 60336.25, 92320.28, 28343.15, 90409.36, 132920.55, 98995.38, 0.00, 0.00, 0.00
21, 87551.76, 137100.83, 60337.23, 92320.66, 28352.65, 90410.61, 132914.05, 98991.24, 0.00, 0.00, 0.00
22, 87557.57, 137105.23, 60343.09, 92335.91, 28343.55, 90413.23, 132923.11, 98999.23, 0.00, 0.00, 0.00
23, 87561.30, 137112.33, 60353.71, 92347.81, 28361.28, 90424.18, 132938.20, 99007.65, 0.00, 0.00, 0.00
24, 87552.52, 137111.92, 60354.69, 92343.97, 28360.96, 90431.94, 132934.48, 99005.62, 0.00, 0.00, 0.00
25, 87558.98, 137114.64, 60358.31, 92352.22, 28367.69, 90440.72, 132939.75, 99013.04, 0.00, 0.00, 0.00
26, 87554.30, 137104.17, 60345.13, 92335.52, 28344.56, 90424.72, 132924.03, 98999.25, 0.00, 0.00, 0.00
27, 87546.70, 137101.77, 60334.02, 92322.27, 28318.38, 90407.55, 132907.06, 98984.20, 0.07, -0.27, 0.97
28, 87551.73, 137104.20, 60336.61, 92320.39, 28315.64, 90411.93, 132920.09, 98992.88, 0.00, 0.00, 0.00
29, 87561.44, 137109.97, 60346.67, 92334.65, 28359.69, 90432.45, 132927.47, 99009.10, 0.00, 0.00, 0.00
30, 87554.98, 137109.50, 60343.92, 92335.41, 28342.59, 90424.72, 132917.73, 98999.52, 0.00, 0.00, 0.00
31, 87553.10, 137099.09, 60336.43, 92326.31, 28341.25, 90418.44, 132912.92, 98993.88, 0.00, 0.00, 0.00
32, 87557.44, 137107.70, 60352.10, 92351.66, 28365.05, 90430.22, 132923.25, 98999.00, 0.00, 0.00, 0.00
33, 87559.29, 137109.34, 60354.94, 92354.05, 28351.42, 90428.07, 132926.63, 99004.57, 0.00, 0.00, 0.00
34, 87561.55, 137106.52, 60350.56, 92345.38, 28359.76, 90428.63, 132931.77, 99008.55, 0.00, 0.00, 0.00
35, 87558.91, 137098.88, 60337.32, 92336.20, 28358.91, 90428.43, 132931.94, 99006.58, 0.00, 0.00, 0.00
36, 87564.27, 137098.05, 60337.26, 92338.20, 28348.85, 90424.91, 132925.13, 99006.42, 0.00, 0.00, 0.00
37, 87569.80, 137101.77, 60351.65, 92345.70, 28352.05, 90429.08, 132924.55, 99011.34, 0.07, -0.27, 0.97
38, 87559.29, 137096.83, 60344.81, 92328.75, 28341.68, 90425.25, 132917.02, 99002.76, 0.00, 0.00, 0.00
39, 87564.25, 137096.23, 60349.55, 92338.88, 28347.06, 90428.63, 132922.59, 99003.41, 0.00, 0.00, 0.00
40, 87565.52, 137099.42, 60350.40, 92343.52, 28348.02, 90429.68, 132923.78, 99005.77, 0.00, 0.00, 0.00
41, 87566.66, 137109.28, 60351.61, 92345.98, 28351.53, 90430.57, 132925.59, 99005.62, 0.00, 0.00, 0.00
42, 87557.88, 137098.52, 60344.54, 92338.20, 28344.87, 90420.05, 132910.33, 98990.27, 0.00, 0.00, 0.00
43, 87556.32, 137092.63, 60343.65, 92341.40, 28352.38, 90427.29, 132919.36, 98997.19, 0.00, 0.00, 0.00
44, 87562.04, 137101.27, 60350.71, 92345.55, 28358.71, 90435.13, 132925.50, 99009.95, 0.00, 0.00, 0.00
45, 87559.83, 137093.13, 60346.96, 92341.71, 28355.56, 90428.41, 132913.84, 99000.48, 0.00, 0.00, 0.00
46, 87560.30, 137094.20, 60351.70, 92347.21, 28357.90, 90432.34, 132920.70, 98998.63, 0.00, 0.00, 0.00
47, 87562.76, 137095.34, 60353.91, 92350.38, 28360.09, 90435.52, 132923.56, 99000.27, 0.07, -0.27, 0.96
48, 87560.52, 137094.59, 60348.61, 92344.51, 28353.21, 90426.73, 132917.64, 98998.17, 0.00, 0.00, 0.00
49, 87567.38, 137102.27, 60352.61, 92344.75, 28353.57, 90429.41, 132920.34, 99003.43, 0.00, 0.00, 0.00
50, 87569.13, 137099.94, 60348.55, 92339.92, 28354.01, 90432.49, 132922.91, 99004.43, 0.00, 0.00, 0.00
51, 87566.17, 137094.06, 60351.74, 92347.81, 28350.26, 90433.57, 132919.88, 99001.53, 0.00, 0.00, 0.00
52, 87570.91, 137096.72, 60356.10, 92359.13, 28358.17, 90438.24, 132923.92, 99006.84, 0.00, 0.00, 0.00
53, 87568.27, 137098.05, 60349.77, 92346.07, 28343.20, 90428.31, 132920.20, 99003.79, 0.00, 0.00, 0.00
54, 87561.57, 137098.72, 60344.48, 92340.28, 28345.88, 90424.60, 132916.61, 98996.09, 0.00, 0.00, 0.00
55, 87565.03, 137095.72, 60339.16, 92331.27, 28334.26, 90422.21, 132923.14, 99000.55, 0.00, 0.00, 0.00
56, 87568.41, 137094.47, 60339.16, 92323.23, 28324.78, 90426.02, 132927.36, 99005.71, 0.00, 0.00, 0.00
57, 87571.74, 137097.59, 60341.28, 92331.34, 28342.28, 90434.51, 132932.70, 99007.41, 0.07, -0.27, 0.96
58, 87575.16, 137099.97, 60344.05, 92338.59, 28350.79, 90432.80, 132934.33, 99009.44, 0.00, 0.00, 0.00
59, 87576.68, 137101.27, 60342.76, 92336.80, 28353.48, 90441.99, 132939.88, 99016.50, 0.00, 0.00, 0.00
60, 87577.80, 137106.28, 60350.78, 92340.64, 28361.99, 90447.72, 132946.88, 99023.37, 0.00, 0.00, 0.00
61, 87572.88, 137102.22, 60345.86, 92332.95, 28342.82, 90439.09, 132941.11, 99015.05, 0.00, 0.00, 0.00
62, 87564.79, 137090.47, 60340.50, 92324.86, 28344.60, 90431.20, 132926.78, 98998.24, 0.00, 0.00, 0.00
63, 87571.45, 137094.98, 60343.94, 92330.18, 28355.15, 90438.48, 132933.17, 99008.70, 0.00, 0.00, 0.00
64, 87579.92, 137100.67, 60355.36, 92344.73, 28362.53, 90452.27, 132954.36, 99022.49, 0.00, 0.00, 0.00
65, 87573.04, 137094.11, 60350.13, 92339.88, 28352.09, 90441.30, 132941.05, 99009.06, 0.00, 0.00, 0.00
66, 87568.66, 137094.36, 60347.20, 92337.80, 28351.35, 90436.52, 132942.11, 99003.43, 0.00, 0.00, 0.00
67, 87568.74, 137092.91, 60351.07, 92338.16, 28353.28, 90438.46, 132932.34, 99001.91, 0.07, -0.27, 0.96
68, 87573.53, 137096.44, 60359.50, 92355.15, 28362.06, 90448.16, 132944.06, 99007.85, 0.00, 0.00, 0.00
69, 87576.23, 137095.61, 60352.32, 92349.94, 28362.71, 90445.39, 132940.92, 99010.18, 0.00, 0.00, 0.00
70, 87569.82, 137089.86, 60346.91, 92341.83, 28350.46, 90433.50, 132933.00, 99005.22, 0.00, 0.00, 0.00
71, 87559.36, 137089.59, 60345.37, 92333.96, 28342.41, 90426.17, 132923.50, 98995.41, 0.00, 0.00, 0.00
72, 87567.27, 137094.84, 60347.63, 92338.05, 28347.96, 90430.44, 132933.52, 99006.89, 0.00, 0.00, 0.00
73, 87573.91, 137091.56, 60350.47, 92340.95, 28350.28, 90438.04, 132938.98, 99013.28, 0.00, 0.00, 0.00
74, 87562.95, 137086.91, 60342.64, 92333.38, 28342.59, 90425.30, 132924.55, 99000.43, 0.00, 0.00, 0.00
75, 87557.32, 137088.27, 60347.00, 92336.87, 28344.45, 90420.20, 132917.91, 98995.07, 0.00, 0.00, 0.00
76, 87561.57, 137097.84, 60349.11, 92339.84, 28347.96, 90426.75, 132924.02, 98997.91, 0.00, 0.00, 0.00
77, 87570.42, 137105.23, 60351.90, 92344.80, 28352.38, 90430.59, 132937.23, 99011.77, 0.07, -0.27, 0.96
78, 87576.16, 137095.06, 60350.73, 92338.74, 28349.37, 90429.32, 132935.41, 99019.03, 0.00, 0.00, 0.00
79, 87563.25, 137091.56, 60350.69, 92340.24, 28344.00, 90423.84, 132930.05, 99006.83, 0.00, 0.00, 0.00
80, 87558.73, 137095.30, 60348.88, 92344.46, 28341.97, 90416.13, 132922.17, 99000.99, 0.00, 0.00, 0.00
81, 87570.11, 137100.05, 60354.54, 92350.34, 28356.49, 90428.98, 132932.25, 99015.48, 0.00, 0.00, 0.00
82, 87564.72, 137093.09, 60351.77, 92343.05, 28349.61, 90427.31, 132929.47, 99012.15, 0.00, 0.00, 0.00
83, 87555.76, 137094.78, 60344.75, 92336.33, 28346.73, 90420.94, 132923.52, 99001.26, 0.00, 0.00, 0.00
84, 87560.81, 137103.67, 60358.71, 92361.52, 28355.06, 90424.49, 132928.97, 99009.38, 0.00, 0.00, 0.00
85, 87564.92, 137138.31, 60356.75, 92359.15, 28356.49, 90427.84, 132932.44, 99009.35, 0.00, 0.00, 0.00
86, 87562.24, 137137.56, 60357.35, 92353.34, 28354.28, 90429.70, 132925.64, 98998.33, 0.00, 0.00, 0.00
87, 87570.29, 137107.19, 60345.10, 92338.77, 28352.72, 90429.81, 132928.02, 99004.63, 0.07, -0.27, 0.97
88, 87583.88, 137060.92, 60328.38, 92326.42, 28335.15, 90409.67, 132916.95, 99017.22, 0.00, 0.00, 0.00
89, 87590.63, 137061.36, 60342.18, 92348.29, 28345.95, 90422.91, 132933.95, 99026.34, 0.00, 0.00, 0.00
90, 87560.16, 137068.33, 60341.50, 92333.84, 28327.73, 90421.72, 132929.28, 98998.80, 0.00, 0.00, 0.00
91, 87556.02, 137071.23, 60338.49, 92324.26, 28278.51, 90399.23, 132908.03, 98993.93, 0.00, 0.00, 0.00
92, 87574.60, 137082.81, 60345.59, 92339.34, 28317.18, 90412.71, 132913.27, 99007.74, 0.00, 0.00, 0.00
93, 87589.35, 137094.75, 60354.38, 92354.23, 28391.83, 90447.47, 132934.94, 99026.45, 0.00, 0.00, 0.00
94, 87581.42, 137089.39, 60346.98, 92345.98, 28362.51, 90430.55, 132927.30, 99019.48, 0.00, 0.00, 0.00
95, 87591.03, 137093.80, 60346.09, 92348.73, 28350.97, 90431.34, 132937.75, 99027.68, 0.00, 0.00, 0.00
96, 87596.23, 137098.72, 60358.34, 92360.34, 28362.93, 90436.23, 132945.73, 99033.80, 0.00, 0.00, 0.00
97, 87593.33, 137099.42, 60356.21, 92355.39, 28370.46, 90446.95, 132947.08, 99037.47, 0.07, -0.28, 0.97
98, 87594.67, 137099.34, 60351.12, 92350.23, 28356.85, 90437.46, 132941.75, 99038.07, 0.00, 0.00, 0.00
99, 87603.55, 137103.27, 60353.20, 92351.51, 28354.39, 90438.95, 132944.17, 99039.84, 0.00, 0.00, 0.00
100, 87597.34, 137094.67, 60352.12, 92341.22, 28335.78, 90421.50, 132929.31, 99030.12, 0.00, 0.00, 0.00
101, 87586.83, 137083.59, 60345.08, 92331.01, 28330.23, 90408.69, 132916.91, 99019.32, 0.00, 0.00, 0.00
102, 87589.58, 137089.72, 60352.43, 92344.09, 28342.73, 90423.78, 132924.02, 99021.60, 0.00, 0.00, 0.00
103, 87583.34, 137089.95, 60348.46, 92345.42, 28335.57, 90419.42, 132918.25, 99015.34, 0.00, 0.00, 0.00
104, 87583.81, 137087.53, 60348.90, 92340.40, 28333.12, 90417.19, 132917.11, 99014.85, 0.00, 0.00, 0.00
105, 87586.94, 137088.66, 60343.29, 92333.13, 28329.67, 90413.48, 132914.91, 99017.20, 0.00, 0.00, 0.00
106, 87590.63, 137091.42, 60339.38, 92335.16, 28319.57, 90408.00, 132910.64, 99017.46, 0.00, 0.00, 0.00
107, 87596.69, 137081.56, 60338.27, 92337.02, 28313.80, 90416.73, 132924.23, 99025.22, 0.06, -0.27, 0.97
108, 87591.86, 137088.11, 60347.72, 92344.02, 28316.71, 90429.03, 132934.53, 99025.17, 0.00, 0.00, 0.00
109, 87591.01, 137099.41, 60358.78, 92352.40, 28318.74, 90429.14, 132939.81, 99030.20, 0.00, 0.00, 0.00
110, 87595.61, 137101.30, 60360.06, 92355.08, 28340.51, 90431.94, 132938.69, 99033.71, 0.00, 0.00, 0.00
111, 87594.09, 137086.39, 60351.45, 92351.28, 28352.23, 90424.38, 132932.14, 99025.76, 0.00, 0.00, 0.00
112, 87592.77, 137085.80, 60353.06, 92345.47, 28347.11, 90435.55, 132934.56, 99025.11, 0.00, 0.00, 0.00
113, 87596.75, 137090.86, 60356.84, 92353.29, 28339.37, 90435.67, 132932.03, 99026.96, 0.00, 0.00, 0.00
114, 87591.19, 137086.69, 60352.34, 92341.71, 28333.52, 90423.80, 132917.69, 99021.51, 0.00, 0.00, 0.00
115, 87585.04, 137084.89, 60349.20, 92351.73, 28342.79, 90420.70, 132913.84, 99015.19, 0.00, 0.00, 0.00
116, 87585.87, 137086.73, 60344.21, 92345.31, 28330.81, 90421.14, 132928.03, 99015.14, 0.00, 0.00, 0.00
117, 87590.43, 137086.89, 60355.25, 92338.72, 28310.70, 90416.23, 132925.63, 99021.33, 0.08, -0.28, 0.97
118, 87596.10, 137086.78, 60352.64, 92328.37, 28324.55, 90419.53, 132923.00, 99027.59, 0.00, 0.00, 0.00
119, 87595.14, 137096.95, 60360.32, 92343.73, 28344.11, 90432.45, 132932.28, 99026.92, 0.00, 0.00, 0.00
120, 87597.53, 137107.98, 60368.10, 92369.84, 28355.87, 90440.52, 132936.02, 99029.16, 0.00, 0.00, 0.00
121, 87592.98, 137088.72, 60363.63, 92365.59, 28352.43, 90439.87, 132933.33, 99024.91, 0.00, 0.00, 0.00
122, 87588.75, 137073.39, 60356.84, 92358.77, 28343.17, 90430.75, 132934.17, 99014.00, 0.00, 0.00, 0.00
123, 87589.98, 137078.34, 60355.61, 92354.03, 28346.79, 90437.13, 132928.97, 99014.05, 0.00, 0.00, 0.00
124, 87592.62, 137080.58, 60345.33, 92344.46, 28338.32, 90433.92, 132930.27, 99017.06, 0.00, 0.00, 0.00
125, 87598.95, 137086.55, 60360.64, 92366.59, 28349.07, 90443.45, 132943.05, 99022.13, 0.00, 0.00, 0.00
126, 87597.87, 137086.95, 60362.87, 92363.87, 28343.44, 90439.16, 132942.25, 99017.64, 0.00, 0.00, 0.00
127, 87597.11, 137094.39, 60362.25, 92359.38, 28338.50, 90433.32, 132937.64, 99014.00, 0.07, -0.27, 0.97
128, 87591.21, 137091.27, 60360.06, 92349.83, 28338.12, 90431.16, 132927.52, 99007.48, 0.00, 0.00, 0.00
129, 87594.16, 137091.22, 60361.15, 92352.29, 28328.02, 90428.25, 132931.39, 99013.27, 0.00, 0.00, 0.00
130, 87593.94, 137087.17, 60358.67, 92351.21, 28322.88, 90429.81, 132933.39, 99014.18, 0.00, 0.00, 0.00
131, 87593.98, 137087.73, 60362.98, 92355.13, 28332.22, 90433.57, 132936.06, 99014.73, 0.00, 0.00, 0.00
132, 87596.84, 137092.16, 60364.15, 92354.56, 28340.31, 90437.30, 132940.33, 99015.70, 0.00, 0.00, 0.00
133, 87600.28, 137095.09, 60365.24, 92359.55, 28337.50, 90438.24, 132947.70, 99020.82, 0.00, 0.00, 0.00
134, 87592.59, 137089.25, 60363.70, 92365.52, 28338.72, 90442.53, 132949.11, 99014.27, 0.00, 0.00, 0.00
135, 87585.28, 137084.08, 60352.43, 92346.34, 28325.56, 90431.06, 132941.42, 99005.48, 0.00, 0.00, 0.00
136, 87590.20, 137089.03, 60363.92, 92368.88, 28311.01, 90428.61, 132938.25, 99013.93, 0.00, 0.00, 0.00
137, 87590.98, 137093.33, 60363.88, 92369.95, 28340.09, 90437.57, 132938.98, 99017.29, 0.08, -0.27, 0.97
138, 87584.95, 137092.28, 60361.20, 92364.34, 28341.68, 90435.73, 132945.88, 99013.58, 0.00, 0.00, 0.00
139, 87599.08, 137097.70, 60367.05, 92366.10, 28350.08, 90447.56, 132959.08, 99026.41, 0.00, 0.00, 0.00
140, 87600.30, 137098.20, 60360.53, 92356.02, 28337.96, 90441.97, 132956.36, 99028.15, 0.00, 0.00, 0.00
141, 87584.93, 137087.63, 60354.49, 92350.34, 28328.22, 90424.80, 132938.77, 99008.19, 0.00, 0.00, 0.00
142, 87587.70, 137087.14, 60356.39, 92354.39, 28330.03, 90430.98, 132942.72, 99006.52, 0.00, 0.00, 0.00
143, 87588.73, 137092.86, 60363.86, 92365.88, 28343.55, 90444.34, 132951.91, 99009.75, 0.00, 0.00, 0.00
144, 87583.99, 137094.27, 60363.92, 92368.40, 28346.86, 90443.83, 132960.20, 99009.17, 0.00, 0.00, 0.00
145, 87592.66, 137108.41, 60374.21, 92376.59, 28353.28, 90449.48, 132970.91, 99024.23, 0.00, 0.00, 0.00
146, 87585.24, 137101.77, 60371.93, 92364.42, 28346.41, 90448.19, 132964.67, 99018.07, 0.00, 0.00, 0.00
147, 87580.66, 137084.09, 60364.80, 92358.79, 28338.61, 90435.20, 132946.25, 99008.50, 0.07, -0.26, 0.97
148, 87584.48, 137093.45, 60374.86, 92366.30, 28329.31, 90437.13, 132943.14, 99007.97, 0.00, 0.00, 0.00
149, 87578.13, 137094.59, 60368.13, 92360.29, 28324.98, 90430.75, 132942.78, 99004.23, 0.00, 0.00, 0.00
150, 87582.47, 137094.00, 60366.70, 92360.16, 28336.71, 90438.26, 132947.03, 99012.84, 0.00, 0.00, 0.00
151, 87586.09, 137097.86, 60368.91, 92361.74, 28344.92, 90438.77, 132948.02, 99015.72, 0.00, 0.00, 0.00
152, 87590.11, 137102.11, 60375.21, 92366.48, 28339.02, 90447.34, 132960.38, 99023.79, 0.00, 0.00, 0.00
153, 87580.59, 137100.33, 60373.27, 92367.53, 28341.52, 90442.46, 132960.80, 99015.56, 0.00, 0.00, 0.00
154, 87572.55, 137098.72, 60368.48, 92363.51, 28337.07, 90423.63, 132950.31, 99004.10, 0.00, 0.00, 0.00
155, 87581.42, 137101.38, 60367.43, 92358.48, 28335.26, 90441.21, 132963.81, 99016.80, 0.00, 0.00, 0.00
156, 87586.96, 137102.05, 60368.50, 92362.39, 28332.73, 90447.74, 132966.28, 99023.48, 0.00, 0.00, 0.00
157, 87580.01, 137099.89, 60363.54, 92358.77, 28315.26, 90434.40, 132955.34, 99013.55, 0.07, -0.26, 0.96
158, 87578.91, 137097.77, 60363.99, 92355.23, 28302.34, 90429.27, 132954.23, 99014.70, 0.00, 0.00, 0.00
159, 87590.02, 137101.55, 60368.02, 92359.33, 28316.96, 90435.11, 132972.98, 99021.38, 0.00, 0.00, 0.00
160, 87598.30, 137107.47, 60374.65, 92367.75, 28336.04, 90447.52, 132982.28, 99031.37, 0.00, 0.00, 0.00
161, 87598.18, 137105.66, 60372.46, 92369.32, 28344.22, 90453.10, 132975.59, 99030.43, 0.00, 0.00, 0.00
162, 87595.30, 137103.97, 60379.08, 92379.76, 28342.97, 90452.55, 132973.00, 99025.71, 0.00, 0.00, 0.00
163, 87592.88, 137099.05, 60370.67, 92368.83, 28346.57, 90447.25, 132962.47, 99021.47, 0.00, 0.00, 0.00
164, 87594.34, 137102.53, 60372.62, 92367.82, 28345.36, 90448.19, 132965.22, 99020.17, 0.00, 0.00, 0.00
165, 87594.31, 137103.66, 60373.98, 92370.84, 28352.09, 90452.99, 132973.27, 99018.25, 0.00, 0.00, 0.00
166, 87596.17, 137103.20, 60371.10, 92368.11, 28348.74, 90452.09, 132969.83, 99017.09, 0.06, -0.27, 0.96
167, 87610.07, 137110.17, 60373.16, 92368.11, 28344.58, 90459.81, 132981.81, 99033.52, 0.00, 0.00, 0.00
168, 87599.19, 137103.72, 60371.70, 92371.24, 28332.15, 90447.65, 132972.58, 99020.86, 0.00, 0.00, 0.00
169, 87588.10, 137099.53, 60371.23, 92371.46, 28330.77, 90436.97, 132956.83, 99008.41, 0.00, 0.00, 0.00
170, 87588.62, 137100.86, 60374.54, 92375.47, 28323.88, 90442.51, 132960.53, 99011.09, 0.00, 0.00, 0.00
171, 87588.39, 137093.73, 60370.18, 92369.68, 28320.60, 90441.88, 132960.52, 99007.63, 0.00, 0.00, 0.00
172, 87591.48, 137097.97, 60375.43, 92378.04, 28321.87, 90438.93, 132967.02, 99010.98, 0.00, 0.00, 0.00
173, 87591.59, 137103.30, 60378.00, 92382.20, 28342.84, 90454.24, 132975.08, 99014.96, 0.00, 0.00, 0.00
174, 87601.60, 137107.58, 60388.51, 92391.23, 28366.06, 90478.72, 132993.02, 99031.26, 0.00, 0.00, 0.00
175, 87589.27, 137095.77, 60383.59, 92383.91, 28357.17, 90463.27, 132981.59, 99014.85, 0.00, 0.00, 0.00
176, 87585.87, 137089.17, 60375.05, 92376.65, 28348.45, 90459.45, 132972.80, 99004.73, 0.07, -0.27, 0.96
177, 87589.98, 137092.30, 60376.04, 92375.55, 28341.21, 90454.42, 132971.97, 99009.04, 0.00, 0.00, 0.00
178, 87590.02, 137093.45, 60375.08, 92375.69, 28325.72, 90447.76, 132976.42, 99010.63, 0.00, 0.00, 0.00
179, 87596.91, 137096.56, 60377.80, 92380.85, 28318.61, 90450.06, 132987.02, 99022.83, 0.00, 0.00, 0.00
180, 87601.96, 137100.44, 60379.93, 92385.21, 28367.40, 90467.77, 132989.44, 99025.24, 0.00, 0.00, 0.00
181, 87603.26, 137098.69, 60380.51, 92382.98, 28361.35, 90467.05, 132993.02, 99028.77, 0.00, 0.00, 0.00
182, 87596.41, 137093.03, 60372.30, 92371.53, 28315.08, 90447.76, 132979.11, 99018.13, 0.00, 0.00, 0.00
183, 87595.55, 137094.16, 60375.77, 92377.70, 28313.42, 90440.88, 132972.84, 99019.07, 0.00, 0.00, 0.00
184, 87605.24, 137100.98, 60386.79, 92388.95, 28346.39, 90456.41, 132990.17, 99034.52, 0.00, 0.00, 0.00
185, 87610.14, 137099.16, 60381.16, 92384.07, 28323.26, 90448.84, 132983.94, 99038.70, 0.00, 0.00, 0.00
186, 87606.09, 137096.78, 60375.59, 92376.83, 28347.76, 90448.88, 132982.50, 99029.22, 0.07, -0.27, 0.96
187, 87613.11, 137102.28, 60380.96, 92385.63, 28359.91, 90458.29, 132993.81, 99031.84, 0.00, 0.00, 0.00
188, 87608.45, 137100.61, 60375.03, 92381.95, 28356.38, 90463.41, 132987.33, 99027.12, 0.00, 0.00, 0.00
189, 87605.36, 137096.50, 60377.94, 92391.36, 28328.73, 90444.30, 132983.89, 99026.92, 0.00, 0.00, 0.00
190, 87599.41, 137087.41, 60367.50, 92373.59, 28320.40, 90438.44, 132973.23, 99019.14, 0.00, 0.00, 0.00
191, 87605.27, 137090.23, 60366.63, 92369.95, 28334.34, 90459.98, 132980.45, 99022.78, 0.00, 0.00, 0.00
192, 87607.05, 137092.34, 60375.28, 92380.12, 28358.86, 90465.35, 132980.17, 99026.47, 0.00, 0.00, 0.00
193, 87600.30, 137093.44, 60384.55, 92395.80, 28356.63, 90462.36, 132977.92, 99023.01, 0.00, 0.00, 0.00
194, 87602.72, 137094.20, 60382.25, 92391.27, 28361.52, 90464.08, 132987.44, 99030.05, 0.00, 0.00, 0.00
195, 87600.04, 137094.64, 60387.64, 92396.61, 28356.12, 90468.30, 132990.50, 99028.38, 0.00, 0.00, 0.00
196, 87596.70, 137095.52, 60391.08, 92405.57, 28348.34, 90468.75, 132987.69, 99024.66, 0.07, -0.27, 0.97
197, 87603.08, 137092.75, 60389.18, 92398.84, 28341.68, 90461.20, 132980.72, 99029.04, 0.00, 0.00, 0.00
198, 87603.79, 137092.88, 60388.93, 92401.37, 28362.40, 90469.84, 132986.14, 99028.28, 0.00, 0.00, 0.00
199, 87584.39, 137084.27, 60376.33, 92392.48, 28348.74, 90453.53, 132968.31, 99007.38, 0.00, 0.00, 0.00
200, 87591.97, 137085.28, 60376.57, 92391.42, 28344.07, 90459.83, 132977.27, 99019.79, 0.00, 0.00, 0.00
201, 87603.77, 137091.30, 60381.56, 92393.57, 28327.62, 90459.95, 132986.34, 99030.30, 0.00, 0.00, 0.00
202, 87606.81, 137092.14, 60380.04, 92391.63, 28315.05, 90457.66, 132992.03, 99035.62, 0.00, 0.00, 0.00
203, 87610.97, 137092.14, 60382.05, 92395.38, 28325.87, 90464.99, 132996.56, 99041.23, 0.00, 0.00, 0.00
204, 87610.09, 137087.72, 60383.01, 92390.04, 28335.24, 90463.95, 132991.58, 99044.42, 0.00, 0.00, 0.00
205, 87617.02, 137090.31, 60390.39, 92405.62, 28357.01, 90470.67, 132993.30, 99050.95, 0.00, 0.00, 0.00
206, 87605.55, 137084.88, 60382.09, 92398.66, 28345.95, 90459.30, 132991.27, 99037.24, 0.07, -0.27, 0.97
207, 87601.38, 137083.73, 60380.31, 92393.05, 28330.84, 90457.55, 132990.42, 99029.47, 0.00, 0.00, 0.00
208, 87618.48, 137092.09, 60388.00, 92403.12, 28337.23, 90460.26, 132992.52, 99043.33, 0.00, 0.00, 0.00
209, 87603.39, 137085.45, 60384.62, 92401.64, 28339.06, 90461.10, 132989.55, 99031.59, 0.00, 0.00, 0.00
210, 87607.95, 137087.38, 60385.79, 92400.03, 28354.62, 90462.42, 132992.83, 99038.68, 0.00, 0.00, 0.00
211, 87609.09, 137083.59, 60381.52, 92397.70, 28363.71, 90467.97, 132994.55, 99040.13, 0.00, 0.00, 0.00
212, 87612.95, 137084.50, 60377.47, 92392.92, 28360.14, 90482.52, 133004.23, 99044.60, 0.00, 0.00, 0.00
213, 87614.05, 137086.55, 60377.27, 92391.09, 28355.67, 90480.17, 133008.59, 99045.74, 0.00, 0.00, 0.00
214, 87609.80, 137090.75, 60378.41, 92396.12, 28348.47, 90467.61, 133003.45, 99045.92, 0.00, 0.00, 0.00
215, 87602.34, 137088.56, 60371.75, 92387.31, 28333.49, 90459.27, 132996.55, 99038.30, 0.00, 0.00, 0.00
216, 87604.55, 137082.31, 60371.52, 92384.00, 28325.76, 90455.70, 132996.34, 99037.13, 0.06, -0.27, 0.96
217, 87600.75, 137079.41, 60372.75, 92385.97, 28318.34, 90452.74, 132995.28, 99032.80, 0.00, 0.00, 0.00
218, 87608.40, 137085.08, 60375.46, 92386.41, 28328.40, 90466.41, 133006.11, 99043.98, 0.00, 0.00, 0.00
219, 87617.56, 137091.02, 60380.71, 92399.60, 28337.50, 90472.44, 133011.27, 99049.25, 0.00, 0.00, 0.00
220, 87616.31, 137087.73, 60371.43, 92398.55, 28340.60, 90466.05, 133009.33, 99040.76, 0.00, 0.00, 0.00
221, 87611.88, 137087.73, 60377.29, 92403.88, 28330.90, 90458.49, 132999.94, 99037.63, 0.00, 0.00, 0.00
222, 87622.03, 137091.72, 60383.84, 92411.36, 28335.04, 90459.97, 133001.95, 99044.24, 0.00, 0.00, 0.00
223, 87614.52, 137082.94, 60370.47, 92395.16, 28341.18, 90465.95, 133001.30, 99034.88, 0.00, 0.00, 0.00
224, 87607.59, 137080.63, 60371.01, 92392.56, 28333.88, 90459.77, 133003.30, 99031.59, 0.00, 0.00, 0.00
225, 87612.11, 137080.88, 60370.45, 92390.24, 28318.16, 90457.48, 133007.19, 99031.21, 0.00, 0.00, 0.00
226, 87610.90, 137081.14, 60374.14, 92397.10, 28312.91, 90456.88, 133006.64, 99029.84, 0.07, -0.27, 0.96
227, 87611.57, 137085.39, 60381.58, 92407.09, 28328.60, 90462.05, 133012.36, 99031.05, 0.00, 0.00, 0.00
228, 87618.59, 137091.67, 60382.66, 92406.38, 28352.29, 90471.88, 133018.16, 99036.40, 0.00, 0.00, 0.00
229, 87614.21, 137085.02, 60380.15, 92408.66, 28342.17, 90458.94, 133004.63, 99026.38, 0.00, 0.00, 0.00
230, 87618.90, 137081.95, 60375.73, 92399.29, 28325.07, 90456.81, 133007.88, 99033.18, 0.00, 0.00, 0.00
231, 87631.76, 137088.86, 60384.02, 92404.68, 28331.48, 90470.88, 133032.11, 99056.09, 0.00, 0.00, 0.00
232, 87619.93, 137082.38, 60373.65, 92391.18, 28330.39, 90461.02, 133019.20, 99045.27, 0.00, 0.00, 0.00
233, 87608.91, 137081.86, 60368.33, 92385.73, 28281.13, 90445.08, 133006.23, 99034.32, 0.00, 0.00, 0.00
234, 87614.90, 137087.95, 60373.02, 92397.82, 28341.41, 90465.87, 133018.13, 99038.07, 0.00, 0.00, 0.00
235, 87619.30, 137091.61, 60378.30, 92401.51, 28357.70, 90479.73, 133034.98, 99041.49, 0.00, 0.00, 0.00
236, 87606.48, 137090.28, 60377.51, 92399.83, 28344.18, 90466.42, 133023.78, 99033.38, 0.07, -0.27, 0.96
237, 87603.05, 137083.47, 60370.61, 92393.30, 28332.87, 90457.04, 133016.66, 99028.69, 0.00, 0.00, 0.00
238, 87610.54, 137086.47, 60372.17, 92395.38, 28329.29, 90461.59, 133022.95, 99034.95, 0.00, 0.00, 0.00
239, 87620.49, 137094.86, 60387.57, 92418.54, 28348.00, 90479.05, 133040.13, 99048.22, 0.00, 0.00, 0.00
240, 87610.81, 137089.75, 60384.33, 92414.16, 28340.94, 90475.88, 133034.73, 99041.29, 0.00, 0.00, 0.00
241, 87607.46, 137088.78, 60378.88, 92403.43, 28323.82, 90464.66, 133028.14, 99035.86, 0.00, 0.00, 0.00
242, 87604.87, 137086.78, 60372.33, 92395.49, 28323.01, 90463.85, 133033.88, 99035.48, 0.00, 0.00, 0.00
243, 87617.56, 137088.16, 60375.79, 92402.58, 28338.14, 90468.15, 133042.86, 99046.63, 0.00, 0.00, 0.00
244, 87628.09, 137092.78, 60384.71, 92416.44, 28340.27, 90487.41, 133055.55, 99053.74, 0.00, 0.00, 0.00
245, 87610.97, 137087.30, 60376.62, 92408.01, 28334.72, 90476.26, 133044.98, 99033.89, 0.00, 0.00, 0.00
246, 87615.62, 137087.80, 60375.17, 92402.09, 28340.92, 90477.78, 133042.81, 99031.81, 0.08, -0.27, 0.96
247, 87612.17, 137085.03, 60372.57, 92390.48, 28330.28, 90470.27, 133038.88, 99031.70, 0.00, 0.00, 0.00
248, 87614.16, 137089.77, 60381.00, 92416.91, 28316.89, 90462.67, 133042.56, 99036.40, 0.00, 0.00, 0.00
249, 87614.05, 137089.88, 60375.17, 92408.57, 28316.84, 90465.66, 133043.23, 99035.13, 0.00, 0.00, 0.00
250, 87622.05, 137095.05, 60381.40, 92414.88, 28333.79, 90476.15, 133054.88, 99044.96, 0.00, 0.00, 0.00
251, 87618.43, 137093.50, 60375.70, 92407.20, 28335.26, 90472.28, 133045.36, 99034.98, 0.00, 0.00, 0.00
252, 87615.66, 137083.77, 60372.60, 92404.26, 28332.98, 90471.05, 133045.72, 99031.23, 0.00, 0.00, 0.00
253, 87617.47, 137083.77, 60378.14, 92391.34, 28340.13, 90475.59, 133052.28, 99038.27, 0.00, 0.00, 0.00
254, 87623.33, 137091.20, 60389.07, 92399.60, 28360.50, 90480.55, 133057.56, 99043.51, 0.00, 0.00, 0.00
255, 87618.55, 137091.73, 60392.36, 92407.54, 28344.78, 90477.55, 133058.48, 99041.76, 0.00, 0.00, 0.00
0, 87610.43, 137081.44, 60381.87, 92399.74, 28327.93, 90469.27, 133056.06, 99033.42, 0.07, -0.27, 0.97
1, 87614.05, 137086.34, 60381.58, 92404.52, 28311.59, 90463.90, 133056.23, 99033.71, 0.00, 0.00, 0.00
2, 87617.16, 137093.59, 60387.21, 92410.91, 28326.83, 90477.65, 133059.78, 99037.02, 0.00, 0.00, 0.00
3, 87624.53, 137092.66, 60379.68, 92395.63, 28330.84, 90471.56, 133061.45, 99040.87, 0.00, 0.00, 0.00
4, 87626.37, 137092.25, 60379.12, 92396.59, 28330.03, 90479.70, 133073.52, 99050.55, 0.00, 0.00, 0.00
5, 87621.96, 137091.64, 60380.00, 92398.29, 28326.86, 90483.39, 133076.05, 99048.53, 0.00, 0.00, 0.00
6, 87628.40, 137095.78, 60382.70, 92407.61, 28341.81, 90489.49, 133082.75, 99048.24, 0.00, 0.00, 0.00
7, 87625.18, 137095.42, 60386.27, 92420.98, 28346.84, 90488.27, 133083.59, 99044.09, 0.00, 0.00, 0.00
8, 87625.81, 137096.95, 60384.24, 92412.30, 28342.23, 90487.50, 133082.97, 99045.63, 0.00, 0.00, 0.00
9, 87628.96, 137090.23, 60378.52, 92399.90, 28325.36, 90481.71, 133080.67, 99042.88, 0.00, 0.00, 0.00
10, 87633.45, 137088.00, 60376.17, 92395.94, 28325.02, 90479.86, 133083.27, 99046.95, 0.07, -0.27, 0.97
11, 87628.91, 137088.75, 60376.71, 92402.17, 28332.87, 90477.89, 133075.48, 99039.26, 0.00, 0.00, 0.00
12, 87625.85, 137090.69, 60373.76, 92400.52, 28335.10, 90476.23, 133071.73, 99035.99, 0.00, 0.00, 0.00
13, 87634.73, 137093.55, 60382.61, 92404.45, 28339.75, 90484.24, 133086.97, 99049.77, 0.00, 0.00, 0.00
14, 87625.23, 137088.42, 60382.66, 92403.02, 28336.42, 90482.90, 133087.77, 99044.64, 0.00, 0.00, 0.00
15, 87614.84, 137088.41, 60378.63, 92393.55, 28320.08, 90475.70, 133076.36, 99030.61, 0.00, 0.00, 0.00
16, 87621.65, 137093.81, 60385.63, 92413.91, 28314.88, 90479.88, 133075.98, 99032.46, 0.00, 0.00, 0.00
17, 87627.09, 137086.02, 60391.24, 92429.18, 28352.34, 90485.58, 133083.00, 99039.99, 0.00, 0.00, 0.00
18, 87622.48, 137088.05, 60390.70, 92428.02, 28369.32, 90492.98, 133094.52, 99036.17, 0.00, 0.00, 0.00
19, 87622.21, 137089.59, 60395.37, 92429.96, 28347.76, 90488.66, 133092.27, 99037.88, 0.00, 0.00, 0.00
20, 87622.44, 137083.44, 60386.68, 92416.23, 28333.27, 90480.17, 133085.28, 99035.21, 0.06, -0.27, 0.97
21, 87618.88, 137084.67, 60382.21, 92410.24, 28331.04, 90472.66, 133080.19, 99033.40, 0.00, 0.00, 0.00
22, 87619.53, 137089.13, 60385.87, 92412.63, 28342.70, 90480.06, 133086.58, 99036.09, 0.00, 0.00, 0.00
23, 87620.47, 137092.41, 60391.04, 92414.78, 28347.02, 90486.05, 133095.33, 99033.18, 0.00, 0.00, 0.00
24, 87627.80, 137094.58, 60389.23, 92415.50, 28347.89, 90492.29, 133103.38, 99039.08, 0.00, 0.00, 0.00
25, 87618.01, 137089.03, 60378.56, 92404.43, 28336.89, 90484.46, 133099.22, 99030.09, 0.00, 0.00, 0.00
26, 87616.98, 137096.56, 60392.46, 92412.03, 28336.22, 90483.19, 133103.42, 99033.05, 0.00, 0.00, 0.00
27, 87624.45, 137097.84, 60387.55, 92410.52, 28336.54, 90486.90, 133107.52, 99039.59, 0.00, 0.00, 0.00
28, 87623.82, 137087.73, 60381.40, 92408.08, 28327.82, 90480.28, 133104.28, 99038.50, 0.00, 0.00, 0.00
29, 87615.86, 137082.55, 60374.03, 92393.81, 28326.74, 90479.59, 133099.69, 99031.05, 0.00, 0.00, 0.00
30, 87613.00, 137083.05, 60386.88, 92405.80, 28328.00, 90475.08, 133092.00, 99023.39, 0.07, -0.27, 0.96
31, 87619.20, 137086.80, 60392.15, 92409.80, 28324.71, 90471.37, 133093.86, 99030.90, 0.00, 0.00, 0.00
32, 87615.59, 137087.25, 60388.85, 92405.66, 28322.72, 90477.73, 133099.53, 99032.57, 0.00, 0.00, 0.00
33, 87618.55, 137094.13, 60395.15, 92417.35, 28331.97, 90483.28, 133107.42, 99032.59, 0.00, 0.00, 0.00
34, 87612.98, 137088.20, 60386.30, 92411.18, 28333.16, 90487.03, 133108.72, 99023.70, 0.00, 0.00, 0.00
35, 87611.75, 137082.06, 60383.04, 92406.53, 28328.80, 90484.30, 133111.03, 99021.60, 0.00, 0.00, 0.00
36, 87609.73, 137082.33, 60383.08, 92403.13, 28344.71, 90488.04, 133115.11, 99020.64, 0.00, 0.00, 0.00
37, 87611.73, 137083.89, 60384.42, 92409.82, 28342.99, 90486.27, 133115.88, 99025.35, 0.00, 0.00, 0.00
38, 87618.16, 137089.48, 60383.70, 92411.18, 28347.87, 90496.35, 133121.98, 99032.51, 0.00, 0.00, 0.00
39, 87616.73, 137092.55, 60384.11, 92412.32, 28345.21, 90503.23, 133130.97, 99036.84, 0.00, 0.00, 0.00
40, 87623.22, 137093.14, 60385.65, 92411.98, 28349.45, 90505.41, 133138.86, 99044.38, 0.07, -0.27, 0.96
41, 87619.35, 137087.95, 60378.14, 92402.51, 28330.41, 90487.88, 133126.67, 99037.88, 0.00, 0.00, 0.00
42, 87620.16, 137091.97, 60378.70, 92403.31, 28328.06, 90482.92, 133121.59, 99034.52, 0.00, 0.00, 0.00
43, 87616.96, 137103.34, 60382.03, 92405.06, 28324.06, 90477.45, 133119.25, 99031.26, 0.00, 0.00, 0.00
44, 87612.58, 137091.78, 60379.19, 92403.49, 28317.07, 90468.95, 133114.89, 99025.00, 0.00, 0.00, 0.00
45, 87614.16, 137082.53, 60380.75, 92405.22, 28313.38, 90470.16, 133116.06, 99024.10, 0.00, 0.00, 0.00
46, 87615.95, 137088.34, 60380.75, 92403.41, 28323.15, 90471.90, 133117.52, 99023.30, 0.00, 0.00, 0.00
47, 87620.42, 137093.86, 60381.29, 92405.59, 28322.74, 90471.43, 133119.97, 99026.78, 0.00, 0.00, 0.00
48, 87620.53, 137093.59, 60378.47, 92403.07, 28342.88, 90479.21, 133123.75, 99028.80, 0.00, 0.00, 0.00
49, 87622.21, 137106.94, 60385.09, 92413.77, 28342.19, 90485.06, 133127.59, 99031.70, 0.00, 0.00, 0.00
50, 87618.12, 137103.31, 60383.55, 92413.75, 28339.24, 90484.17, 133126.94, 99031.16, 0.07, -0.27, 0.96
51, 87616.33, 137092.25, 60378.18, 92408.59, 28333.94, 90480.08, 133135.55, 99033.22, 0.00, 0.00, 0.00
52, 87617.63, 137087.56, 60374.00, 92401.26, 28331.51, 90477.13, 133136.33, 99037.00, 0.00, 0.00, 0.00
53, 87618.41, 137083.11, 60367.81, 92390.27, 28322.30, 90477.58, 133134.11, 99035.13, 0.00, 0.00, 0.00
54, 87616.84, 137083.33, 60372.11, 92399.27, 28314.09, 90470.88, 133132.31, 99033.83, 0.00, 0.00, 0.00
55, 87617.49, 137084.00, 60368.24, 92385.41, 28335.44, 90474.52, 133130.97, 99037.65, 0.00, 0.00, 0.00
56, 87613.54, 137082.17, 60364.48, 92380.41, 28313.13, 90464.16, 133122.34, 99030.90, 0.00, 0.00, 0.00
57, 87613.27, 137085.33, 60370.47, 92407.34, 28316.15, 90467.85, 133127.19, 99033.22, 0.00, 0.00, 0.00
58, 87622.39, 137091.45, 60383.77, 92436.75, 28316.28, 90473.53, 133134.34, 99039.99, 0.00, 0.00, 0.00
59, 87627.91, 137092.23, 60380.20, 92424.52, 28317.80, 90473.22, 133139.25, 99043.51, 0.00, 0.00, 0.00
60, 87629.66, 137096.36, 60379.21, 92419.05, 28350.35, 90492.02, 133146.30, 99044.80, 0.07, -0.28, 0.96
61, 87629.01, 137092.47, 60373.16, 92411.90, 28351.24, 90486.14, 133142.86, 99041.11, 0.00, 0.00, 0.00
62, 87630.48, 137088.75, 60370.05, 92407.70, 28328.82, 90478.43, 133143.45, 99048.09, 0.00, 0.00, 0.00
63, 87635.24, 137089.45, 60368.77, 92403.00, 28322.54, 90481.00, 133148.23, 99056.29, 0.00, 0.00, 0.00
64, 87627.84, 137088.61, 60372.20, 92410.02, 28314.16, 90470.90, 133140.22, 99046.77, 0.00, 0.00, 0.00
65, 87625.41, 137097.73, 60376.29, 92414.40, 28350.26, 90481.06, 133134.42, 99036.09, 0.00, 0.00, 0.00
66, 87624.73, 137096.61, 60372.98, 92412.99, 28352.25, 90480.46, 133132.97, 99034.20, 0.00, 0.00, 0.00
67, 87627.24, 137079.20, 60372.68, 92413.75, 28346.57, 90477.16, 133134.58, 99039.39, 0.00, 0.00, 0.00
68, 87635.35, 137085.56, 60376.06, 92416.70, 28344.04, 90480.26, 133141.36, 99048.47, 0.00, 0.00, 0.00
69, 87628.80, 137088.56, 60380.57, 92416.19, 28344.94, 90484.66, 133138.92, 99040.04, 0.00, 0.00, 0.00
70, 87626.44, 137086.06, 60375.14, 92411.43, 28343.78, 90478.09, 133133.38, 99036.22, 0.06, -0.27, 0.97
71, 87633.32, 137087.88, 60372.48, 92414.34, 28345.50, 90483.08, 133136.55, 99043.21, 0.00, 0.00, 0.00
72, 87635.22, 137082.78, 60362.36, 92401.44, 28322.59, 90470.43, 133131.70, 99037.27, 0.00, 0.00, 0.00
73, 87643.04, 137083.80, 60360.64, 92400.55, 28322.05, 90466.72, 133135.13, 99047.66, 0.00, 0.00, 0.00
74, 87629.01, 137096.13, 60369.64, 92402.63, 28335.62, 90478.36, 133147.69, 99049.61, 0.00, 0.00, 0.00
75, 87616.73, 137097.84, 60380.87, 92398.27, 28321.65, 90481.04, 133152.89, 99040.64, 0.00, 0.00, 0.00
76, 87619.88, 137083.42, 60379.08, 92411.02, 28319.57, 90477.53, 133148.72, 99037.54, 0.00, 0.00, 0.00
77, 87627.84, 137088.77, 60379.19, 92408.01, 28329.54, 90474.07, 133147.58, 99047.02, 0.00, 0.00, 0.00
78, 87624.40, 137094.16, 60380.15, 92403.70, 28327.77, 90478.77, 133151.11, 99045.94, 0.00, 0.00, 0.00
79, 87613.25, 137088.67, 60376.55, 92401.80, 28306.45, 90474.23, 133149.45, 99032.40, 0.00, 0.00, 0.00
80, 87618.30, 137098.52, 60380.66, 92412.19, 28323.10, 90483.68, 133159.75, 99044.60, 0.07, -0.28, 0.96
81, 87618.70, 137094.36, 60394.48, 92427.19, 28337.36, 90490.32, 133162.91, 99048.22, 0.00, 0.00, 0.00
82, 87611.02, 137087.41, 60385.67, 92419.09, 28341.25, 90491.08, 133152.75, 99034.07, 0.00, 0.00, 0.00
83, 87615.30, 137089.61, 60379.59, 92411.48, 28340.98, 90488.40, 133156.88, 99037.73, 0.00, 0.00, 0.00
84, 87620.34, 137094.78, 60382.43, 92418.23, 28322.56, 90483.13, 133160.17, 99043.68, 0.00, 0.00, 0.00
85, 87613.94, 137090.52, 60382.36, 92418.27, 28318.14, 90478.16, 133151.81, 99037.34, 0.00, 0.00, 0.00
86, 87619.30, 137093.84, 60379.82, 92409.51, 28319.64, 90482.95, 133158.19, 99042.79, 0.00, 0.00, 0.00
87, 87619.53, 137099.19, 60381.29, 92406.87, 28337.05, 90488.98, 133159.17, 99043.73, 0.00, 0.00, 0.00
88, 87619.64, 137100.91, 60386.59, 92412.66, 28359.33, 90497.94, 133166.69, 99045.23, 0.00, 0.00, 0.00
89, 87615.44, 137096.13, 60386.50, 92414.20, 28338.50, 90487.63, 133161.09, 99037.29, 0.00, 0.00, 0.00
90, 87612.55, 137095.77, 60388.71, 92420.19, 28344.54, 90488.40, 133159.73, 99036.40, 0.07, -0.27, 0.97
91, 87609.36, 137096.31, 60390.03, 92425.20, 28347.51, 90488.22, 133161.09, 99040.89, 0.00, 0.00, 0.00
92, 87610.01, 137095.52, 60386.32, 92417.33, 28337.99, 90486.79, 133159.95, 99039.37, 0.00, 0.00, 0.00
93, 87617.56, 137098.27, 60395.17, 92426.45, 28334.39, 90488.69, 133165.13, 99043.37, 0.00, 0.00, 0.00
94, 87616.82, 137098.83, 60398.19, 92429.02, 28333.65, 90493.96, 133170.58, 99041.85, 0.00, 0.00, 0.00
95, 87613.94, 137096.09, 60390.90, 92417.95, 28323.21, 90490.61, 133169.44, 99040.40, 0.00, 0.00, 0.00
96, 87608.40, 137092.77, 60386.52, 92411.12, 28329.47, 90486.19, 133163.73, 99038.90, 0.00, 0.00, 0.00
97, 87608.69, 137093.39, 60390.68, 92415.09, 28330.57, 90489.00, 133165.41, 99038.74, 0.00, 0.00, 0.00
98, 87605.18, 137090.53, 60384.31, 92406.18, 28322.07, 90487.21, 133171.69, 99034.12, 0.00, 0.00, 0.00
99, 87602.97, 137091.20, 60383.08, 92404.86, 28308.73, 90477.69, 133167.39, 99030.49, 0.00, 0.00, 0.00
100, 87608.98, 137096.98, 60389.74, 92412.59, 28311.59, 90483.84, 133168.52, 99034.50, 0.06, -0.27, 0.97
101, 87612.55, 137094.08, 60389.85, 92410.89, 28315.52, 90487.55, 133175.31, 99040.20, 0.00, 0.00, 0.00
102, 87609.16, 137092.16, 60384.26, 92404.63, 28310.83, 90482.63, 133169.86, 99037.65, 0.00, 0.00, 0.00
103, 87602.20, 137098.08, 60384.26, 92408.23, 28342.32, 90493.56, 133170.70, 99030.49, 0.00, 0.00, 0.00
104, 87603.26, 137097.03, 60386.72, 92415.20, 28338.84, 90491.46, 133171.05, 99035.59, 0.00, 0.00, 0.00
105, 87602.81, 137093.17, 60390.81, 92421.58, 28319.37, 90484.24, 133167.84, 99035.52, 0.00, 0.00, 0.00
106, 87607.08, 137094.00, 60391.71, 92418.02, 28324.38, 90484.09, 133171.39, 99034.67, 0.00, 0.00, 0.00
107, 87615.46, 137099.47, 60397.05, 92420.41, 28316.22, 90478.92, 133175.95, 99045.23, 0.00, 0.00, 0.00
108, 87612.35, 137096.88, 60393.81, 92414.60, 28309.29, 90483.28, 133169.88, 99040.82, 0.00, 0.00, 0.00
109, 87596.33, 137092.09, 60383.88, 92393.44, 28311.19, 90486.25, 133167.83, 99025.13, 0.00, 0.00, 0.00
110, 87600.26, 137099.72, 60384.00, 92392.99, 28314.94, 90485.76, 133172.77, 99031.88, 0.07, -0.26, 0.97
111, 87606.20, 137108.30, 60392.82, 92410.11, 28343.93, 90495.80, 133182.11, 99039.08, 0.00, 0.00, 0.00
112, 87602.30, 137088.03, 60393.43, 92410.06, 28301.20, 90476.48, 133174.50, 99033.05, 0.00, 0.00, 0.00
113, 87606.38, 137092.77, 60400.11, 92418.23, 28335.22, 90491.91, 133182.84, 99036.30, 0.00, 0.00, 0.00
114, 87610.84, 137096.05, 60397.74, 92419.59, 28364.79, 90503.30, 133189.80, 99039.44, 0.00, 0.00, 0.00
115, 87597.58, 137091.22, 60384.87, 92404.81, 28343.75, 90485.47, 133172.67, 99023.81, 0.00, 0.00, 0.00
116, 87597.34, 137091.30, 60390.48, 92409.66, 28338.12, 90486.25, 133174.77, 99024.88, 0.00, 0.00, 0.00
117, 87603.73, 137096.83, 60396.22, 92417.20, 28337.79, 90492.91, 133184.63, 99029.04, 0.00, 0.00, 0.00
118, 87598.70, 137099.98, 60396.60, 92418.20, 28330.90, 90492.73, 133187.53, 99026.43, 0.00, 0.00, 0.00
119, 87607.01, 137099.78, 60398.46, 92422.09, 28344.38, 90498.05, 133186.73, 99031.86, 0.00, 0.00, 0.00
120, 87606.01, 137092.92, 60396.11, 92419.23, 28337.81, 90497.29, 133186.02, 99029.16, 0.07, -0.27, 0.97
121, 87601.98, 137093.69, 60392.55, 92412.93, 28327.91, 90492.46, 133184.58, 99025.69, 0.00, 0.00, 0.00
122, 87606.27, 137094.98, 60394.77, 92415.05, 28336.00, 90494.09, 133187.41, 99032.69, 0.00, 0.00, 0.00
123, 87616.76, 137095.00, 60395.82, 92417.45, 28337.72, 90499.13, 133195.22, 99046.81, 0.00, 0.00, 0.00
124, 87612.30, 137093.25, 60391.44, 92412.34, 28330.48, 90497.77, 133196.67, 99040.77, 0.00, 0.00, 0.00
125, 87607.93, 137093.95, 60390.48, 92406.84, 28316.82, 90487.68, 133190.44, 99030.98, 0.00, 0.00, 0.00
126, 87603.81, 137093.25, 60389.25, 92403.13, 28310.85, 90482.52, 133185.80, 99029.09, 0.00, 0.00, 0.00
127, 87606.38, 137094.55, 60389.74, 92401.75, 28312.95, 90491.44, 133186.17, 99033.27, 0.00, 0.00, 0.00
128, 87604.35, 137096.70, 60391.86, 92407.34, 28314.05, 90493.13, 133197.02, 99032.44, 0.00, 0.00, 0.00
129, 87606.36, 137098.80, 60394.88, 92417.60, 28314.43, 90494.03, 133197.75, 99035.91, 0.00, 0.00, 0.00
130, 87601.18, 137096.97, 60390.72, 92408.84, 28306.65, 90494.68, 133190.16, 99033.87, 0.07, -0.27, 0.97
131, 87595.41, 137094.73, 60392.98, 92408.73, 28316.40, 90492.69, 133186.48, 99026.23, 0.00, 0.00, 0.00
132, 87603.28, 137095.69, 60394.84, 92411.16, 28338.39, 90496.31, 133188.86, 99028.35, 0.00, 0.00, 0.00
133, 87606.34, 137097.45, 60396.20, 92409.59, 28332.78, 90498.03, 133191.58, 99029.84, 0.00, 0.00, 0.00
134, 87613.78, 137104.41, 60402.68, 92423.07, 28329.67, 90505.23, 133200.86, 99039.66, 0.00, 0.00, 0.00
135, 87598.95, 137099.03, 60394.59, 92414.47, 28310.00, 90490.05, 133186.95, 99021.98, 0.00, 0.00, 0.00
136, 87602.32, 137094.69, 60387.06, 92402.55, 28322.10, 90496.60, 133188.86, 99026.43, 0.00, 0.00, 0.00
137, 87610.61, 137098.31, 60398.86, 92417.66, 28307.61, 90488.15, 133186.69, 99034.56, 0.00, 0.00, 0.00
138, 87615.23, 137104.36, 60408.58, 92438.25, 28339.17, 90498.03, 133187.48, 99032.40, 0.00, 0.00, 0.00
139, 87611.19, 137101.55, 60400.16, 92432.30, 28366.08, 90514.33, 133190.67, 99030.98, 0.00, 0.00, 0.00
140, 87611.15, 137101.48, 60395.66, 92425.48, 28342.55, 90512.94, 133199.88, 99035.55, 0.07, -0.27, 0.97
141, 87597.22, 137093.25, 60394.34, 92410.80, 28316.71, 90497.74, 133191.50, 99022.09, 0.00, 0.00, 0.00
142, 87589.13, 137087.58, 60389.63, 92396.95, 28318.16, 90489.49, 133181.88, 99012.19, 0.00, 0.00, 0.00
143, 87602.38, 137092.75, 60392.51, 92397.03, 28322.50, 90494.19, 133188.19, 99021.89, 0.00, 0.00, 0.00
144, 87600.38, 137094.16, 60390.93, 92396.21, 28325.27, 90494.41, 133187.41, 99018.31, 0.00, 0.00, 0.00
145, 87598.07, 137093.39, 60393.32, 92407.63, 28317.94, 90490.38, 133187.06, 99019.38, 0.00, 0.00, 0.00
146, 87598.07, 137091.98, 60388.42, 92403.02, 28314.67, 90488.09, 133182.78, 99019.16, 0.00, 0.00, 0.00
147, 87601.16, 137097.73, 60389.81, 92404.81, 28319.35, 90490.27, 133187.72, 99022.77, 0.00, 0.00, 0.00
148, 87605.63, 137100.67, 60393.11, 92409.91, 28318.74, 90493.65, 133193.17, 99026.47, 0.00, 0.00, 0.00
149, 87606.25, 137096.52, 60390.97, 92406.83, 28311.46, 90488.71, 133188.47, 99023.39, 0.00, 0.00, 0.00
150, 87599.75, 137091.09, 60385.70, 92398.63, 28311.21, 90482.48, 133183.11, 99014.16, 0.07, -0.26, 0.97
151, 87595.73, 137090.28, 60385.43, 92395.72, 28308.10, 90486.09, 133187.36, 99013.73, 0.00, 0.00, 0.00
152, 87592.73, 137091.88, 60383.30, 92392.01, 28301.58, 90482.88, 133185.19, 99015.56, 0.00, 0.00, 0.00
153, 87594.23, 137092.20, 60380.60, 92389.30, 28297.22, 90477.31, 133180.77, 99015.90, 0.00, 0.00, 0.00
154, 87601.29, 137094.00, 60382.41, 92396.30, 28300.46, 90478.05, 133183.16, 99021.45, 0.00, 0.00, 0.00
155, 87598.65, 137092.86, 60379.28, 92394.24, 28307.99, 90484.42, 133180.81, 99016.77, 0.00, 0.00, 0.00
156, 87600.87, 137095.72, 60385.94, 92397.77, 28315.77, 90492.73, 133185.50, 99019.12, 0.00, 0.00, 0.00
157, 87603.99, 137092.61, 60390.34, 92402.16, 28311.86, 90491.13, 133182.42, 99022.63, 0.00, 0.00, 0.00
158, 87599.28, 137090.80, 60384.35, 92396.09, 28307.23, 90488.06, 133179.67, 99020.99, 0.00, 0.00, 0.00
159, 87597.73, 137093.30, 60382.90, 92395.70, 28316.28, 90492.98, 133185.56, 99017.24, 0.00, 0.00, 0.00
160, 87595.68, 137094.89, 60391.53, 92407.05, 28318.18, 90495.20, 133186.17, 99011.02, 0.07, -0.27, 0.97
161, 87582.94, 137085.09, 60390.30, 92402.96, 28299.28, 90483.57, 133176.36, 98999.65, 0.00, 0.00, 0.00
162, 87580.41, 137083.31, 60390.95, 92406.65, 28306.03, 90483.34, 133175.36, 98999.92, 0.00, 0.00, 0.00
163, 87589.69, 137089.66, 60393.43, 92412.84, 28313.18, 90491.02, 133186.42, 99007.67, 0.00, 0.00, 0.00
164, 87598.80, 137094.28, 60393.38, 92412.93, 28332.04, 90501.49, 133195.03, 99016.41, 0.00, 0.00, 0.00
165, 87596.51, 137093.39, 60400.49, 92427.21, 28339.06, 90508.94, 133194.06, 99014.91, 0.00, 0.00, 0.00
166, 87586.27, 137087.16, 60395.08, 92410.42, 28320.46, 90495.26, 133184.63, 99002.34, 0.00, 0.00, 0.00
167, 87585.87, 137087.84, 60394.59, 92403.29, 28319.75, 90490.38, 133179.16, 99002.49, 0.00, 0.00, 0.00
168, 87591.30, 137091.45, 60396.89, 92410.18, 28333.34, 90497.07, 133188.77, 99010.13, 0.00, 0.00, 0.00
169, 87602.32, 137094.39, 60399.57, 92415.27, 28349.05, 90511.44, 133203.78, 99021.20, 0.00, 0.00, 0.00
170, 87602.95, 137095.14, 60407.53, 92414.02, 28341.68, 90495.03, 133200.44, 99018.41, 0.07, -0.27, 0.96
171, 87595.99, 137091.58, 60402.73, 92412.88, 28333.16, 90503.62, 133195.73, 99008.88, 0.00, 0.00, 0.00
172, 87595.77, 137093.53, 60400.51, 92407.96, 28324.71, 90501.36, 133191.11, 99011.05, 0.00, 0.00, 0.00
173, 87590.63, 137094.02, 60396.20, 92403.47, 28320.42, 90492.51, 133186.69, 99007.59, 0.00, 0.00, 0.00
174, 87594.05, 137094.44, 60398.93, 92408.01, 28330.92, 90509.05, 133196.14, 99014.11, 0.00, 0.00, 0.00
175, 87592.86, 137090.94, 60394.21, 92398.84, 28327.24, 90504.04, 133196.48, 99013.62, 0.00, 0.00, 0.00
176, 87594.61, 137093.81, 60404.34, 92415.48, 28327.42, 90502.95, 133197.45, 99016.99, 0.00, 0.00, 0.00
177, 87594.12, 137095.42, 60406.01, 92417.73, 28321.63, 90498.48, 133199.14, 99016.19, 0.00, 0.00, 0.00
178, 87599.70, 137096.34, 60400.47, 92408.14, 28318.34, 90498.99, 133202.98, 99020.59, 0.00, 0.00, 0.00
179, 87597.42, 137094.52, 60397.27, 92407.23, 28325.11, 90503.41, 133203.50, 99019.66, 0.00, 0.00, 0.00
180, 87602.88, 137093.69, 60391.46, 92399.23, 28311.63, 90496.13, 133199.58, 99020.26, 0.07, -0.27, 0.97
181, 87609.36, 137094.13, 60391.80, 92394.27, 28286.06, 90488.80, 133198.33, 99022.54, 0.00, 0.00, 0.00
182, 87608.35, 137093.09, 60391.53, 92397.59, 28313.49, 90489.45, 133190.75, 99020.57, 0.00, 0.00, 0.00
183, 87605.63, 137095.88, 60399.20, 92416.84, 28328.35, 90497.34, 133200.50, 99022.38, 0.00, 0.00, 0.00
184, 87612.22, 137103.31, 60406.17, 92414.98, 28324.26, 90501.70, 133218.72, 99028.38, 0.00, 0.00, 0.00
185, 87607.84, 137094.83, 60393.83, 92402.80, 28337.85, 90499.33, 133206.05, 99022.56, 0.00, 0.00, 0.00
186, 87611.46, 137095.63, 60394.75, 92403.13, 28340.78, 90497.38, 133207.63, 99026.56, 0.00, 0.00, 0.00
187, 87609.29, 137091.31, 60389.81, 92397.03, 28321.25, 90503.20, 133208.44, 99024.28, 0.00, 0.00, 0.00
188, 87610.32, 137094.17, 60389.89, 92396.61, 28318.38, 90502.97, 133211.44, 99025.22, 0.00, 0.00, 0.00
189, 87596.28, 137091.14, 60388.24, 92393.68, 28334.54, 90503.38, 133203.25, 99013.17, 0.00, 0.00, 0.00
190, 87602.52, 137088.75, 60389.63, 92395.88, 28325.76, 90502.43, 133204.61, 99019.66, 0.07, -0.27, 0.96
191, 87602.70, 137090.02, 60390.68, 92400.84, 28313.83, 90496.60, 133201.95, 99018.96, 0.00, 0.00, 0.00
192, 87599.75, 137094.70, 60393.23, 92403.43, 28334.19, 90504.42, 133205.11, 99018.70, 0.00, 0.00, 0.00
193, 87604.48, 137095.77, 60396.20, 92403.29, 28347.49, 90508.11, 133212.39, 99019.19, 0.00, 0.00, 0.00
194, 87609.11, 137095.73, 60398.90, 92408.39, 28338.08, 90506.81, 133217.22, 99029.89, 0.00, 0.00, 0.00
195, 87601.49, 137090.94, 60393.16, 92403.74, 28320.35, 90498.43, 133209.02, 99024.95, 0.00, 0.00, 0.00
196, 87595.50, 137090.16, 60393.03, 92400.05, 28321.20, 90498.86, 133202.59, 99014.98, 0.00, 0.00, 0.00
197, 87597.06, 137092.61, 60394.19, 92397.17, 28338.37, 90505.23, 133203.88, 99012.03, 0.00, 0.00, 0.00
198, 87600.04, 137095.05, 60392.69, 92390.02, 28330.72, 90502.05, 133206.52, 99012.10, 0.00, 0.00, 0.00
199, 87613.16, 137101.75, 60400.71, 92404.12, 28327.46, 90508.42, 133218.41, 99029.91, 0.00, 0.00, 0.00
200, 87609.29, 137101.06, 60397.83, 92409.59, 28317.98, 90491.70, 133210.80, 99030.20, 0.07, -0.26, 0.97
201, 87611.86, 137101.64, 60396.82, 92404.63, 28334.08, 90494.03, 133209.86, 99031.66, 0.00, 0.00, 0.00
202, 87615.75, 137104.88, 60401.09, 92403.98, 28355.89, 90508.16, 133214.41, 99034.23, 0.00, 0.00, 0.00
203, 87611.64, 137104.09, 60401.39, 92401.88, 28347.67, 90506.84, 133214.84, 99032.66, 0.00, 0.00, 0.00
204, 87607.91, 137103.16, 60399.30, 92402.80, 28326.25, 90498.99, 133206.80, 99026.23, 0.00, 0.00, 0.00
205, 87605.00, 137103.50, 60400.54, 92409.84, 28328.49, 90498.09, 133206.88, 99023.03, 0.00, 0.00, 0.00
206, 87594.23, 137096.92, 60392.24, 92398.76, 28318.01, 90492.51, 133202.80, 99013.77, 0.00, 0.00, 0.00
207, 87593.48, 137093.48, 60389.23, 92395.34, 28316.06, 90494.03, 133203.50, 99013.28, 0.00, 0.00, 0.00
208, 87594.94, 137096.77, 60395.80, 92397.34, 28315.64, 90490.88, 133203.25, 99013.48, 0.00, 0.00, 0.00
209, 87598.07, 137098.83, 60394.05, 92395.31, 28340.20, 90500.34, 133209.83, 99019.25, 0.00, 0.00, 0.00
210, 87597.87, 137102.98, 60397.05, 92409.08, 28346.06, 90509.19, 133211.94, 99021.76, 0.07, -0.27, 0.96
211, 87597.00, 137102.05, 60395.39, 92411.30, 28348.02, 90509.16, 133215.19, 99021.87, 0.00, 0.00, 0.00
212, 87592.44, 137092.88, 60390.81, 92400.66, 28336.04, 90498.84, 133207.23, 99014.40, 0.00, 0.00, 0.00
213, 87598.25, 137093.66, 60391.71, 92402.91, 28341.38, 90500.00, 133204.28, 99014.88, 0.00, 0.00, 0.00
214, 87594.88, 137095.72, 60388.93, 92396.77, 28331.75, 90497.49, 133203.63, 99007.92, 0.00, 0.00, 0.00
215, 87586.83, 137094.98, 60384.91, 92393.52, 28326.95, 90488.55, 133199.03, 99002.11, 0.00, 0.00, 0.00
216, 87592.10, 137100.59, 60394.07, 92410.96, 28349.25, 90498.95, 133204.80, 99010.34, 0.00, 0.00, 0.00
217, 87585.82, 137099.14, 60392.73, 92404.66, 28337.00, 90493.72, 133200.66, 99004.14, 0.00, 0.00, 0.00
218, 87586.58, 137098.08, 60389.76, 92396.01, 28336.06, 90498.09, 133204.28, 99009.24, 0.00, 0.00, 0.00
219, 87589.48, 137099.92, 60395.44, 92408.79, 28338.79, 90499.04, 133201.94, 99012.39, 0.00, 0.00, 0.00
220, 87591.92, 137098.80, 60390.32, 92407.16, 28337.05, 90496.80, 133200.33, 99013.11, 0.07, -0.26, 0.97
221, 87590.09, 137100.05, 60389.14, 92406.76, 28340.63, 90498.77, 133203.78, 99009.48, 0.00, 0.00, 0.00
222, 87584.50, 137095.47, 60388.45, 92403.88, 28337.41, 90492.58, 133200.45, 99002.78, 0.00, 0.00, 0.00
223, 87589.45, 137092.19, 60389.23, 92405.77, 28340.13, 90504.65, 133211.14, 99012.32, 0.00, 0.00, 0.00
224, 87592.15, 137090.44, 60388.20, 92401.93, 28344.38, 90500.66, 133214.36, 99021.35, 0.00, 0.00, 0.00
225, 87600.73, 137087.17, 60385.38, 92393.48, 28358.80, 90504.36, 133216.53, 99023.95, 0.00, 0.00, 0.00
226, 87593.27, 137091.45, 60394.99, 92408.81, 28353.19, 90508.11, 133214.00, 99007.41, 0.00, 0.00, 0.00
227, 87575.00, 137089.64, 60392.87, 92406.94, 28337.14, 90498.34, 133204.05, 98988.54, 0.00, 0.00, 0.00
228, 87583.74, 137091.72, 60387.17, 92399.78, 28336.42, 90494.79, 133204.17, 98996.92, 0.00, 0.00, 0.00
229, 87589.51, 137095.34, 60386.54, 92401.48, 28324.55, 90496.16, 133206.17, 99002.76, 0.00, 0.00, 0.00
230, 87598.70, 137099.88, 60386.52, 92402.82, 28331.64, 90513.07, 133220.91, 99011.61, 0.07, -0.27, 0.97
231, 87601.31, 137100.98, 60390.97, 92400.95, 28348.85, 90511.58, 133219.77, 99012.01, 0.00, 0.00, 0.00
232, 87585.58, 137097.45, 60387.77, 92386.04, 28333.76, 90497.25, 133204.52, 98997.08, 0.00, 0.00, 0.00
233, 87587.45, 137100.00, 60398.05, 92405.10, 28330.01, 90494.16, 133202.80, 98998.17, 0.00, 0.00, 0.00
234, 87595.14, 137104.55, 60400.18, 92405.04, 28337.27, 90503.28, 133215.00, 99006.13, 0.00, 0.00, 0.00
235, 87585.55, 137099.61, 60389.63, 92395.60, 28336.83, 90494.14, 133204.69, 98994.33, 0.00, 0.00, 0.00
236, 87576.10, 137090.75, 60389.47, 92393.34, 28324.93, 90486.07, 133193.69, 98980.65, 0.00, 0.00, 0.00
237, 87582.63, 137090.11, 60391.91, 92394.62, 28329.79, 90488.55, 133198.47, 98989.91, 0.00, 0.00, 0.00
238, 87589.95, 137096.34, 60395.95, 92398.40, 28337.94, 90496.38, 133208.33, 98997.21, 0.00, 0.00, 0.00
239, 87586.42, 137096.86, 60393.36, 92398.06, 28338.57, 90499.70, 133212.45, 98994.48, 0.00, 0.00, 0.00
240, 87590.45, 137099.05, 60394.68, 92401.21, 28352.43, 90508.23, 133220.73, 99002.38, 0.08, -0.27, 0.96
241, 87592.33, 137097.97, 60404.94, 92413.33, 28356.81, 90507.51, 133223.03, 99007.14, 0.00, 0.00, 0.00
242, 87594.41, 137099.03, 60400.54, 92408.99, 28349.68, 90507.42, 133221.91, 99003.61, 0.00, 0.00, 0.00
243, 87593.98, 137097.06, 60397.52, 92403.13, 28348.25, 90503.22, 133219.28, 99001.57, 0.00, 0.00, 0.00
244, 87591.37, 137094.47, 60388.22, 92395.76, 28341.43, 90499.62, 133213.00, 98996.86, 0.00, 0.00, 0.00
245, 87585.53, 137088.94, 60387.13, 92395.02, 28337.61, 90498.95, 133207.00, 98988.95, 0.00, 0.00, 0.00
246, 87588.08, 137086.89, 60390.70, 92393.37, 28340.13, 90499.39, 133207.86, 98997.23, 0.00, 0.00, 0.00
247, 87583.23, 137086.59, 60391.53, 92400.79, 28338.30, 90496.76, 133205.95, 98993.75, 0.00, 0.00, 0.00
248, 87592.05, 137094.33, 60396.89, 92405.38, 28345.56, 90506.97, 133215.75, 99004.43, 0.00, 0.00, 0.00
249, 87597.98, 137099.09, 60395.53, 92396.77, 28339.06, 90506.32, 133219.64, 99010.42, 0.00, 0.00, 0.00
250, 87590.25, 137091.61, 60387.01, 92389.59, 28330.19, 90487.63, 133206.22, 99001.08, 0.07, -0.28, 0.96
251, 87597.69, 137097.11, 60400.16, 92408.37, 28343.02, 90495.75, 133216.64, 99009.26, 0.00, 0.00, 0.00
252, 87599.10, 137095.20, 60394.75, 92397.37, 28335.48, 90491.02, 133215.77, 99006.45, 0.00, 0.00, 0.00
253, 87601.65, 137095.27, 60389.74, 92389.01, 28328.96, 90488.87, 133214.00, 99007.54, 0.00, 0.00, 0.00
254, 87606.12, 137100.33, 60402.73, 92403.85, 28337.12, 90497.47, 133220.70, 99013.82, 0.00, 0.00, 0.00
255, 87601.91, 137098.17, 60396.89, 92398.73, 28327.95, 90489.94, 133215.47, 99011.66, 0.00, 0.00, 0.00
0, 87598.85, 137094.00, 60389.47, 92392.01, 28321.38, 90486.74, 133211.11, 99007.70, 0.00, 0.00, 0.00
1, 87600.26, 137092.44, 60397.05, 92398.60, 28318.61, 90490.05, 133211.78, 99008.23, 0.00, 0.00, 0.00
2, 87603.50, 137094.44, 60402.21, 92400.92, 28329.34, 90492.69, 133214.63, 99010.22, 0.00, 0.00, 0.00
3, 87609.42, 137097.81, 60404.71, 92399.63, 28341.29, 90498.63, 133222.97, 99018.31, 0.00, 0.00, 0.00
4, 87616.11, 137100.70, 60402.70, 92402.91, 28345.10, 90504.18, 133226.31, 99025.94, 0.07, -0.27, 0.96
5, 87601.05, 137095.84, 60393.09, 92398.02, 28325.45, 90492.20, 133213.80, 99011.83, 0.00, 0.00, 0.00
6, 87606.59, 137102.48, 60398.08, 92402.16, 28331.08, 90500.35, 133224.64, 99020.44, 0.00, 0.00, 0.00
7, 87599.75, 137097.95, 60400.02, 92395.88, 28338.41, 90504.06, 133221.22, 99015.37, 0.00, 0.00, 0.00
8, 87597.02, 137095.30, 60397.52, 92390.73, 28326.99, 90492.51, 133212.53, 99004.39, 0.00, 0.00, 0.00
9, 87604.80, 137099.84, 60404.74, 92404.81, 28329.11, 90497.05, 133217.59, 99012.99, 0.00, 0.00, 0.00
10, 87598.38, 137098.06, 60402.97, 92398.45, 28330.66, 90496.82, 133219.50, 99014.96, 0.00, 0.00, 0.00
11, 87601.16, 137102.42, 60397.77, 92393.68, 28336.94, 90503.75, 133227.33, 99016.08, 0.00, 0.00, 0.00
12, 87607.75, 137107.09, 60406.66, 92408.77, 28339.98, 90507.55, 133232.27, 99023.39, 0.00, 0.00, 0.00
13, 87604.09, 137101.03, 60403.38, 92402.87, 28334.52, 90502.68, 133228.53, 99020.05, 0.07, -0.27, 0.96
14, 87600.38, 137098.20, 60397.50, 92398.06, 28330.46, 90486.43, 133218.22, 99016.77, 0.00, 0.00, 0.00
15, 87603.59, 137100.14, 60395.60, 92397.48, 28330.79, 90506.23, 133222.22, 99019.86, 0.00, 0.00, 0.00
16, 87602.54, 137102.06, 60400.00, 92399.88, 28323.24, 90502.19, 133233.14, 99019.48, 0.00, 0.00, 0.00
17, 87608.55, 137108.02, 60405.16, 92406.47, 28324.82, 90507.98, 133240.55, 99028.26, 0.00, 0.00, 0.00
18, 87612.04, 137111.25, 60401.70, 92403.20, 28347.82, 90510.46, 133237.14, 99027.01, 0.00, 0.00, 0.00
19, 87605.88, 137109.47, 60404.00, 92403.27, 28342.30, 90503.62, 133234.30, 99022.49, 0.00, 0.00, 0.00
20, 87593.65, 137101.81, 60397.94, 92389.88, 28324.71, 90491.15, 133222.11, 99009.66, 0.00, 0.00, 0.00
21, 87600.30, 137105.53, 60402.30, 92393.86, 28320.75, 90492.11, 133227.30, 99015.12, 0.00, 0.00, 0.00
22, 87599.30, 137105.80, 60401.65, 92396.92, 28310.07, 90490.05, 133227.56, 99018.85, 0.00, 0.00, 0.00
23, 87598.67, 137108.14, 60405.81, 92398.45, 28335.04, 90498.73, 133232.67, 99024.62, 0.07, -0.27, 0.96
24, 87603.48, 137111.14, 60406.05, 92397.88, 28329.25, 90503.40, 133237.58, 99029.31, 0.00, 0.00, 0.00
25, 87600.91, 137108.66, 60402.84, 92392.68, 28313.71, 90495.21, 133232.31, 99023.43, 0.00, 0.00, 0.00
26, 87602.27, 137106.28, 60402.77, 92390.02, 28307.14, 90500.45, 133235.66, 99028.69, 0.00, 0.00, 0.00
27, 87605.52, 137108.17, 60404.52, 92391.88, 28338.19, 90513.50, 133243.28, 99032.95, 0.00, 0.00, 0.00
28, 87601.69, 137108.56, 60411.98, 92400.12, 28340.87, 90509.12, 133238.75, 99028.73, 0.00, 0.00, 0.00
29, 87594.83, 137104.72, 60405.90, 92399.05, 28353.61, 90515.15, 133236.16, 99021.78, 0.00, 0.00, 0.00
30, 87599.95, 137107.56, 60408.96, 92398.40, 28343.31, 90514.68, 133240.08, 99023.19, 0.00, 0.00, 0.00
31, 87600.40, 137108.44, 60406.68, 92394.84, 28333.99, 90506.52, 133236.48, 99023.97, 0.00, 0.00, 0.00
32, 87594.78, 137106.06, 60405.34, 92393.81, 28324.67, 90498.81, 133231.88, 99022.09, 0.00, 0.00, 0.00
33, 87598.07, 137104.09, 60402.77, 92385.70, 28304.55, 90500.11, 133232.02, 99023.88, 0.07, -0.27, 0.96
34, 87600.91, 137103.88, 60405.77, 92391.70, 28307.84, 90496.27, 133232.47, 99025.65, 0.00, 0.00, 0.00
35, 87597.00, 137104.45, 60412.09, 92397.30, 28330.07, 90502.43, 133231.97, 99022.83, 0.00, 0.00, 0.00
36, 87598.00, 137107.83, 60414.26, 92400.21, 28343.46, 90509.61, 133233.36, 99020.37, 0.00, 0.00, 0.00
37, 87589.27, 137106.78, 60412.25, 92398.27, 28334.48, 90500.76, 133226.19, 99006.89, 0.00, 0.00, 0.00
38, 87587.43, 137106.22, 60408.89, 92391.96, 28332.13, 90501.00, 133225.88, 99007.92, 0.00, 0.00, 0.00
39, 87586.76, 137105.47, 60410.46, 92392.81, 28323.37, 90502.61, 133228.55, 99008.37, 0.00, 0.00, 0.00
40, 87590.59, 137103.72, 60414.35, 92396.88, 28327.73, 90496.98, 133227.92, 99011.67, 0.00, 0.00, 0.00
41, 87593.24, 137105.08, 60414.53, 92398.78, 28339.53, 90498.84, 133229.72, 99012.99, 0.00, 0.00, 0.00
42, 87593.66, 137107.73, 60411.11, 92394.55, 28321.67, 90492.78, 133228.16, 99010.85, 0.00, 0.00, 0.00
43, 87594.38, 137107.52, 60406.73, 92390.28, 28325.72, 90506.57, 133228.59, 99012.16, 0.07, -0.27, 0.96
44, 87592.70, 137107.00, 60407.00, 92392.12, 28304.10, 90491.93, 133222.83, 99010.85, 0.00, 0.00, 0.00
45, 87587.61, 137107.45, 60409.43, 92390.62, 28296.68, 90491.95, 133226.98, 99009.82, 0.00, 0.00, 0.00
46, 87586.83, 137107.72, 60412.29, 92392.20, 28323.10, 90509.59, 133229.09, 99012.03, 0.00, 0.00, 0.00
47, 87595.84, 137108.86, 60410.77, 92390.42, 28321.54, 90505.63, 133233.80, 99015.32, 0.00, 0.00, 0.00
48, 87594.65, 137105.66, 60407.09, 92385.70, 28315.66, 90502.34, 133240.48, 99012.70, 0.00, 0.00, 0.00
49, 87589.13, 137104.50, 60405.32, 92386.30, 28307.43, 90500.73, 133229.45, 99011.63, 0.00, 0.00, 0.00
50, 87590.80, 137106.13, 60407.51, 92389.44, 28318.52, 90500.06, 133228.75, 99011.90, 0.00, 0.00, 0.00
51, 87595.09, 137108.41, 60407.46, 92389.62, 28309.45, 90497.18, 133226.23, 99009.46, 0.00, 0.00, 0.00
52, 87594.13, 137111.00, 60404.65, 92386.02, 28283.76, 90489.91, 133223.14, 99009.02, 0.00, 0.00, 0.00
53, 87593.17, 137105.53, 60401.45, 92383.78, 28284.75, 90490.16, 133220.59, 99003.67, 0.07, -0.26, 0.97
54, 87592.51, 137102.27, 60405.16, 92386.93, 28296.50, 90493.45, 133222.38, 99002.66, 0.00, 0.00, 0.00
55, 87590.31, 137103.50, 60408.58, 92390.15, 28332.71, 90507.66, 133228.94, 99007.30, 0.00, 0.00, 0.00
56, 87593.11, 137107.30, 60414.26, 92394.91, 28339.75, 90509.48, 133229.48, 99011.02, 0.00, 0.00, 0.00
57, 87593.20, 137106.17, 60408.34, 92390.46, 28322.30, 90497.83, 133219.31, 99004.52, 0.00, 0.00, 0.00
58, 87592.70, 137110.27, 60409.05, 92391.63, 28328.94, 90504.63, 133219.09, 99000.81, 0.00, 0.00, 0.00
59, 87591.41, 137109.80, 60409.57, 92390.22, 28321.80, 90488.04, 133213.02, 98999.49, 0.00, 0.00, 0.00
60, 87589.78, 137104.97, 60412.14, 92394.04, 28313.04, 90500.63, 133215.52, 98999.09, 0.00, 0.00, 0.00
61, 87586.07, 137100.75, 60412.32, 92394.60, 28305.20, 90501.27, 133214.02, 98999.77, 0.00, 0.00, 0.00
62, 87592.75, 137104.88, 60410.50, 92392.19, 28307.05, 90502.52, 133217.13, 99003.49, 0.00, 0.00, 0.00
63, 87596.44, 137107.47, 60413.03, 92394.24, 28323.10, 90508.73, 133225.17, 99012.15, 0.07, -0.27, 0.97
64, 87596.04, 137101.70, 60411.96, 92395.34, 28318.50, 90508.16, 133225.22, 99013.04, 0.00, 0.00, 0.00
65, 87594.18, 137099.63, 60411.33, 92395.42, 28312.26, 90507.13, 133224.53, 99010.27, 0.00, 0.00, 0.00
66, 87588.52, 137097.02, 60405.61, 92390.91, 28308.10, 90500.98, 133215.45, 99000.16, 0.00, 0.00, 0.00
67, 87587.50, 137098.16, 60409.23, 92390.02, 28299.32, 90498.21, 133210.47, 99000.08, 0.00, 0.00, 0.00
68, 87588.57, 137098.27, 60408.63, 92389.73, 28290.85, 90496.69, 133211.08, 99003.95, 0.00, 0.00, 0.00
69, 87585.66, 137096.83, 60408.20, 92389.10, 28294.33, 90496.76, 133214.33, 99004.27, 0.00, 0.00, 0.00
70, 87589.63, 137096.77, 60407.73, 92388.07, 28297.51, 90502.91, 133220.70, 99009.93, 0.00, 0.00, 0.00
71, 87591.86, 137095.72, 60404.16, 92382.38, 28295.05, 90500.60, 133219.61, 99011.05, 0.00, 0.00, 0.00
72, 87594.09, 137098.84, 60404.45, 92386.98, 28305.53, 90505.77, 133221.63, 99009.53, 0.00, 0.00, 0.00
73, 87596.51, 137103.27, 60408.67, 92392.68, 28321.07, 90509.81, 133224.86, 99012.15, 0.06, -0.27, 0.97
74, 87591.08, 137097.13, 60400.07, 92387.89, 28312.37, 90505.92, 133225.91, 99005.51, 0.00, 0.00, 0.00
75, 87592.10, 137098.08, 60402.32, 92398.94, 28322.95, 90512.42, 133240.42, 99010.42, 0.00, 0.00, 0.00
76, 87590.43, 137097.58, 60399.33, 92396.90, 28322.03, 90512.85, 133230.61, 99012.28, 0.00, 0.00, 0.00
77, 87590.56, 137092.70, 60393.03, 92388.61, 28309.20, 90509.74, 133227.19, 99007.90, 0.00, 0.00, 0.00
78, 87594.45, 137095.66, 60389.14, 92390.10, 28305.51, 90507.75, 133229.27, 99013.06, 0.00, 0.00, 0.00
79, 87593.80, 137098.22, 60390.07, 92392.03, 28320.60, 90508.47, 133226.58, 99009.46, 0.00, 0.00, 0.00
80, 87595.68, 137096.50, 60386.50, 92390.55, 28309.58, 90510.77, 133225.16, 99006.80, 0.00, 0.00, 0.00
81, 87597.91, 137097.80, 60384.29, 92388.66, 28290.45, 90502.23, 133224.80, 99012.37, 0.00, 0.00, 0.00
82, 87598.59, 137101.70, 60383.59, 92391.29, 28318.70, 90513.61, 133233.78, 99018.49, 0.00, 0.00, 0.00
83, 87600.35, 137106.17, 60386.52, 92398.80, 28325.45, 90516.05, 133235.97, 99021.94, 0.07, -0.27, 0.97
84, 87595.97, 137104.56, 60384.44, 92394.48, 28318.52, 90508.27, 133228.11, 99012.77, 0.00, 0.00, 0.00
85, 87592.88, 137098.69, 60381.89, 92392.54, 28320.55, 90509.16, 133227.81, 99009.69, 0.00, 0.00, 0.00
86, 87596.46, 137100.44, 60380.96, 92396.99, 28317.31, 90505.20, 133227.14, 99013.30, 0.00, 0.00, 0.00
87, 87600.93, 137101.58, 60377.04, 92390.98, 28301.85, 90499.39, 133225.72, 99018.52, 0.00, 0.00, 0.00
88, 87605.65, 137095.06, 60368.89, 92382.02, 28286.00, 90489.65, 133223.67, 99026.83, 0.00, 0.00, 0.00
89, 87593.80, 137098.20, 60374.94, 92387.42, 28306.31, 90499.82, 133223.83, 99012.19, 0.00, 0.00, 0.00
90, 87587.27, 137101.19, 60378.83, 92389.46, 28329.74, 90511.22, 133228.19, 99002.09, 0.00, 0.00, 0.00
91, 87589.47, 137098.80, 60373.58, 92391.52, 28321.43, 90507.69, 133225.00, 99000.63, 0.00, 0.00, 0.00
92, 87594.25, 137100.75, 60371.43, 92388.77, 28320.20, 90508.83, 133227.28, 99005.06, 0.00, 0.00, 0.00
93, 87593.09, 137100.95, 60372.82, 92387.34, 28315.70, 90504.00, 133227.25, 99006.18, 0.07, -0.27, 0.97
94, 87599.16, 137103.55, 60375.39, 92391.24, 28307.01, 90510.30, 133233.17, 99009.48, 0.00, 0.00, 0.00
95, 87596.98, 137101.95, 60369.54, 92383.67, 28304.33, 90502.84, 133232.50, 99007.95, 0.00, 0.00, 0.00
96, 87597.34, 137102.94, 60368.13, 92389.86, 28305.13, 90500.63, 133229.89, 99008.97, 0.00, 0.00, 0.00
97, 87600.13, 137105.95, 60372.95, 92396.30, 28314.85, 90509.95, 133234.08, 99008.93, 0.00, 0.00, 0.00
98, 87600.08, 137107.78, 60371.55, 92393.15, 28308.15, 90508.45, 133229.09, 99005.46, 0.00, 0.00, 0.00
99, 87595.41, 137106.47, 60378.95, 92392.99, 28301.02, 90505.23, 133225.33, 99001.93, 0.00, 0.00, 0.00
100, 87595.79, 137102.09, 60378.52, 92390.35, 28305.09, 90511.15, 133233.63, 99005.41, 0.00, 0.00, 0.00
101, 87594.34, 137100.88, 60371.79, 92386.30, 28306.92, 90511.28, 133233.89, 99003.92, 0.00, 0.00, 0.00
102, 87596.02, 137103.86, 60376.71, 92394.33, 28301.44, 90507.10, 133233.31, 99005.73, 0.00, 0.00, 0.00
103, 87595.95, 137103.20, 60366.29, 92382.15, 28311.86, 90505.77, 133234.81, 99007.97, 0.07, -0.27, 0.97
104, 87592.88, 137104.45, 60372.75, 92391.34, 28299.34, 90499.84, 133231.84, 99004.43, 0.00, 0.00, 0.00
105, 87592.59, 137105.66, 60379.19, 92390.59, 28301.89, 90501.79, 133233.56, 99003.65, 0.00, 0.00, 0.00
106, 87593.76, 137102.13, 60373.71, 92386.87, 28315.93, 90510.57, 133237.20, 99008.63, 0.00, 0.00, 0.00
107, 87595.61, 137099.52, 60370.47, 92383.02, 28311.57, 90506.21, 133237.42, 99011.54, 0.00, 0.00, 0.00
108, 87593.89, 137099.19, 60378.41, 92384.52, 28302.87, 90503.28, 133230.70, 99005.08, 0.00, 0.00, 0.00
109, 87600.98, 137104.50, 60376.78, 92394.02, 28322.77, 90511.42, 133235.70, 99008.84, 0.00, 0.00, 0.00
110, 87605.52, 137111.58, 60383.88, 92407.90, 28344.65, 90517.70, 133238.28, 99015.19, 0.00, 0.00, 0.00
111, 87596.35, 137104.50, 60378.95, 92399.36, 28324.26, 90507.69, 133228.89, 99005.28, 0.00, 0.00, 0.00
112, 87590.83, 137100.97, 60374.99, 92392.23, 28301.58, 90502.30, 133236.89, 99002.78, 0.00, 0.00, 0.00
113, 87593.89, 137102.48, 60371.55, 92388.98, 28312.26, 90508.52, 133238.61, 99007.36, 0.07, -0.26, 0.97
114, 87592.41, 137102.31, 60376.22, 92393.59, 28330.75, 90513.59, 133229.88, 99002.27, 0.00, 0.00, 0.00
115, 87588.17, 137100.75, 60377.38, 92388.09, 28326.59, 90507.64, 133229.73, 98999.31, 0.00, 0.00, 0.00
116, 87586.16, 137097.97, 60376.11, 92388.02, 28321.09, 90505.74, 133230.09, 98997.59, 0.00, 0.00, 0.00
117, 87591.63, 137097.92, 60371.46, 92382.80, 28318.99, 90508.55, 133233.45, 99004.81, 0.00, 0.00, 0.00
118, 87585.93, 137095.83, 60368.04, 92369.50, 28308.88, 90501.80, 133228.94, 98999.77, 0.00, 0.00, 0.00
119, 87587.81, 137096.13, 60375.23, 92387.05, 28303.52, 90504.80, 133228.89, 99002.65, 0.00, 0.00, 0.00
120, 87585.71, 137093.33, 60375.17, 92386.66, 28298.56, 90502.88, 133228.27, 99000.03, 0.00, 0.00, 0.00
121, 87588.68, 137093.92, 60370.25, 92377.77, 28289.87, 90501.07, 133232.28, 99006.24, 0.00, 0.00, 0.00
122, 87589.24, 137096.59, 60365.98, 92372.23, 28291.79, 90500.51, 133234.05, 99005.23, 0.00, 0.00, 0.00
123, 87592.20, 137097.34, 60373.22, 92387.18, 28303.14, 90503.35, 133237.02, 99007.27, 0.07, -0.27, 0.97
124, 87588.34, 137090.80, 60366.34, 92374.30, 28322.63, 90505.70, 133233.09, 99001.82, 0.00, 0.00, 0.00
125, 87579.41, 137082.84, 60358.27, 92359.53, 28280.99, 90489.67, 133226.50, 98992.38, 0.00, 0.00, 0.00
126, 87579.38, 137087.52, 60365.22, 92378.51, 28262.24, 90482.92, 133224.84, 98989.50, 0.00, 0.00, 0.00
127, 87585.82, 137093.84, 60373.89, 92395.56, 28293.82, 90492.17, 133228.84, 98992.84, 0.00, 0.00, 0.00
128, 87589.64, 137098.80, 60374.21, 92392.23, 28320.42, 90510.01, 133237.20, 98997.95, 0.00, 0.00, 0.00
129, 87585.53, 137097.55, 60373.98, 92385.28, 28329.56, 90514.15, 133238.39, 99000.12, 0.00, 0.00, 0.00
130, 87584.70, 137096.34, 60374.65, 92381.39, 28301.38, 90505.18, 133233.84, 99000.08, 0.00, 0.00, 0.00
131, 87589.60, 137101.03, 60373.87, 92381.61, 28303.10, 90511.89, 133238.92, 99002.53, 0.00, 0.00, 0.00
132, 87595.19, 137104.09, 60373.07, 92383.11, 28329.90, 90517.39, 133241.52, 99004.55, 0.00, 0.00, 0.00
133, 87584.84, 137094.38, 60369.96, 92382.23, 28314.03, 90505.41, 133228.70, 98993.05, 0.06, -0.27, 0.97
134, 87584.84, 137093.77, 60368.89, 92382.87, 28303.39, 90502.79, 133230.45, 98998.45, 0.00, 0.00, 0.00
135, 87584.57, 137094.08, 60365.73, 92378.75, 28283.18, 90501.30, 133227.80, 98998.94, 0.00, 0.00, 0.00
