%OpenBCI Raw EEG Data
%Sample Rate = 250.0 Hz
%First Column = SampleIndex
%Other Columns = EEG data in microvolts followed by Accel Data (in G) interleaved with Aux Data
165, 80966.58, 132548.72, 25414.51, 80583.89, 16661.12, 68506.69, 127838.63, 99450.33, 0.00, 0.00, 0.00
166, 80964.59, 132545.42, 25422.07, 80585.21, 16654.31, 68506.84, 127839.95, 99449.59, 0.00, 0.00, 0.00
167, 80961.46, 132544.80, 25420.06, 80582.91, 16655.87, 68502.91, 127832.82, 99446.26, 0.00, 0.00, 0.00
168, 80960.38, 132541.14, 25417.46, 80579.73, 16644.16, 68507.24, 127831.43, 99443.65, 0.00, 0.00, 0.00
169, 80963.02, 132548.09, 25417.31, 80584.12, 16661.41, 68515.63, 127837.73, 99445.10, 0.07, -0.29, 0.95
170, 80970.53, 132551.56, 25421.49, 80589.88, 16682.98, 68520.01, 127847.05, 99453.32, 0.00, 0.00, 0.00
171, 80968.05, 132545.14, 25419.16, 80585.70, 16669.10, 68516.56, 127846.81, 99451.54, 0.00, 0.00, 0.00
172, 80968.72, 132547.20, 25418.09, 80583.76, 16660.16, 68516.79, 127849.20, 99455.34, 0.00, 0.00, 0.00
173, 80963.63, 132549.13, 25425.18, 80594.51, 16665.26, 68512.85, 127849.16, 99453.77, 0.00, 0.00, 0.00
174, 80954.13, 132541.64, 25416.99, 80583.71, 16651.29, 68508.01, 127842.34, 99443.96, 0.00, 0.00, 0.00
175, 80957.32, 132547.66, 25419.79, 80587.20, 16680.82, 68516.07, 127849.88, 99449.32, 0.00, 0.00, 0.00
176, 80954.04, 132545.38, 25424.26, 80584.95, 16665.08, 68514.62, 127849.65, 99447.04, 0.00, 0.00, 0.00
177, 80948.43, 132544.81, 25425.82, 80584.92, 16660.07, 68514.35, 127849.42, 99442.33, 0.00, 0.00, 0.00
178, 80949.01, 132544.70, 25425.44, 80587.13, 16660.97, 68514.06, 127853.18, 99443.38, 0.00, 0.00, 0.00
179, 80952.67, 132548.48, 25424.91, 80588.50, 16663.43, 68514.66, 127854.86, 99445.32, 0.06, -0.28, 0.95
180, 80955.80, 132549.78, 25427.63, 80590.91, 16664.14, 68516.59, 127855.05, 99443.80, 0.00, 0.00, 0.00
181, 80961.91, 132549.22, 25428.89, 80595.38, 16673.75, 68524.05, 127862.45, 99448.79, 0.00, 0.00, 0.00
182, 80961.68, 132546.59, 25430.12, 80595.45, 16674.20, 68524.05, 127857.47, 99446.66, 0.00, 0.00, 0.00
183, 80960.85, 132548.77, 25429.40, 80594.94, 16665.30, 68518.31, 127845.60, 99442.44, 0.00, 0.00, 0.00
184, 80959.98, 132563.19, 25433.69, 80594.15, 16669.10, 68520.37, 127858.32, 99442.53, 0.00, 0.00, 0.00
185, 80953.34, 132553.84, 25428.93, 80592.34, 16670.09, 68522.98, 127853.31, 99437.86, 0.00, 0.00, 0.00
186, 80952.98, 132536.05, 25426.58, 80588.50, 16653.14, 68517.77, 127851.37, 99439.53, 0.00, 0.00, 0.00
187, 80947.98, 132540.83, 25429.85, 80591.47, 16665.48, 68523.61, 127855.88, 99437.97, 0.00, 0.00, 0.00
188, 80946.08, 132545.22, 25429.89, 80592.05, 16674.71, 68522.20, 127853.83, 99435.24, 0.00, 0.00, 0.00
189, 80946.98, 132546.31, 25429.49, 80591.65, 16674.89, 68522.80, 127851.48, 99433.77, 0.06, -0.29, 0.96
190, 80945.50, 132547.14, 25432.24, 80594.22, 16661.53, 68518.48, 127847.21, 99433.37, 0.00, 0.00, 0.00
191, 80943.78, 132542.59, 25432.48, 80594.71, 16655.92, 68515.31, 127845.88, 99429.30, 0.00, 0.00, 0.00
192, 80946.48, 132543.31, 25432.15, 80591.58, 16664.88, 68523.23, 127862.57, 99429.77, 0.00, 0.00, 0.00
193, 80950.13, 132542.13, 25432.69, 80591.91, 16671.83, 68526.73, 127860.24, 99434.26, 0.00, 0.00, 0.00
194, 80950.20, 132541.13, 25430.50, 80596.68, 16671.99, 68530.09, 127857.47, 99434.44, 0.00, 0.00, 0.00
195, 80949.66, 132540.03, 25428.24, 80596.27, 16683.83, 68528.19, 127855.95, 99431.98, 0.00, 0.00, 0.00
196, 80951.91, 132540.23, 25436.37, 80598.63, 16671.23, 68523.09, 127853.23, 99435.11, 0.00, 0.00, 0.00
197, 80951.11, 132541.80, 25442.05, 80595.91, 16656.88, 68515.76, 127851.08, 99432.98, 0.00, 0.00, 0.00
198, 80951.18, 132540.56, 25436.26, 80590.30, 16651.89, 68514.22, 127853.70, 99430.91, 0.00, 0.00, 0.00
199, 80953.79, 132543.52, 25433.60, 80589.23, 16671.23, 68522.47, 127856.51, 99431.87, 0.07, -0.29, 0.96
200, 80952.59, 132547.09, 25441.51, 80593.86, 16684.53, 68526.40, 127855.53, 99432.58, 0.00, 0.00, 0.00
201, 80945.92, 132544.25, 25439.23, 80596.90, 16666.49, 68518.48, 127851.02, 99427.24, 0.00, 0.00, 0.00
202, 80945.48, 132544.25, 25439.06, 80601.88, 16674.58, 68524.59, 127857.95, 99424.00, 0.00, 0.00, 0.00
203, 80953.57, 132545.14, 25441.83, 80599.34, 16670.00, 68528.16, 127866.34, 99429.67, 0.00, 0.00, 0.00
204, 80958.59, 132542.89, 25441.00, 80595.67, 16664.74, 68525.02, 127858.84, 99430.63, 0.00, 0.00, 0.00
205, 80954.28, 132540.05, 25440.20, 80600.97, 16691.95, 68533.24, 127856.69, 99427.95, 0.00, 0.00, 0.00
206, 80952.88, 132541.55, 25440.49, 80600.79, 16683.54, 68533.40, 127858.39, 99432.23, 0.00, 0.00, 0.00
207, 80952.79, 132543.14, 25439.53, 80598.31, 16667.27, 68527.48, 127860.11, 99432.47, 0.00, 0.00, 0.00
208, 80954.23, 132542.95, 25440.73, 80603.02, 16670.51, 68530.55, 127863.02, 99431.58, 0.00, 0.00, 0.00
209, 80954.59, 132543.14, 25440.55, 80599.07, 16672.97, 68530.13, 127855.88, 99429.09, 0.06, -0.29, 0.96
210, 80952.83, 132552.13, 25439.86, 80597.82, 16665.37, 68531.01, 127854.14, 99426.70, 0.00, 0.00, 0.00
211, 80952.52, 132552.25, 25447.19, 80604.84, 16671.03, 68533.20, 127858.37, 99428.83, 0.00, 0.00, 0.00
212, 80953.23, 132542.00, 25450.99, 80604.81, 16672.19, 68532.97, 127858.05, 99427.20, 0.00, 0.00, 0.00
213, 80954.98, 132544.31, 25446.68, 80602.94, 16673.60, 68532.03, 127856.13, 99424.60, 0.00, 0.00, 0.00
214, 80962.84, 132542.78, 25447.44, 80608.23, 16671.67, 68532.75, 127858.86, 99427.73, 0.00, 0.00, 0.00
215, 80970.16, 132548.97, 25451.01, 80610.54, 16668.90, 68531.85, 127860.80, 99432.94, 0.00, 0.00, 0.00
216, 80967.70, 132550.28, 25448.09, 80602.80, 16657.37, 68525.48, 127856.98, 99427.73, 0.00, 0.00, 0.00
217, 80966.69, 132544.55, 25448.38, 80600.66, 16659.67, 68528.88, 127857.77, 99426.44, 0.00, 0.00, 0.00
218, 80963.40, 132540.78, 25445.87, 80600.48, 16660.30, 68523.61, 127854.30, 99423.23, 0.00, 0.00, 0.00
219, 80959.78, 132535.77, 25443.32, 80596.16, 16667.11, 68522.29, 127850.95, 99418.27, 0.07, -0.29, 0.96
220, 80965.13, 132540.44, 25449.99, 80605.02, 16671.96, 68529.02, 127852.80, 99420.04, 0.00, 0.00, 0.00
221, 80964.85, 132541.69, 25449.11, 80605.04, 16676.01, 68530.49, 127851.64, 99423.51, 0.00, 0.00, 0.00
222, 80969.37, 132541.77, 25449.74, 80605.87, 16711.59, 68546.20, 127865.79, 99427.59, 0.00, 0.00, 0.00
223, 80969.82, 132545.13, 25452.71, 80606.06, 16684.21, 68537.45, 127864.91, 99426.23, 0.00, 0.00, 0.00
224, 80966.30, 132544.55, 25456.18, 80609.73, 16675.68, 68537.73, 127854.48, 99425.23, 0.00, 0.00, 0.00
225, 80961.48, 132543.97, 25451.82, 80606.84, 16679.41, 68531.95, 127851.95, 99424.29, 0.00, 0.00, 0.00
226, 80961.55, 132545.06, 25451.97, 80602.63, 16681.58, 68532.16, 127853.38, 99425.34, 0.00, 0.00, 0.00
227, 80963.85, 132549.95, 25458.61, 80604.21, 16681.20, 68538.09, 127855.17, 99425.90, 0.00, 0.00, 0.00
228, 80962.62, 132552.80, 25454.57, 80601.39, 16664.92, 68530.98, 127852.45, 99421.95, 0.00, 0.00, 0.00
229, 80961.21, 132546.80, 25450.77, 80596.27, 16668.86, 68530.98, 127847.64, 99418.30, 0.07, -0.29, 0.96
230, 80961.66, 132538.17, 25449.63, 80598.47, 16672.84, 68532.80, 127846.41, 99415.66, 0.00, 0.00, 0.00
231, 80962.91, 132539.63, 25449.43, 80601.80, 16664.66, 68531.66, 127849.91, 99416.60, 0.00, 0.00, 0.00
232, 80964.23, 132541.75, 25451.30, 80604.23, 16671.03, 68533.87, 127855.51, 99419.46, 0.00, 0.00, 0.00
233, 80966.82, 132541.95, 25454.17, 80605.93, 16679.70, 68538.70, 127858.97, 99422.57, 0.00, 0.00, 0.00
234, 80968.66, 132541.22, 25454.88, 80605.87, 16670.36, 68534.13, 127852.24, 99424.31, 0.00, 0.00, 0.00
235, 80969.88, 132544.44, 25453.45, 80606.11, 16661.26, 68531.27, 127853.18, 99428.76, 0.00, 0.00, 0.00
236, 80963.56, 132542.00, 25452.67, 80602.65, 16674.42, 68534.09, 127850.25, 99426.26, 0.00, 0.00, 0.00
237, 80962.24, 132538.02, 25448.02, 80598.29, 16664.54, 68528.84, 127845.13, 99423.87, 0.00, 0.00, 0.00
238, 80974.09, 132543.72, 25450.39, 80600.74, 16664.74, 68535.23, 127855.62, 99431.82, 0.00, 0.00, 0.00
239, 80974.53, 132553.19, 25454.93, 80605.73, 16653.90, 68528.91, 127855.30, 99428.13, 0.07, -0.30, 0.96
240, 80973.95, 132546.88, 25453.18, 80605.10, 16682.51, 68537.58, 127852.84, 99425.65, 0.00, 0.00, 0.00
241, 80977.17, 132539.31, 25452.87, 80604.99, 16690.79, 68543.50, 127855.64, 99429.18, 0.00, 0.00, 0.00
242, 80979.34, 132545.02, 25454.70, 80605.33, 16680.26, 68539.01, 127859.15, 99431.80, 0.00, 0.00, 0.00
243, 80979.56, 132544.34, 25453.45, 80605.71, 16666.20, 68536.10, 127862.88, 99431.62, 0.00, 0.00, 0.00
244, 80980.34, 132541.50, 25450.37, 80603.31, 16662.04, 68538.36, 127864.47, 99432.94, 0.00, 0.00, 0.00
245, 80978.78, 132542.13, 25452.09, 80603.25, 16669.66, 68535.43, 127855.59, 99431.93, 0.00, 0.00, 0.00
246, 80980.70, 132540.66, 25455.51, 80606.52, 16674.09, 68536.62, 127854.92, 99430.13, 0.00, 0.00, 0.00
247, 80977.82, 132547.72, 25454.52, 80605.57, 16677.42, 68549.31, 127859.38, 99428.18, 0.00, 0.00, 0.00
248, 80979.14, 132552.17, 25457.61, 80612.70, 16683.83, 68551.75, 127865.09, 99432.72, 0.00, 0.00, 0.00
249, 80979.97, 132546.69, 25457.27, 80610.02, 16679.32, 68550.43, 127864.52, 99434.19, 0.07, -0.29, 0.97
250, 80975.65, 132549.11, 25454.52, 80606.84, 16665.91, 68542.16, 127856.18, 99431.38, 0.00, 0.00, 0.00
251, 80975.30, 132549.59, 25454.93, 80608.68, 16671.90, 68542.49, 127857.90, 99432.89, 0.00, 0.00, 0.00
252, 80980.75, 132550.95, 25456.60, 80608.91, 16674.27, 68542.59, 127867.40, 99434.10, 0.00, 0.00, 0.00
253, 80978.11, 132553.58, 25461.86, 80608.34, 16662.73, 68536.01, 127856.73, 99426.95, 0.00, 0.00, 0.00
254, 80984.66, 132554.95, 25457.94, 80604.84, 16677.55, 68542.16, 127853.16, 99432.83, 0.00, 0.00, 0.00
255, 80983.48, 132552.44, 25458.05, 80607.70, 16676.59, 68542.09, 127861.18, 99435.89, 0.00, 0.00, 0.00
0, 80978.53, 132552.30, 25461.86, 80607.67, 16672.03, 68535.23, 127862.16, 99431.40, 0.00, 0.00, 0.00
1, 80980.86, 132548.70, 25457.09, 80602.91, 16658.22, 68537.33, 127858.59, 99433.05, 0.00, 0.00, 0.00
2, 80980.37, 132545.80, 25453.65, 80598.96, 16642.53, 68536.91, 127859.08, 99430.91, 0.00, 0.00, 0.00
3, 80987.27, 132549.58, 25458.37, 80609.10, 16676.03, 68545.49, 127862.81, 99434.68, 0.07, -0.29, 0.96
4, 80991.12, 132550.22, 25459.31, 80611.14, 16681.13, 68546.09, 127866.88, 99435.38, 0.00, 0.00, 0.00
5, 80988.37, 132557.83, 25461.16, 80608.61, 16672.17, 68546.88, 127863.91, 99436.60, 0.00, 0.00, 0.00
6, 80980.77, 132551.05, 25460.33, 80613.35, 16685.42, 68542.94, 127854.74, 99431.24, 0.00, 0.00, 0.00
7, 80979.97, 132545.64, 25458.30, 80610.71, 16683.05, 68538.36, 127850.16, 99431.95, 0.00, 0.00, 0.00
8, 80977.55, 132547.05, 25461.72, 80614.76, 16676.72, 68539.12, 127847.91, 99429.25, 0.00, 0.00, 0.00
9, 80983.79, 132556.33, 25461.41, 80614.76, 16673.62, 68542.25, 127852.16, 99430.52, 0.00, 0.00, 0.00
10, 80986.78, 132550.89, 25457.38, 80612.70, 16669.48, 68545.29, 127855.80, 99431.64, 0.00, 0.00, 0.00
11, 80980.79, 132540.78, 25454.10, 80608.97, 16660.16, 68538.18, 127849.59, 99428.67, 0.00, 0.00, 0.00
12, 80979.92, 132543.30, 25458.14, 80611.77, 16662.87, 68537.40, 127846.95, 99427.33, 0.00, 0.00, 0.00
13, 80978.73, 132549.33, 25456.54, 80607.27, 16651.85, 68536.73, 127846.32, 99426.28, 0.07, -0.29, 0.96
14, 80981.69, 132548.81, 25456.09, 80607.27, 16672.14, 68537.60, 127845.91, 99425.80, 0.00, 0.00, 0.00
15, 80983.30, 132546.80, 25456.69, 80609.02, 16669.71, 68537.95, 127849.27, 99424.89, 0.00, 0.00, 0.00
16, 80983.79, 132547.25, 25457.38, 80608.01, 16645.41, 68530.98, 127837.58, 99423.06, 0.00, 0.00, 0.00
17, 80988.17, 132556.28, 25464.40, 80610.60, 16675.61, 68542.12, 127837.49, 99426.95, 0.00, 0.00, 0.00
18, 80986.80, 132545.50, 25457.92, 80603.02, 16652.63, 68533.80, 127835.70, 99426.77, 0.00, 0.00, 0.00
19, 80988.26, 132539.11, 25453.99, 80600.43, 16679.34, 68545.38, 127838.97, 99430.52, 0.00, 0.00, 0.00
20, 80991.63, 132540.50, 25457.94, 80609.15, 16676.28, 68546.00, 127844.98, 99435.55, 0.00, 0.00, 0.00
21, 80992.23, 132542.11, 25458.95, 80611.77, 16679.07, 68546.12, 127850.68, 99436.18, 0.00, 0.00, 0.00
22, 80989.60, 132548.55, 25459.37, 80610.54, 16673.69, 68546.85, 127849.34, 99433.14, 0.00, 0.00, 0.00
23, 80988.59, 132550.11, 25458.81, 80605.39, 16661.08, 68542.80, 127842.79, 99429.18, 0.07, -0.29, 0.96
24, 80994.43, 132547.58, 25458.55, 80606.16, 16659.49, 68537.76, 127845.09, 99431.44, 0.00, 0.00, 0.00
25, 80992.86, 132547.41, 25457.65, 80608.03, 16674.80, 68538.80, 127846.12, 99429.45, 0.00, 0.00, 0.00
26, 80994.36, 132547.25, 25458.90, 80609.20, 16675.32, 68544.55, 127851.95, 99433.14, 0.00, 0.00, 0.00
27, 81001.52, 132548.17, 25459.75, 80609.91, 16670.51, 68543.19, 127853.43, 99438.37, 0.00, 0.00, 0.00
28, 81002.83, 132549.69, 25462.01, 80612.19, 16673.28, 68544.64, 127854.16, 99437.66, 0.00, 0.00, 0.00
29, 81003.81, 132551.78, 25463.98, 80614.45, 16663.02, 68548.20, 127856.09, 99441.03, 0.00, 0.00, 0.00
30, 81003.79, 132550.94, 25460.96, 80611.54, 16653.01, 68543.08, 127851.21, 99441.14, 0.00, 0.00, 0.00
31, 81000.51, 132550.13, 25461.16, 80614.38, 16677.71, 68550.45, 127852.11, 99436.67, 0.00, 0.00, 0.00
32, 80994.47, 132548.50, 25470.04, 80620.82, 16670.73, 68548.59, 127851.66, 99433.84, 0.07, -0.29, 0.96
33, 80992.88, 132547.14, 25468.76, 80617.84, 16659.00, 68547.32, 127852.60, 99434.50, 0.00, 0.00, 0.00
34, 80992.10, 132553.86, 25464.00, 80612.37, 16681.29, 68552.87, 127849.60, 99431.22, 0.00, 0.00, 0.00
35, 80996.70, 132552.23, 25464.60, 80616.26, 16681.60, 68555.13, 127850.88, 99431.62, 0.00, 0.00, 0.00
36, 81000.75, 132546.17, 25464.98, 80617.45, 16680.39, 68553.83, 127858.27, 99435.87, 0.00, 0.00, 0.00
37, 80999.05, 132543.20, 25468.45, 80616.05, 16675.27, 68550.54, 127846.66, 99435.55, 0.00, 0.00, 0.00
38, 81003.39, 132546.36, 25471.58, 80622.54, 16677.33, 68551.28, 127850.61, 99439.47, 0.00, 0.00, 0.00
39, 81008.69, 132554.00, 25473.86, 80629.69, 16685.00, 68555.37, 127853.88, 99443.63, 0.00, 0.00, 0.00
40, 81007.10, 132553.39, 25469.66, 80628.30, 16677.33, 68551.63, 127844.77, 99441.52, 0.00, 0.00, 0.00
41, 81008.15, 132551.30, 25465.30, 80620.75, 16669.80, 68550.12, 127842.79, 99441.92, 0.00, 0.00, 0.00
42, 81005.65, 132559.09, 25473.52, 80619.56, 16672.81, 68554.25, 127843.99, 99440.36, 0.07, -0.29, 0.97
43, 81004.98, 132552.08, 25473.66, 80619.63, 16678.74, 68555.55, 127851.39, 99438.03, 0.00, 0.00, 0.00
44, 81008.84, 132543.47, 25472.31, 80619.19, 16666.31, 68554.20, 127848.29, 99438.73, 0.00, 0.00, 0.00
45, 81013.29, 132553.47, 25477.79, 80630.88, 16682.18, 68559.05, 127852.98, 99442.44, 0.00, 0.00, 0.00
46, 81012.87, 132554.63, 25476.36, 80628.91, 16674.74, 68554.45, 127850.41, 99441.81, 0.00, 0.00, 0.00
47, 81010.27, 132550.17, 25473.30, 80626.25, 16674.11, 68551.86, 127844.33, 99437.48, 0.00, 0.00, 0.00
48, 81005.38, 132551.86, 25480.21, 80625.87, 16687.83, 68556.82, 127843.10, 99432.72, 0.00, 0.00, 0.00
49, 81006.88, 132552.45, 25481.05, 80621.87, 16678.63, 68552.35, 127840.09, 99433.81, 0.00, 0.00, 0.00
50, 81012.15, 132551.41, 25482.96, 80624.80, 16668.57, 68551.50, 127843.62, 99435.24, 0.00, 0.00, 0.00
51, 81006.14, 132548.41, 25481.95, 80626.78, 16673.37, 68554.85, 127842.66, 99428.11, 0.00, 0.00, 0.00
52, 81005.29, 132553.19, 25480.94, 80624.59, 16684.32, 68559.19, 127839.26, 99426.97, 0.07, -0.29, 0.97
53, 81005.54, 132548.61, 25477.61, 80619.79, 16671.74, 68554.16, 127839.99, 99427.91, 0.00, 0.00, 0.00
54, 81010.70, 132548.03, 25479.74, 80622.20, 16691.97, 68564.82, 127849.20, 99433.14, 0.00, 0.00, 0.00
55, 81007.21, 132553.34, 25482.42, 80623.73, 16684.30, 68562.34, 127839.88, 99432.83, 0.00, 0.00, 0.00
56, 81009.65, 132555.25, 25481.30, 80622.38, 16674.58, 68555.39, 127836.64, 99433.72, 0.00, 0.00, 0.00
57, 81010.85, 132557.42, 25485.03, 80621.78, 16674.47, 68559.10, 127838.61, 99435.66, 0.00, 0.00, 0.00
58, 81011.39, 132557.83, 25484.43, 80623.16, 16654.91, 68553.09, 127837.58, 99435.30, 0.00, 0.00, 0.00
59, 81012.45, 132555.70, 25485.14, 80627.55, 16695.17, 68573.59, 127844.51, 99436.98, 0.00, 0.00, 0.00
60, 81011.86, 132556.14, 25485.59, 80628.44, 16704.06, 68576.58, 127848.55, 99437.45, 0.00, 0.00, 0.00
61, 81009.24, 132553.69, 25483.65, 80625.04, 16687.99, 68567.28, 127844.13, 99433.84, 0.00, 0.00, 0.00
62, 81007.28, 132552.56, 25482.93, 80623.99, 16676.81, 68561.98, 127840.20, 99431.73, 0.06, -0.30, 0.96
63, 81010.56, 132551.72, 25484.94, 80625.94, 16680.19, 68567.23, 127847.80, 99434.28, 0.00, 0.00, 0.00
64, 81017.07, 132558.83, 25484.38, 80621.78, 16689.98, 68569.56, 127849.09, 99438.84, 0.00, 0.00, 0.00
65, 81016.27, 132560.38, 25480.81, 80617.91, 16676.14, 68559.75, 127839.10, 99437.79, 0.00, 0.00, 0.00
66, 81016.87, 132560.17, 25484.41, 80619.61, 16658.33, 68561.27, 127849.80, 99439.82, 0.00, 0.00, 0.00
67, 81016.17, 132562.98, 25487.34, 80622.54, 16680.44, 68566.01, 127850.99, 99435.22, 0.00, 0.00, 0.00
68, 81010.74, 132559.47, 25488.52, 80621.91, 16678.58, 68562.34, 127840.59, 99430.19, 0.00, 0.00, 0.00
69, 81011.95, 132563.98, 25491.65, 80624.23, 16681.13, 68563.28, 127841.20, 99429.36, 0.00, 0.00, 0.00
70, 81010.05, 132564.34, 25490.96, 80624.21, 16676.84, 68560.24, 127838.09, 99428.36, 0.00, 0.00, 0.00
71, 81005.22, 132559.45, 25489.79, 80622.67, 16656.63, 68550.27, 127832.23, 99425.27, 0.00, 0.00, 0.00
72, 81006.02, 132557.64, 25490.93, 80624.23, 16663.78, 68558.79, 127839.52, 99428.55, 0.07, -0.30, 0.96
73, 81012.69, 132559.09, 25494.85, 80631.79, 16693.40, 68568.65, 127846.88, 99434.23, 0.00, 0.00, 0.00
74, 81009.31, 132561.89, 25492.70, 80626.07, 16684.86, 68565.90, 127842.52, 99433.45, 0.00, 0.00, 0.00
75, 81010.12, 132568.48, 25487.74, 80620.02, 16669.73, 68564.22, 127840.98, 99435.29, 0.00, 0.00, 0.00
76, 81022.63, 132554.25, 25481.26, 80613.64, 16653.59, 68551.45, 127843.34, 99451.09, 0.00, 0.00, 0.00
77, 81026.14, 132549.95, 25486.78, 80616.23, 16679.65, 68565.45, 127844.69, 99453.62, 0.00, 0.00, 0.00
78, 81012.06, 132559.14, 25499.52, 80628.57, 16684.64, 68572.36, 127841.47, 99428.29, 0.00, 0.00, 0.00
79, 81016.09, 132557.38, 25496.19, 80625.27, 16663.89, 68562.90, 127841.96, 99434.13, 0.00, 0.00, 0.00
80, 81023.13, 132557.38, 25490.24, 80622.02, 16661.66, 68564.16, 127836.35, 99441.59, 0.00, 0.00, 0.00
81, 81024.06, 132560.80, 25493.28, 80624.02, 16663.98, 68566.68, 127835.19, 99443.29, 0.00, 0.00, 0.00
82, 81030.66, 132559.72, 25493.42, 80625.60, 16674.47, 68569.18, 127838.88, 99445.84, 0.07, -0.29, 0.96
83, 81033.52, 132562.02, 25489.24, 80625.11, 16675.03, 68568.00, 127839.19, 99450.38, 0.00, 0.00, 0.00
84, 81031.76, 132558.31, 25491.11, 80622.59, 16662.53, 68568.29, 127839.81, 99449.68, 0.00, 0.00, 0.00
85, 81039.89, 132557.02, 25492.57, 80616.13, 16671.41, 68568.78, 127834.00, 99456.95, 0.00, 0.00, 0.00
86, 81050.33, 132561.33, 25491.40, 80614.56, 16659.83, 68563.66, 127841.55, 99467.09, 0.00, 0.00, 0.00
87, 81056.68, 132562.72, 25487.45, 80611.77, 16661.57, 68566.41, 127848.35, 99474.78, 0.00, 0.00, 0.00
88, 81059.52, 132559.55, 25480.52, 80601.28, 16649.77, 68560.80, 127833.06, 99474.00, 0.00, 0.00, 0.00
89, 81061.84, 132559.23, 25481.41, 80600.43, 16661.68, 68562.21, 127832.55, 99474.83, 0.00, 0.00, 0.00
90, 81061.17, 132561.39, 25486.75, 80607.97, 16648.27, 68551.37, 127835.16, 99474.40, 0.00, 0.00, 0.00
91, 81051.58, 132560.17, 25493.28, 80611.18, 16654.60, 68549.78, 127820.37, 99463.47, 0.00, 0.00, 0.00
92, 81049.97, 132558.09, 25496.63, 80611.32, 16678.51, 68561.98, 127823.92, 99463.23, 0.07, -0.29, 0.96
93, 81056.16, 132564.13, 25499.61, 80616.99, 16669.77, 68566.70, 127830.05, 99471.14, 0.00, 0.00, 0.00
94, 81062.27, 132572.64, 25503.25, 80623.61, 16668.75, 68569.63, 127834.47, 99475.01, 0.00, 0.00, 0.00
95, 81061.21, 132565.20, 25503.29, 80624.48, 16662.42, 68568.94, 127836.64, 99471.14, 0.00, 0.00, 0.00
96, 81062.87, 132563.30, 25505.42, 80622.07, 16659.92, 68569.02, 127828.37, 99470.69, 0.00, 0.00, 0.00
97, 81056.68, 132560.33, 25503.16, 80614.98, 16655.89, 68561.47, 127819.32, 99464.68, 0.00, 0.00, 0.00
98, 81056.68, 132560.34, 25497.93, 80613.27, 16660.63, 68553.71, 127815.30, 99460.97, 0.00, 0.00, 0.00
99, 81062.29, 132564.34, 25508.01, 80621.98, 16662.04, 68554.48, 127815.27, 99465.75, 0.00, 0.00, 0.00
100, 81057.15, 132569.56, 25511.88, 80624.69, 16661.50, 68554.77, 127816.55, 99464.77, 0.00, 0.00, 0.00
101, 81062.13, 132572.33, 25509.69, 80622.29, 16658.20, 68557.23, 127823.59, 99470.69, 0.00, 0.00, 0.00
102, 81065.20, 132571.36, 25507.43, 80617.27, 16650.71, 68559.34, 127820.05, 99473.82, 0.07, -0.29, 0.96
103, 81063.31, 132567.55, 25507.21, 80620.15, 16654.71, 68561.72, 127812.77, 99469.13, 0.00, 0.00, 0.00
104, 81070.84, 132567.66, 25507.68, 80619.81, 16651.04, 68557.24, 127815.27, 99472.39, 0.00, 0.00, 0.00
105, 81077.89, 132571.03, 25506.78, 80620.59, 16647.33, 68556.35, 127815.07, 99474.54, 0.00, 0.00, 0.00
106, 81079.01, 132576.47, 25510.16, 80623.48, 16650.62, 68557.23, 127814.73, 99474.11, 0.00, 0.00, 0.00
107, 81081.42, 132580.02, 25513.26, 80619.63, 16651.78, 68558.77, 127817.13, 99475.98, 0.00, 0.00, 0.00
108, 81078.58, 132570.38, 25509.71, 80614.83, 16652.21, 68557.36, 127813.75, 99473.22, 0.00, 0.00, 0.00
109, 81079.12, 132577.58, 25513.13, 80619.66, 16650.46, 68562.41, 127818.05, 99475.05, 0.00, 0.00, 0.00
110, 81076.23, 132573.56, 25512.91, 80616.99, 16655.04, 68558.59, 127812.57, 99469.57, 0.00, 0.00, 0.00
111, 81073.55, 132560.06, 25511.47, 80615.34, 16668.97, 68560.87, 127809.17, 99466.89, 0.00, 0.00, 0.00
112, 81078.94, 132569.95, 25515.14, 80619.07, 16662.15, 68564.20, 127807.67, 99469.93, 0.07, -0.29, 0.96
113, 81082.76, 132573.28, 25512.79, 80616.91, 16660.52, 68564.31, 127811.25, 99471.43, 0.00, 0.00, 0.00
114, 81081.91, 132571.14, 25509.80, 80611.01, 16638.71, 68553.67, 127810.69, 99472.16, 0.00, 0.00, 0.00
115, 81079.97, 132572.97, 25514.67, 80612.55, 16623.13, 68550.56, 127805.88, 99468.73, 0.00, 0.00, 0.00
116, 81079.74, 132576.81, 25515.72, 80610.60, 16655.89, 68557.45, 127817.46, 99467.90, 0.00, 0.00, 0.00
117, 81081.71, 132576.13, 25510.67, 80606.76, 16663.58, 68561.31, 127809.84, 99469.59, 0.00, 0.00, 0.00
118, 81084.82, 132573.52, 25514.65, 80617.62, 16651.78, 68561.05, 127803.09, 99472.73, 0.00, 0.00, 0.00
119, 81088.23, 132575.08, 25516.21, 80617.55, 16655.54, 68565.09, 127807.43, 99475.63, 0.00, 0.00, 0.00
120, 81085.60, 132574.42, 25516.13, 80614.60, 16650.44, 68565.18, 127805.35, 99470.80, 0.00, 0.00, 0.00
121, 81082.72, 132571.19, 25518.63, 80611.36, 16664.01, 68571.28, 127807.65, 99467.56, 0.00, 0.00, 0.00
122, 81081.13, 132569.59, 25520.91, 80612.57, 16664.52, 68570.30, 127807.70, 99464.88, 0.07, -0.30, 0.96
123, 81075.97, 132570.63, 25522.83, 80614.09, 16661.15, 68572.60, 127806.33, 99463.59, 0.00, 0.00, 0.00
124, 81073.46, 132570.20, 25518.25, 80614.42, 16660.19, 68571.77, 127803.90, 99460.97, 0.00, 0.00, 0.00
125, 81075.20, 132568.45, 25514.52, 80611.20, 16652.56, 68567.23, 127799.56, 99460.14, 0.00, 0.00, 0.00
126, 81074.65, 132570.20, 25514.27, 80611.41, 16645.86, 68563.48, 127796.90, 99459.25, 0.00, 0.00, 0.00
127, 81073.64, 132572.14, 25514.58, 80610.29, 16649.43, 68563.77, 127795.47, 99457.68, 0.00, 0.00, 0.00
128, 81077.11, 132568.53, 25515.07, 80610.63, 16658.11, 68568.96, 127796.77, 99458.35, 0.00, 0.00, 0.00
129, 81077.04, 132571.67, 25522.41, 80619.86, 16655.25, 68571.98, 127797.63, 99457.75, 0.00, 0.00, 0.00
130, 81072.21, 132568.27, 25524.02, 80619.74, 16647.94, 68569.47, 127798.35, 99457.46, 0.00, 0.00, 0.00
131, 81071.36, 132562.47, 25523.39, 80619.43, 16657.26, 68571.98, 127803.83, 99458.42, 0.00, 0.00, 0.00
132, 81069.06, 132559.67, 25525.65, 80622.16, 16663.69, 68574.14, 127797.34, 99455.16, 0.06, -0.29, 0.96
133, 81071.49, 132562.81, 25525.38, 80621.60, 16659.25, 68574.63, 127793.55, 99456.03, 0.00, 0.00, 0.00
134, 81070.20, 132566.84, 25525.78, 80619.86, 16664.37, 68573.95, 127797.01, 99455.16, 0.00, 0.00, 0.00
135, 81071.16, 132571.41, 25530.14, 80622.92, 16657.84, 68575.22, 127803.72, 99457.13, 0.00, 0.00, 0.00
136, 81075.34, 132573.06, 25529.98, 80623.43, 16651.89, 68578.26, 127803.00, 99461.55, 0.00, 0.00, 0.00
137, 81074.98, 132557.33, 25529.65, 80626.52, 16659.07, 68575.09, 127799.13, 99457.39, 0.00, 0.00, 0.00
138, 81071.85, 132558.69, 25525.33, 80619.23, 16668.34, 68574.81, 127795.91, 99454.71, 0.00, 0.00, 0.00
139, 81073.09, 132564.19, 25529.71, 80618.96, 16645.75, 68570.12, 127793.97, 99455.85, 0.00, 0.00, 0.00
140, 81071.02, 132563.03, 25527.57, 80617.45, 16662.58, 68570.48, 127790.75, 99453.79, 0.00, 0.00, 0.00
141, 81073.75, 132558.98, 25526.45, 80616.23, 16671.92, 68578.13, 127794.58, 99455.23, 0.00, 0.00, 0.00
142, 81073.15, 132559.83, 25527.23, 80615.84, 16665.08, 68578.97, 127800.43, 99455.73, 0.07, -0.29, 0.96
143, 81069.17, 132557.17, 25528.13, 80620.77, 16650.06, 68577.45, 127791.69, 99452.25, 0.00, 0.00, 0.00
144, 81067.49, 132558.09, 25529.56, 80619.56, 16623.97, 68566.77, 127789.23, 99449.73, 0.00, 0.00, 0.00
145, 81067.47, 132559.34, 25528.64, 80616.39, 16645.59, 68569.34, 127790.71, 99450.30, 0.00, 0.00, 0.00
146, 81069.08, 132559.41, 25534.81, 80616.23, 16674.20, 68579.04, 127790.80, 99450.87, 0.00, 0.00, 0.00
147, 81068.12, 132558.22, 25533.96, 80617.33, 16665.01, 68575.35, 127788.12, 99446.73, 0.00, 0.00, 0.00
148, 81071.20, 132558.20, 25534.25, 80622.20, 16661.71, 68577.02, 127792.48, 99452.66, 0.00, 0.00, 0.00
149, 81068.99, 132560.91, 25527.46, 80618.02, 16643.96, 68566.61, 127788.54, 99452.74, 0.00, 0.00, 0.00
150, 81069.88, 132562.77, 25529.09, 80618.23, 16657.08, 68573.27, 127788.23, 99453.21, 0.00, 0.00, 0.00
151, 81071.27, 132559.25, 25528.69, 80618.85, 16656.47, 68575.89, 127790.80, 99455.67, 0.00, 0.00, 0.00
152, 81071.77, 132560.80, 25527.48, 80616.33, 16658.42, 68577.07, 127794.71, 99454.38, 0.06, -0.29, 0.96
153, 81070.24, 132555.36, 25526.09, 80611.63, 16658.15, 68573.54, 127787.69, 99451.65, 0.00, 0.00, 0.00
154, 81067.00, 132552.59, 25530.23, 80619.07, 16651.85, 68569.80, 127779.06, 99450.40, 0.00, 0.00, 0.00
155, 81062.45, 132554.52, 25534.25, 80620.35, 16636.60, 68564.04, 127773.09, 99442.44, 0.00, 0.00, 0.00
156, 81068.59, 132563.23, 25541.18, 80624.15, 16654.04, 68573.59, 127780.52, 99446.98, 0.00, 0.00, 0.00
157, 81068.59, 132562.16, 25537.16, 80622.56, 16660.41, 68570.79, 127779.17, 99446.71, 0.00, 0.00, 0.00
158, 81067.67, 132557.55, 25532.71, 80618.41, 16648.61, 68563.28, 127774.10, 99443.78, 0.00, 0.00, 0.00
159, 81070.53, 132556.02, 25532.51, 80615.38, 16635.53, 68562.68, 127776.83, 99447.73, 0.00, 0.00, 0.00
160, 81073.13, 132556.77, 25535.28, 80620.91, 16641.10, 68564.63, 127775.33, 99450.57, 0.00, 0.00, 0.00
161, 81069.39, 132560.17, 25535.68, 80625.78, 16669.17, 68570.16, 127772.49, 99449.10, 0.00, 0.00, 0.00
162, 81066.06, 132557.55, 25535.06, 80623.88, 16664.70, 68567.84, 127770.63, 99446.69, 0.06, -0.29, 0.95
163, 81067.59, 132553.84, 25535.21, 80623.30, 16655.49, 68567.86, 127774.16, 99447.89, 0.00, 0.00, 0.00
164, 81064.66, 132561.28, 25539.26, 80622.80, 16637.59, 68570.19, 127775.84, 99441.68, 0.00, 0.00, 0.00
165, 81067.16, 132562.25, 25541.43, 80628.20, 16637.25, 68573.72, 127778.64, 99444.02, 0.00, 0.00, 0.00
166, 81068.01, 132553.38, 25543.60, 80634.23, 16682.00, 68585.99, 127783.60, 99444.31, 0.00, 0.00, 0.00
167, 81063.31, 132555.20, 25544.65, 80633.73, 16692.82, 68589.03, 127779.95, 99440.65, 0.00, 0.00, 0.00
168, 81062.60, 132562.88, 25545.83, 80628.98, 16665.21, 68581.72, 127779.33, 99442.55, 0.00, 0.00, 0.00
169, 81068.70, 132559.55, 25546.93, 80628.93, 16674.13, 68589.41, 127801.19, 99449.28, 0.00, 0.00, 0.00
170, 81064.43, 132552.97, 25542.48, 80625.49, 16661.12, 68584.23, 127785.84, 99442.84, 0.00, 0.00, 0.00
171, 81069.35, 132559.00, 25542.32, 80619.77, 16659.16, 68581.59, 127775.55, 99445.43, 0.00, 0.00, 0.00
172, 81071.63, 132562.84, 25547.84, 80620.80, 16653.41, 68575.13, 127775.06, 99445.12, 0.06, -0.29, 0.96
173, 81073.57, 132563.63, 25547.28, 80621.91, 16659.40, 68577.92, 127777.84, 99446.57, 0.00, 0.00, 0.00
174, 81072.88, 132562.30, 25545.52, 80623.84, 16658.44, 68578.15, 127780.34, 99449.39, 0.00, 0.00, 0.00
175, 81075.16, 132566.69, 25547.69, 80619.66, 16651.76, 68574.16, 127781.05, 99450.10, 0.00, 0.00, 0.00
176, 81071.88, 132569.63, 25546.08, 80618.98, 16655.36, 68577.30, 127781.37, 99445.45, 0.00, 0.00, 0.00
177, 81069.20, 132568.92, 25548.78, 80625.80, 16654.04, 68578.59, 127782.93, 99442.10, 0.00, 0.00, 0.00
178, 81067.23, 132564.80, 25548.56, 80621.76, 16650.80, 68578.48, 127782.86, 99440.13, 0.00, 0.00, 0.00
179, 81062.98, 132559.83, 25551.17, 80621.13, 16644.61, 68576.11, 127782.59, 99438.39, 0.00, 0.00, 0.00
180, 81062.94, 132559.61, 25550.48, 80620.57, 16639.13, 68574.84, 127784.13, 99439.22, 0.00, 0.00, 0.00
181, 81070.20, 132564.17, 25551.87, 80623.32, 16656.05, 68584.31, 127789.08, 99446.41, 0.00, 0.00, 0.00
182, 81071.80, 132565.95, 25551.37, 80620.64, 16638.95, 68578.37, 127787.89, 99446.15, 0.06, -0.29, 0.96
183, 81069.39, 132565.75, 25553.88, 80620.19, 16648.05, 68573.07, 127784.18, 99438.64, 0.00, 0.00, 0.00
184, 81073.66, 132566.00, 25554.05, 80620.23, 16643.85, 68570.19, 127784.49, 99440.85, 0.00, 0.00, 0.00
185, 81073.20, 132569.44, 25552.00, 80621.33, 16643.11, 68572.22, 127784.56, 99441.09, 0.00, 0.00, 0.00
186, 81075.50, 132572.23, 25557.16, 80626.67, 16659.16, 68582.39, 127790.75, 99445.21, 0.00, 0.00, 0.00
187, 81076.41, 132570.19, 25553.79, 80623.39, 16640.25, 68573.54, 127788.52, 99446.04, 0.00, 0.00, 0.00
188, 81082.38, 132572.39, 25555.20, 80624.77, 16655.36, 68585.90, 127796.99, 99450.22, 0.00, 0.00, 0.00
189, 81084.99, 132569.13, 25552.56, 80620.39, 16645.14, 68579.71, 127790.51, 99449.57, 0.00, 0.00, 0.00
190, 81082.13, 132565.48, 25549.65, 80619.70, 16642.17, 68576.87, 127782.70, 99446.80, 0.00, 0.00, 0.00
191, 81084.21, 132569.17, 25552.87, 80623.37, 16651.80, 68578.97, 127787.69, 99451.36, 0.00, 0.00, 0.00
192, 81085.22, 132575.92, 25554.12, 80622.00, 16647.42, 68577.97, 127792.79, 99453.55, 0.06, -0.29, 0.97
193, 81085.87, 132579.61, 25554.39, 80624.95, 16669.93, 68593.81, 127797.99, 99453.62, 0.00, 0.00, 0.00
194, 81085.98, 132573.75, 25554.01, 80624.64, 16663.58, 68588.88, 127796.85, 99454.59, 0.00, 0.00, 0.00
195, 81088.70, 132571.50, 25548.56, 80619.90, 16653.44, 68580.56, 127793.32, 99455.18, 0.00, 0.00, 0.00
196, 81087.86, 132568.70, 25545.56, 80619.50, 16645.70, 68576.36, 127789.26, 99452.83, 0.00, 0.00, 0.00
197, 81084.15, 132569.75, 25547.35, 80617.24, 16652.18, 68577.50, 127786.73, 99451.49, 0.00, 0.00, 0.00
198, 81083.19, 132575.67, 25554.77, 80619.50, 16649.01, 68577.70, 127786.02, 99449.34, 0.00, 0.00, 0.00
199, 81087.23, 132571.08, 25556.94, 80619.41, 16646.24, 68580.07, 127788.59, 99451.78, 0.00, 0.00, 0.00
200, 81091.48, 132557.31, 25553.81, 80616.50, 16640.72, 68577.18, 127787.82, 99451.58, 0.00, 0.00, 0.00
201, 81094.83, 132558.61, 25553.43, 80615.41, 16639.58, 68575.95, 127789.34, 99454.53, 0.00, 0.00, 0.00
202, 81095.55, 132559.67, 25552.98, 80619.21, 16650.08, 68583.89, 127792.05, 99456.56, 0.07, -0.29, 0.96
203, 81096.84, 132562.09, 25552.63, 80625.00, 16654.31, 68584.41, 127793.32, 99456.61, 0.00, 0.00, 0.00
204, 81101.42, 132564.25, 25555.15, 80626.30, 16653.97, 68585.32, 127792.65, 99457.88, 0.00, 0.00, 0.00
205, 81107.75, 132565.05, 25555.40, 80623.70, 16642.01, 68583.91, 127790.55, 99456.50, 0.00, 0.00, 0.00
206, 81102.66, 132562.45, 25551.42, 80620.30, 16645.77, 68582.19, 127788.52, 99450.80, 0.00, 0.00, 0.00
207, 81098.12, 132562.81, 25550.37, 80621.20, 16644.58, 68585.55, 127787.38, 99449.14, 0.00, 0.00, 0.00
208, 81098.85, 132563.92, 25548.80, 80619.81, 16655.83, 68591.00, 127789.16, 99451.96, 0.00, 0.00, 0.00
209, 81097.36, 132568.22, 25551.20, 80620.80, 16656.07, 68591.27, 127792.07, 99450.24, 0.00, 0.00, 0.00
210, 81093.22, 132573.42, 25552.71, 80630.18, 16651.56, 68586.39, 127796.27, 99447.73, 0.00, 0.00, 0.00
211, 81095.37, 132573.36, 25552.87, 80632.87, 16659.16, 68588.59, 127794.51, 99450.71, 0.00, 0.00, 0.00
212, 81097.45, 132571.61, 25553.09, 80631.79, 16647.91, 68589.08, 127792.25, 99451.38, 0.07, -0.29, 0.96
213, 81091.30, 132566.61, 25558.55, 80626.85, 16655.80, 68582.28, 127784.78, 99446.13, 0.00, 0.00, 0.00
214, 81089.27, 132561.64, 25555.35, 80622.83, 16663.69, 68581.05, 127781.25, 99441.92, 0.00, 0.00, 0.00
215, 81095.41, 132561.03, 25552.20, 80624.80, 16652.85, 68582.55, 127786.91, 99447.18, 0.00, 0.00, 0.00
216, 81099.88, 132565.42, 25554.14, 80625.89, 16652.56, 68587.35, 127792.32, 99452.74, 0.00, 0.00, 0.00
217, 81096.73, 132571.88, 25555.11, 80626.49, 16653.75, 68588.36, 127791.47, 99448.48, 0.00, 0.00, 0.00
218, 81094.54, 132568.17, 25551.44, 80628.62, 16650.69, 68586.03, 127789.39, 99446.10, 0.00, 0.00, 0.00
219, 81095.08, 132562.84, 25553.52, 80627.79, 16646.75, 68586.02, 127790.64, 99445.66, 0.00, 0.00, 0.00
220, 81098.85, 132562.83, 25556.20, 80631.48, 16650.95, 68585.37, 127791.71, 99447.04, 0.00, 0.00, 0.00
221, 81100.69, 132564.58, 25556.02, 80628.08, 16659.45, 68589.97, 127789.73, 99446.93, 0.00, 0.00, 0.00
222, 81098.97, 132563.34, 25553.99, 80624.39, 16653.90, 68588.98, 127788.05, 99443.66, 0.07, -0.29, 0.96
223, 81098.90, 132560.45, 25554.77, 80625.82, 16651.13, 68589.66, 127788.05, 99444.61, 0.00, 0.00, 0.00
224, 81095.50, 132558.11, 25553.29, 80626.31, 16648.90, 68590.53, 127784.45, 99443.38, 0.00, 0.00, 0.00
225, 81094.45, 132559.09, 25554.03, 80629.40, 16650.17, 68591.38, 127785.39, 99444.85, 0.00, 0.00, 0.00
226, 81099.79, 132563.30, 25557.23, 80631.45, 16652.25, 68593.95, 127790.48, 99449.81, 0.00, 0.00, 0.00
227, 81101.89, 132563.36, 25555.73, 80631.34, 16649.61, 68591.45, 127789.91, 99449.01, 0.00, 0.00, 0.00
228, 81101.72, 132565.48, 25554.44, 80629.58, 16646.28, 68587.76, 127788.25, 99444.47, 0.00, 0.00, 0.00
229, 81103.16, 132560.59, 25548.33, 80622.20, 16636.56, 68585.50, 127786.57, 99445.14, 0.00, 0.00, 0.00
230, 81105.36, 132566.50, 25552.49, 80631.77, 16631.71, 68581.23, 127787.66, 99446.82, 0.00, 0.00, 0.00
231, 81102.36, 132569.02, 25553.09, 80631.59, 16623.55, 68578.97, 127786.64, 99443.63, 0.00, 0.00, 0.00
232, 81103.70, 132553.47, 25553.05, 80632.59, 16659.36, 68591.65, 127787.96, 99447.22, 0.07, -0.29, 0.96
233, 81106.14, 132555.14, 25556.38, 80635.21, 16666.13, 68592.95, 127787.29, 99447.91, 0.00, 0.00, 0.00
234, 81101.31, 132557.33, 25561.25, 80636.33, 16652.18, 68586.19, 127782.08, 99440.60, 0.00, 0.00, 0.00
235, 81102.38, 132560.66, 25560.85, 80635.75, 16645.03, 68582.99, 127778.93, 99437.56, 0.00, 0.00, 0.00
236, 81103.77, 132562.11, 25561.50, 80639.33, 16654.53, 68586.05, 127781.25, 99436.05, 0.00, 0.00, 0.00
237, 81103.88, 132561.78, 25561.43, 80638.74, 16651.74, 68589.63, 127783.48, 99434.73, 0.00, 0.00, 0.00
238, 81104.29, 132560.22, 25556.71, 80634.52, 16645.72, 68585.27, 127779.71, 99431.71, 0.00, 0.00, 0.00
239, 81099.73, 132558.73, 25557.05, 80630.38, 16637.97, 68580.80, 127774.95, 99428.65, 0.00, 0.00, 0.00
240, 81100.87, 132560.95, 25558.01, 80634.52, 16640.56, 68581.79, 127773.50, 99432.73, 0.00, 0.00, 0.00
241, 81101.85, 132564.03, 25557.72, 80635.57, 16637.45, 68584.56, 127773.41, 99433.43, 0.00, 0.00, 0.00
242, 81103.30, 132566.05, 25555.93, 80630.95, 16628.00, 68576.55, 127770.21, 99435.33, 0.07, -0.29, 0.96
243, 81105.58, 132563.97, 25554.84, 80631.97, 16636.98, 68583.29, 127771.82, 99438.77, 0.00, 0.00, 0.00
244, 81100.24, 132561.00, 25558.77, 80633.27, 16643.44, 68582.55, 127768.20, 99433.03, 0.00, 0.00, 0.00
245, 81097.34, 132562.45, 25560.25, 80630.70, 16632.07, 68573.00, 127765.52, 99428.91, 0.00, 0.00, 0.00
246, 81099.34, 132564.28, 25558.04, 80628.59, 16610.16, 68564.04, 127766.32, 99431.02, 0.00, 0.00, 0.00
247, 81097.52, 132564.70, 25555.24, 80624.93, 16606.47, 68562.90, 127765.90, 99431.46, 0.00, 0.00, 0.00
248, 81095.05, 132563.97, 25553.50, 80621.64, 16640.72, 68575.33, 127765.56, 99429.30, 0.00, 0.00, 0.00
249, 81100.91, 132565.59, 25555.06, 80623.73, 16629.09, 68571.77, 127769.25, 99436.31, 0.00, 0.00, 0.00
250, 81100.91, 132564.45, 25550.75, 80623.16, 16626.32, 68567.59, 127769.74, 99435.06, 0.00, 0.00, 0.00
251, 81105.34, 132567.16, 25556.31, 80632.10, 16637.81, 68572.71, 127771.06, 99436.72, 0.00, 0.00, 0.00
252, 81101.23, 132562.89, 25555.33, 80627.84, 16644.40, 68569.00, 127767.44, 99431.64, 0.07, -0.29, 0.96
253, 81096.80, 132563.97, 25558.19, 80629.13, 16638.62, 68586.48, 127769.02, 99426.99, 0.00, 0.00, 0.00
254, 81094.20, 132566.00, 25556.51, 80626.74, 16631.55, 68580.13, 127766.70, 99424.71, 0.00, 0.00, 0.00
255, 81093.65, 132559.52, 25553.88, 80621.58, 16630.32, 68578.79, 127765.80, 99424.22, 0.00, 0.00, 0.00
0, 81093.24, 132559.20, 25555.06, 80621.80, 16619.95, 68568.42, 127761.36, 99419.44, 0.00, 0.00, 0.00
1, 81093.96, 132564.92, 25556.78, 80627.50, 16631.78, 68576.24, 127760.73, 99416.06, 0.00, 0.00, 0.00
2, 81096.38, 132562.89, 25555.75, 80627.45, 16636.78, 68574.88, 127756.29, 99413.23, 0.00, 0.00, 0.00
3, 81102.92, 132556.64, 25553.03, 80622.52, 16623.84, 68569.85, 127753.27, 99416.55, 0.00, 0.00, 0.00
4, 81094.59, 132557.22, 25556.74, 80626.72, 16630.17, 68580.54, 127767.38, 99420.29, 0.00, 0.00, 0.00
5, 81088.02, 132561.89, 25567.00, 80639.37, 16635.55, 68587.47, 127776.67, 99419.35, 0.00, 0.00, 0.00
6, 81089.98, 132558.72, 25565.23, 80636.46, 16621.11, 68578.75, 127776.65, 99421.23, 0.08, -0.29, 0.96
7, 81095.75, 132557.53, 25563.78, 80635.10, 16635.02, 68582.50, 127778.62, 99428.78, 0.00, 0.00, 0.00
8, 81093.53, 132556.80, 25562.77, 80638.63, 16665.59, 68592.05, 127777.72, 99427.95, 0.00, 0.00, 0.00
9, 81096.69, 132557.89, 25562.57, 80634.85, 16654.98, 68586.44, 127775.62, 99429.16, 0.00, 0.00, 0.00
10, 81097.42, 132561.22, 25562.46, 80634.79, 16649.43, 68588.07, 127775.30, 99428.89, 0.00, 0.00, 0.00
11, 81095.52, 132561.06, 25566.04, 80638.48, 16642.75, 68582.95, 127772.06, 99425.83, 0.00, 0.00, 0.00
12, 81098.16, 132556.14, 25561.21, 80632.71, 16635.53, 68573.16, 127767.66, 99426.99, 0.00, 0.00, 0.00
13, 81098.14, 132554.73, 25563.42, 80632.13, 16636.78, 68595.83, 127774.41, 99428.58, 0.00, 0.00, 0.00
14, 81099.01, 132557.19, 25560.74, 80631.59, 16642.46, 68593.75, 127779.76, 99428.98, 0.00, 0.00, 0.00
15, 81102.43, 132559.70, 25560.98, 80631.93, 16641.28, 68597.79, 127780.18, 99435.58, 0.00, 0.00, 0.00
16, 81104.60, 132557.50, 25566.17, 80638.36, 16638.06, 68596.45, 127776.76, 99436.56, 0.07, -0.29, 0.96
17, 81107.19, 132555.36, 25565.21, 80638.66, 16635.49, 68592.12, 127776.98, 99438.02, 0.00, 0.00, 0.00
18, 81108.76, 132557.83, 25564.11, 80639.59, 16639.78, 68598.38, 127781.19, 99440.29, 0.00, 0.00, 0.00
19, 81108.58, 132567.91, 25562.97, 80635.52, 16632.74, 68595.65, 127781.97, 99440.43, 0.00, 0.00, 0.00
20, 81104.15, 132567.52, 25563.62, 80634.54, 16627.51, 68590.30, 127775.33, 99433.61, 0.00, 0.00, 0.00
21, 81106.09, 132560.34, 25567.60, 80644.78, 16633.77, 68597.26, 127776.31, 99435.35, 0.00, 0.00, 0.00
22, 81104.76, 132548.81, 25570.60, 80637.89, 16628.42, 68591.38, 127770.93, 99430.26, 0.00, 0.00, 0.00
23, 81098.45, 132548.36, 25573.75, 80628.73, 16620.62, 68583.89, 127755.93, 99417.41, 0.00, 0.00, 0.00
24, 81101.09, 132549.94, 25565.61, 80627.03, 16621.79, 68582.21, 127754.03, 99417.36, 0.00, 0.00, 0.00
25, 81106.90, 132553.19, 25563.62, 80627.86, 16615.17, 68586.19, 127759.23, 99424.38, 0.00, 0.00, 0.00
26, 81105.07, 132555.66, 25565.14, 80630.54, 16613.49, 68586.75, 127759.86, 99426.34, 0.07, -0.28, 0.95
27, 81106.01, 132558.33, 25567.80, 80637.63, 16634.01, 68592.56, 127761.74, 99429.59, 0.00, 0.00, 0.00
28, 81105.47, 132551.89, 25567.42, 80637.13, 16616.53, 68584.13, 127758.61, 99429.70, 0.00, 0.00, 0.00
29, 81107.86, 132550.44, 25570.66, 80638.92, 16625.41, 68588.16, 127760.45, 99433.56, 0.00, 0.00, 0.00
30, 81105.00, 132548.28, 25565.50, 80630.18, 16614.95, 68586.57, 127757.00, 99429.34, 0.00, 0.00, 0.00
31, 81103.93, 132548.61, 25565.95, 80632.44, 16628.65, 68585.61, 127750.99, 99423.91, 0.00, 0.00, 0.00
32, 81106.23, 132548.59, 25571.94, 80638.95, 16632.56, 68590.51, 127746.70, 99419.15, 0.00, 0.00, 0.00
33, 81109.20, 132547.16, 25569.54, 80631.16, 16626.39, 68587.13, 127747.52, 99420.42, 0.00, 0.00, 0.00
34, 81107.68, 132545.80, 25568.52, 80630.77, 16620.09, 68583.35, 127747.30, 99419.57, 0.00, 0.00, 0.00
35, 81109.85, 132549.34, 25568.16, 80631.03, 16630.26, 68597.61, 127759.26, 99426.95, 0.00, 0.00, 0.00
36, 81116.34, 132552.75, 25569.23, 80636.02, 16619.04, 68596.30, 127763.05, 99434.86, 0.07, -0.29, 0.96
37, 81119.95, 132554.13, 25570.86, 80635.84, 16634.26, 68596.79, 127763.84, 99437.05, 0.00, 0.00, 0.00
38, 81116.55, 132552.88, 25568.85, 80634.59, 16632.92, 68593.88, 127759.44, 99435.30, 0.00, 0.00, 0.00
39, 81117.67, 132553.94, 25567.71, 80634.30, 16637.10, 68600.27, 127761.31, 99439.53, 0.00, 0.00, 0.00
40, 81119.38, 132551.45, 25566.62, 80632.04, 16627.46, 68594.55, 127762.48, 99440.18, 0.00, 0.00, 0.00
41, 81120.83, 132549.03, 25565.63, 80633.22, 16618.88, 68592.61, 127762.30, 99440.02, 0.00, 0.00, 0.00
42, 81122.86, 132551.50, 25566.33, 80631.13, 16614.56, 68594.15, 127761.09, 99441.43, 0.00, 0.00, 0.00
43, 81114.66, 132542.67, 25561.63, 80626.27, 16627.08, 68592.61, 127755.75, 99432.76, 0.00, 0.00, 0.00
44, 81113.92, 132544.56, 25561.86, 80621.60, 16629.50, 68600.67, 127762.77, 99437.05, 0.00, 0.00, 0.00
45, 81115.91, 132550.17, 25565.21, 80622.65, 16622.92, 68600.59, 127767.77, 99439.71, 0.00, 0.00, 0.00
46, 81118.19, 132554.28, 25567.33, 80624.75, 16616.51, 68598.71, 127771.22, 99441.84, 0.07, -0.28, 0.96
47, 81116.78, 132555.30, 25573.08, 80638.68, 16620.96, 68600.02, 127770.45, 99442.70, 0.00, 0.00, 0.00
48, 81123.38, 132558.83, 25571.87, 80638.68, 16648.72, 68613.20, 127776.67, 99448.20, 0.00, 0.00, 0.00
49, 81128.42, 132560.06, 25569.46, 80636.22, 16630.77, 68613.91, 127777.30, 99452.61, 0.00, 0.00, 0.00
50, 81134.37, 132564.25, 25567.67, 80633.83, 16646.75, 68622.45, 127782.55, 99458.06, 0.00, 0.00, 0.00
51, 81136.85, 132568.48, 25569.93, 80637.34, 16635.04, 68618.78, 127782.48, 99456.97, 0.00, 0.00, 0.00
52, 81129.74, 132567.00, 25568.76, 80633.94, 16615.01, 68610.22, 127776.78, 99452.56, 0.00, 0.00, 0.00
53, 81120.70, 132555.34, 25564.81, 80627.59, 16604.84, 68597.41, 127766.39, 99443.98, 0.00, 0.00, 0.00
54, 81119.71, 132552.25, 25567.20, 80628.15, 16598.76, 68591.00, 127759.39, 99437.16, 0.00, 0.00, 0.00
55, 81119.59, 132560.09, 25577.12, 80635.46, 16636.87, 68605.37, 127761.13, 99436.65, 0.00, 0.00, 0.00
56, 81117.59, 132567.36, 25580.07, 80642.88, 16643.24, 68609.68, 127763.69, 99438.62, 0.07, -0.29, 0.96
57, 81113.25, 132560.44, 25579.29, 80642.79, 16641.46, 68609.13, 127760.58, 99436.63, 0.00, 0.00, 0.00
58, 81113.38, 132557.28, 25578.20, 80643.46, 16634.75, 68618.00, 127761.41, 99435.06, 0.00, 0.00, 0.00
59, 81111.33, 132555.92, 25577.01, 80637.00, 16623.91, 68610.48, 127759.28, 99430.57, 0.00, 0.00, 0.00
60, 81113.72, 132564.77, 25578.08, 80635.66, 16621.09, 68610.60, 127765.30, 99432.88, 0.00, 0.00, 0.00
61, 81113.16, 132568.70, 25577.99, 80642.43, 16616.96, 68607.36, 127757.20, 99431.87, 0.00, 0.00, 0.00
62, 81114.50, 132555.88, 25582.38, 80647.86, 16626.86, 68603.45, 127752.20, 99428.45, 0.00, 0.00, 0.00
63, 81117.90, 132557.69, 25586.76, 80643.10, 16627.55, 68603.94, 127755.33, 99429.67, 0.00, 0.00, 0.00
64, 81117.02, 132556.55, 25580.12, 80631.88, 16636.20, 68611.38, 127755.66, 99430.19, 0.00, 0.00, 0.00
65, 81121.50, 132554.13, 25578.96, 80635.97, 16636.54, 68612.34, 127759.05, 99431.46, 0.00, 0.00, 0.00
66, 81124.65, 132554.09, 25585.35, 80646.97, 16624.49, 68607.88, 127756.55, 99431.69, 0.07, -0.29, 0.97
67, 81121.92, 132556.72, 25587.38, 80647.75, 16649.03, 68618.38, 127756.98, 99429.01, 0.00, 0.00, 0.00
68, 81118.19, 132555.63, 25584.34, 80648.09, 16642.88, 68617.35, 127756.66, 99429.18, 0.00, 0.00, 0.00
69, 81113.13, 132555.34, 25588.03, 80650.95, 16640.94, 68614.78, 127753.65, 99424.89, 0.00, 0.00, 0.00
70, 81114.03, 132560.44, 25589.13, 80649.95, 16639.26, 68618.49, 127756.42, 99423.73, 0.00, 0.00, 0.00
71, 81117.52, 132567.83, 25589.97, 80649.31, 16637.72, 68616.41, 127758.34, 99428.00, 0.00, 0.00, 0.00
72, 81118.05, 132560.95, 25586.69, 80649.16, 16631.82, 68613.75, 127754.92, 99427.33, 0.00, 0.00, 0.00
73, 81116.84, 132554.56, 25582.89, 80645.36, 16628.65, 68611.60, 127751.08, 99423.66, 0.00, 0.00, 0.00
74, 81117.43, 132554.25, 25586.13, 80650.48, 16631.84, 68614.13, 127752.60, 99423.98, 0.00, 0.00, 0.00
75, 81113.96, 132557.03, 25589.88, 80650.10, 16629.79, 68613.93, 127753.47, 99422.79, 0.00, 0.00, 0.00
76, 81107.88, 132557.78, 25589.30, 80640.53, 16618.10, 68611.29, 127747.91, 99415.28, 0.08, -0.30, 0.97
77, 81115.64, 132558.05, 25588.32, 80639.30, 16609.38, 68614.73, 127753.80, 99420.29, 0.00, 0.00, 0.00
78, 81120.34, 132554.84, 25592.14, 80643.62, 16633.97, 68619.70, 127757.02, 99422.86, 0.00, 0.00, 0.00
79, 81123.71, 132554.42, 25589.71, 80640.82, 16632.47, 68621.71, 127759.23, 99425.95, 0.00, 0.00, 0.00
80, 81124.94, 132559.50, 25589.17, 80640.38, 16641.07, 68626.31, 127764.60, 99426.16, 0.00, 0.00, 0.00
81, 81121.14, 132564.25, 25599.52, 80656.80, 16623.91, 68620.93, 127764.83, 99426.91, 0.00, 0.00, 0.00
82, 81118.39, 132560.28, 25598.27, 80652.16, 16613.25, 68617.13, 127755.05, 99425.38, 0.00, 0.00, 0.00
83, 81116.78, 132557.47, 25594.49, 80650.21, 16633.47, 68619.27, 127749.40, 99419.80, 0.00, 0.00, 0.00
84, 81123.84, 132561.28, 25595.16, 80655.26, 16643.35, 68625.09, 127754.01, 99426.45, 0.00, 0.00, 0.00
85, 81124.89, 132561.36, 25593.22, 80648.45, 16627.39, 68616.59, 127754.14, 99424.76, 0.00, 0.00, 0.00
86, 81126.88, 132567.25, 25593.39, 80650.73, 16664.16, 68634.07, 127760.91, 99424.53, 0.07, -0.30, 0.97
87, 81131.98, 132574.86, 25591.47, 80646.34, 16666.18, 68634.29, 127764.49, 99428.11, 0.00, 0.00, 0.00
88, 81132.49, 132567.92, 25592.54, 80646.09, 16639.62, 68627.72, 127762.63, 99427.13, 0.00, 0.00, 0.00
89, 81130.98, 132561.55, 25595.56, 80652.55, 16640.96, 68629.06, 127762.59, 99426.66, 0.00, 0.00, 0.00
90, 81130.15, 132561.11, 25592.14, 80648.42, 16644.34, 68625.44, 127759.20, 99425.49, 0.00, 0.00, 0.00
91, 81126.57, 132557.94, 25588.46, 80642.90, 16635.04, 68618.67, 127753.60, 99423.95, 0.00, 0.00, 0.00
92, 81128.56, 132556.44, 25586.44, 80641.49, 16630.68, 68621.26, 127754.59, 99425.54, 0.00, 0.00, 0.00
93, 81130.39, 132557.08, 25588.68, 80643.62, 16628.74, 68622.16, 127756.55, 99428.96, 0.00, 0.00, 0.00
94, 81130.73, 132558.20, 25588.92, 80645.38, 16628.42, 68618.49, 127755.55, 99429.07, 0.00, 0.00, 0.00
95, 81132.05, 132561.06, 25589.17, 80647.08, 16642.50, 68628.34, 127757.72, 99430.01, 0.00, 0.00, 0.00
96, 81138.55, 132565.75, 25593.37, 80656.45, 16650.13, 68638.16, 127769.23, 99437.74, 0.07, -0.30, 0.96
97, 81141.16, 132564.08, 25586.20, 80649.09, 16642.91, 68638.27, 127772.13, 99437.34, 0.00, 0.00, 0.00
98, 81144.72, 132564.19, 25579.25, 80640.87, 16632.29, 68630.94, 127770.28, 99437.21, 0.00, 0.00, 0.00
99, 81143.34, 132561.42, 25588.92, 80653.34, 16631.96, 68632.52, 127769.74, 99437.34, 0.00, 0.00, 0.00
100, 81136.61, 132560.28, 25603.95, 80645.07, 16627.84, 68626.13, 127761.29, 99429.98, 0.00, 0.00, 0.00
101, 81133.68, 132557.95, 25599.12, 80643.80, 16645.39, 68627.56, 127758.25, 99428.45, 0.00, 0.00, 0.00
102, 81140.48, 132565.64, 25599.99, 80651.51, 16649.88, 68639.59, 127763.77, 99435.06, 0.00, 0.00, 0.00
103, 81139.87, 132569.56, 25598.51, 80650.88, 16644.20, 68631.48, 127766.14, 99432.88, 0.00, 0.00, 0.00
104, 81138.93, 132561.84, 25595.90, 80649.70, 16657.55, 68636.35, 127770.01, 99431.62, 0.00, 0.00, 0.00
105, 81143.29, 132561.11, 25593.30, 80648.11, 16644.09, 68636.30, 127767.80, 99437.12, 0.00, 0.00, 0.00
106, 81145.41, 132566.89, 25600.30, 80659.20, 16659.67, 68640.33, 127769.34, 99440.36, 0.08, -0.29, 0.96
107, 81147.65, 132571.50, 25602.58, 80661.92, 16654.46, 68642.59, 127772.98, 99443.66, 0.00, 0.00, 0.00
108, 81142.17, 132569.95, 25600.14, 80653.95, 16634.57, 68630.31, 127764.11, 99436.60, 0.00, 0.00, 0.00
109, 81136.74, 132573.72, 25604.39, 80646.61, 16626.41, 68624.57, 127757.90, 99431.82, 0.00, 0.00, 0.00
110, 81138.91, 132577.52, 25602.60, 80644.04, 16626.77, 68622.29, 127755.99, 99431.66, 0.00, 0.00, 0.00
111, 81146.69, 132569.67, 25605.46, 80653.38, 16658.49, 68639.66, 127762.97, 99434.84, 0.00, 0.00, 0.00
112, 81149.80, 132570.50, 25606.74, 80656.24, 16664.63, 68644.69, 127764.91, 99432.83, 0.00, 0.00, 0.00
113, 81146.09, 132571.97, 25604.66, 80650.52, 16656.54, 68637.22, 127762.39, 99431.33, 0.00, 0.00, 0.00
114, 81145.66, 132575.19, 25606.45, 80649.96, 16648.23, 68623.81, 127762.03, 99433.41, 0.00, 0.00, 0.00
115, 81148.09, 132583.13, 25610.61, 80653.52, 16645.52, 68647.48, 127769.90, 99437.23, 0.00, 0.00, 0.00
116, 81149.28, 132594.13, 25611.81, 80655.28, 16652.76, 68649.54, 127766.57, 99438.02, 0.07, -0.29, 0.97
117, 81150.48, 132585.30, 25610.16, 80654.45, 16643.98, 68645.11, 127764.69, 99439.60, 0.00, 0.00, 0.00
118, 81147.20, 132572.39, 25604.17, 80648.65, 16638.57, 68640.55, 127761.52, 99434.48, 0.00, 0.00, 0.00
119, 81148.54, 132571.64, 25603.30, 80649.43, 16642.84, 68639.77, 127763.38, 99435.58, 0.00, 0.00, 0.00
120, 81148.41, 132573.80, 25603.56, 80649.54, 16642.62, 68638.47, 127764.11, 99435.27, 0.00, 0.00, 0.00
121, 81141.14, 132574.88, 25605.33, 80651.66, 16640.00, 68637.60, 127761.41, 99428.06, 0.00, 0.00, 0.00
122, 81139.24, 132577.94, 25605.96, 80649.47, 16621.34, 68629.91, 127762.19, 99424.38, 0.00, 0.00, 0.00
123, 81141.75, 132583.19, 25611.83, 80655.02, 16643.85, 68637.00, 127767.73, 99428.73, 0.00, 0.00, 0.00
124, 81138.10, 132576.94, 25609.38, 80651.66, 16656.94, 68641.24, 127763.86, 99425.00, 0.00, 0.00, 0.00
125, 81137.52, 132575.91, 25606.85, 80652.87, 16649.10, 68635.12, 127763.59, 99423.64, 0.07, -0.29, 0.96
126, 81141.23, 132580.83, 25610.25, 80652.38, 16646.97, 68632.73, 127761.18, 99425.52, 0.00, 0.00, 0.00
127, 81143.38, 132582.55, 25613.33, 80658.91, 16657.26, 68636.46, 127755.39, 99428.05, 0.00, 0.00, 0.00
128, 81137.30, 132574.98, 25612.66, 80660.85, 16638.12, 68625.75, 127747.16, 99420.84, 0.00, 0.00, 0.00
129, 81140.49, 132574.09, 25613.60, 80662.48, 16637.54, 68627.32, 127748.77, 99422.19, 0.00, 0.00, 0.00
130, 81140.14, 132573.56, 25611.32, 80656.78, 16645.37, 68629.30, 127749.29, 99422.21, 0.00, 0.00, 0.00
131, 81139.02, 132575.02, 25612.57, 80656.63, 16634.75, 68627.70, 127749.67, 99421.25, 0.00, 0.00, 0.00
132, 81139.20, 132576.84, 25616.57, 80657.07, 16636.13, 68625.71, 127751.37, 99423.13, 0.00, 0.00, 0.00
133, 81143.16, 132585.41, 25621.87, 80659.33, 16647.58, 68627.27, 127753.49, 99426.63, 0.00, 0.00, 0.00
134, 81147.94, 132588.20, 25626.92, 80658.79, 16658.49, 68633.78, 127757.18, 99428.89, 0.00, 0.00, 0.00
135, 81147.54, 132578.23, 25628.71, 80657.70, 16643.47, 68624.77, 127752.71, 99427.24, 0.06, -0.28, 0.96
136, 81145.39, 132581.63, 25631.95, 80660.80, 16657.77, 68628.99, 127756.33, 99428.80, 0.00, 0.00, 0.00
137, 81144.45, 132580.03, 25634.92, 80659.06, 16640.83, 68630.76, 127758.43, 99428.11, 0.00, 0.00, 0.00
138, 81144.45, 132574.47, 25636.22, 80658.21, 16655.98, 68634.83, 127758.30, 99428.24, 0.00, 0.00, 0.00
139, 81145.57, 132577.44, 25644.51, 80662.30, 16661.01, 68637.53, 127759.68, 99427.77, 0.00, 0.00, 0.00
140, 81146.20, 132575.95, 25645.34, 80659.04, 16651.20, 68636.41, 127760.82, 99428.09, 0.00, 0.00, 0.00
141, 81148.12, 132578.83, 25650.71, 80662.37, 16656.86, 68640.82, 127763.86, 99431.38, 0.00, 0.00, 0.00
142, 81152.74, 132581.17, 25655.53, 80664.27, 16656.72, 68641.63, 127766.81, 99435.06, 0.00, 0.00, 0.00
143, 81150.27, 132581.00, 25657.07, 80660.60, 16644.11, 68633.98, 127763.95, 99433.16, 0.00, 0.00, 0.00
144, 81150.77, 132582.08, 25660.36, 80661.14, 16647.13, 68636.86, 127764.45, 99437.05, 0.00, 0.00, 0.00
145, 81150.22, 132582.47, 25661.14, 80660.63, 16646.93, 68639.81, 127765.77, 99437.74, 0.07, -0.29, 0.96
146, 81146.69, 132578.39, 25656.74, 80654.19, 16634.46, 68633.45, 127759.91, 99433.48, 0.00, 0.00, 0.00
147, 81152.50, 132579.44, 25663.91, 80655.80, 16649.66, 68642.41, 127767.30, 99439.64, 0.00, 0.00, 0.00
148, 81155.02, 132578.25, 25668.09, 80659.59, 16644.47, 68644.73, 127767.69, 99441.14, 0.00, 0.00, 0.00
149, 81152.01, 132577.47, 25673.71, 80668.41, 16663.63, 68641.13, 127761.18, 99435.04, 0.00, 0.00, 0.00
150, 81158.71, 132584.75, 25682.91, 80672.77, 16646.48, 68636.20, 127764.98, 99438.51, 0.00, 0.00, 0.00
151, 81167.61, 132588.52, 25687.27, 80674.71, 16674.27, 68657.05, 127773.23, 99445.77, 0.00, 0.00, 0.00
152, 81168.75, 132586.47, 25687.85, 80674.30, 16687.57, 68658.12, 127776.05, 99447.29, 0.00, 0.00, 0.00
153, 81164.44, 132590.81, 25686.82, 80669.55, 16672.81, 68648.91, 127772.94, 99442.77, 0.00, 0.00, 0.00
154, 81163.52, 132596.64, 25689.51, 80670.98, 16659.40, 68644.13, 127768.13, 99438.64, 0.00, 0.00, 0.00
155, 81161.66, 132575.66, 25689.73, 80664.91, 16635.42, 68644.75, 127767.66, 99439.02, 0.06, -0.30, 0.97
156, 81167.23, 132573.75, 25691.52, 80666.73, 16640.11, 68642.63, 127766.95, 99442.93, 0.00, 0.00, 0.00
157, 81165.40, 132578.88, 25696.68, 80670.80, 16672.23, 68652.17, 127771.80, 99443.42, 0.00, 0.00, 0.00
158, 81162.40, 132581.30, 25701.44, 80673.39, 16657.48, 68650.41, 127777.30, 99442.26, 0.00, 0.00, 0.00
159, 81162.78, 132583.41, 25703.81, 80673.95, 16650.37, 68634.02, 127767.80, 99443.31, 0.00, 0.00, 0.00
160, 81167.32, 132587.53, 25705.96, 80670.21, 16643.02, 68657.05, 127770.97, 99445.97, 0.00, 0.00, 0.00
161, 81170.70, 132589.34, 25706.07, 80666.03, 16664.70, 68656.02, 127772.24, 99449.19, 0.00, 0.00, 0.00
162, 81180.51, 132589.61, 25704.64, 80662.10, 16667.03, 68649.98, 127774.99, 99465.69, 0.00, 0.00, 0.00
163, 81191.77, 132592.36, 25710.70, 80666.64, 16664.83, 68650.38, 127775.04, 99471.61, 0.00, 0.00, 0.00
164, 81176.95, 132589.50, 25716.78, 80669.92, 16663.31, 68652.95, 127769.79, 99447.18, 0.00, 0.00, 0.00
165, 81170.70, 132586.98, 25713.80, 80665.72, 16644.29, 68645.80, 127766.39, 99441.41, 0.07, -0.30, 0.96
166, 81179.43, 132590.00, 25715.32, 80664.34, 16637.92, 68646.52, 127769.48, 99446.80, 0.00, 0.00, 0.00
167, 81184.46, 132590.67, 25718.45, 80666.98, 16633.18, 68648.66, 127770.03, 99453.32, 0.00, 0.00, 0.00
168, 81184.82, 132591.14, 25724.15, 80673.88, 16663.92, 68656.06, 127770.08, 99453.39, 0.00, 0.00, 0.00
169, 81180.77, 132590.30, 25726.59, 80667.69, 16657.95, 68655.44, 127767.62, 99444.14, 0.00, 0.00, 0.00
170, 81179.72, 132592.47, 25732.31, 80671.22, 16666.98, 68658.43, 127768.34, 99442.80, 0.00, 0.00, 0.00
171, 81186.43, 132594.81, 25735.87, 80674.06, 16659.56, 68656.58, 127769.07, 99447.11, 0.00, 0.00, 0.00
172, 81189.83, 132593.61, 25737.27, 80674.28, 16645.14, 68648.80, 127763.38, 99446.38, 0.00, 0.00, 0.00
173, 81188.41, 132592.98, 25740.87, 80677.45, 16668.05, 68657.13, 127764.11, 99445.91, 0.00, 0.00, 0.00
174, 81186.09, 132588.38, 25741.41, 80674.87, 16670.18, 68652.40, 127760.47, 99443.49, 0.00, 0.00, 0.00
175, 81186.07, 132585.83, 25739.66, 80671.73, 16660.72, 68646.01, 127756.48, 99441.52, 0.07, -0.28, 0.96
176, 81191.30, 132591.22, 25747.89, 80676.88, 16650.02, 68650.45, 127765.43, 99448.65, 0.00, 0.00, 0.00
177, 81189.94, 132594.75, 25750.68, 80675.34, 16656.36, 68649.27, 127765.16, 99447.29, 0.00, 0.00, 0.00
178, 81192.55, 132599.48, 25749.21, 80670.08, 16658.82, 68646.07, 127761.63, 99449.01, 0.00, 0.00, 0.00
179, 81194.72, 132595.58, 25751.42, 80671.73, 16656.09, 68652.46, 127761.18, 99450.64, 0.00, 0.00, 0.00
180, 81195.64, 132597.56, 25752.54, 80672.72, 16649.68, 68650.07, 127761.56, 99452.27, 0.00, 0.00, 0.00
181, 81197.70, 132598.67, 25756.16, 80675.58, 16666.82, 68652.91, 127762.74, 99453.48, 0.00, 0.00, 0.00
182, 81196.48, 132593.30, 25757.03, 80675.11, 16669.55, 68648.22, 127759.51, 99452.23, 0.00, 0.00, 0.00
183, 81197.13, 132592.13, 25760.29, 80677.95, 16670.69, 68650.32, 127758.90, 99450.35, 0.00, 0.00, 0.00
184, 81199.08, 132594.44, 25762.20, 80678.75, 16667.85, 68652.06, 127760.00, 99450.17, 0.00, 0.00, 0.00
185, 81203.05, 132598.67, 25768.32, 80681.93, 16666.18, 68654.59, 127765.92, 99454.71, 0.06, -0.29, 0.95
186, 81201.07, 132603.27, 25766.62, 80676.38, 16650.30, 68648.93, 127764.87, 99450.84, 0.00, 0.00, 0.00
187, 81202.61, 132601.39, 25765.55, 80673.05, 16647.38, 68648.82, 127763.59, 99448.54, 0.00, 0.00, 0.00
188, 81205.65, 132593.88, 25767.52, 80675.09, 16674.56, 68656.48, 127766.73, 99450.98, 0.00, 0.00, 0.00
189, 81208.87, 132599.55, 25770.87, 80677.86, 16660.41, 68655.93, 127769.01, 99453.86, 0.00, 0.00, 0.00
190, 81204.91, 132595.23, 25770.64, 80674.28, 16634.97, 68641.78, 127764.45, 99451.29, 0.00, 0.00, 0.00
191, 81200.60, 132595.58, 25773.30, 80674.30, 16660.28, 68651.05, 127764.38, 99450.59, 0.00, 0.00, 0.00
192, 81199.77, 132595.69, 25775.36, 80674.84, 16675.38, 68657.02, 127764.06, 99447.11, 0.00, 0.00, 0.00
193, 81201.18, 132594.14, 25773.88, 80670.04, 16662.42, 68652.64, 127764.78, 99445.27, 0.00, 0.00, 0.00
194, 81206.03, 132596.56, 25775.74, 80668.74, 16667.70, 68653.91, 127766.27, 99447.18, 0.00, 0.00, 0.00
195, 81206.88, 132597.45, 25776.84, 80667.66, 16667.27, 68652.69, 127764.20, 99446.23, 0.06, -0.28, 0.96
196, 81202.81, 132596.89, 25778.00, 80666.21, 16652.56, 68651.33, 127761.94, 99443.55, 0.00, 0.00, 0.00
197, 81203.17, 132601.03, 25779.52, 80665.48, 16634.50, 68634.59, 127764.84, 99442.88, 0.00, 0.00, 0.00
198, 81206.81, 132598.23, 25783.83, 80671.27, 16645.52, 68643.84, 127768.42, 99445.32, 0.00, 0.00, 0.00
199, 81206.59, 132595.50, 25787.61, 80672.90, 16678.04, 68669.16, 127765.63, 99446.69, 0.00, 0.00, 0.00
200, 81205.47, 132596.20, 25786.94, 80670.33, 16683.01, 68659.55, 127762.50, 99447.09, 0.00, 0.00, 0.00
201, 81207.15, 132594.14, 25784.99, 80667.64, 16665.86, 68652.77, 127761.25, 99446.98, 0.00, 0.00, 0.00
202, 81211.02, 132597.27, 25789.24, 80668.16, 16660.90, 68653.98, 127762.77, 99450.26, 0.00, 0.00, 0.00
203, 81211.55, 132600.11, 25793.96, 80671.04, 16658.51, 68652.22, 127765.02, 99450.09, 0.00, 0.00, 0.00
204, 81209.34, 132596.94, 25798.76, 80678.40, 16652.38, 68650.25, 127763.84, 99447.29, 0.00, 0.00, 0.00
205, 81207.77, 132592.58, 25796.44, 80676.32, 16660.99, 68650.88, 127762.09, 99444.09, 0.06, -0.30, 0.95
206, 81209.09, 132594.67, 25800.33, 80680.36, 16664.92, 68651.80, 127766.99, 99445.99, 0.00, 0.00, 0.00
207, 81205.31, 132593.36, 25798.58, 80676.80, 16652.79, 68645.52, 127772.96, 99442.51, 0.00, 0.00, 0.00
208, 81206.74, 132591.69, 25798.72, 80673.99, 16659.96, 68650.43, 127779.94, 99443.06, 0.00, 0.00, 0.00
209, 81207.39, 132593.20, 25806.38, 80678.38, 16671.34, 68654.01, 127790.35, 99442.15, 0.00, 0.00, 0.00
210, 81208.31, 132595.19, 25808.73, 80685.05, 16671.00, 68655.95, 127804.72, 99444.65, 0.00, 0.00, 0.00
211, 81207.84, 132596.05, 25808.29, 80686.38, 16668.03, 68655.10, 127814.78, 99446.28, 0.00, 0.00, 0.00
212, 81207.69, 132594.64, 25804.55, 80683.16, 16668.01, 68654.07, 127822.31, 99446.64, 0.00, 0.00, 0.00
213, 81205.96, 132591.34, 25808.02, 80677.86, 16661.64, 68651.57, 127826.54, 99441.05, 0.00, 0.00, 0.00
214, 81204.24, 132592.08, 25811.64, 80666.86, 16644.00, 68649.83, 127831.88, 99438.33, 0.00, 0.00, 0.00
215, 81204.31, 132595.30, 25813.69, 80665.54, 16638.86, 68650.38, 127838.41, 99441.23, 0.07, -0.29, 0.96
216, 81209.98, 132603.17, 25816.33, 80674.57, 16658.62, 68653.31, 127848.42, 99447.98, 0.00, 0.00, 0.00
217, 81207.91, 132600.84, 25818.21, 80681.21, 16659.18, 68649.60, 127849.80, 99445.61, 0.00, 0.00, 0.00
218, 81206.03, 132594.59, 25816.91, 80677.81, 16654.49, 68648.28, 127848.58, 99444.18, 0.00, 0.00, 0.00
219, 81208.04, 132597.66, 25817.36, 80671.34, 16638.30, 68644.35, 127849.90, 99444.43, 0.00, 0.00, 0.00
220, 81209.23, 132606.14, 25817.87, 80668.83, 16640.45, 68633.55, 127849.70, 99446.66, 0.00, 0.00, 0.00
221, 81211.53, 132592.95, 25819.79, 80670.53, 16648.25, 68650.68, 127853.29, 99449.01, 0.00, 0.00, 0.00
222, 81210.05, 132588.39, 25824.94, 80676.02, 16652.56, 68656.20, 127854.05, 99446.88, 0.00, 0.00, 0.00
223, 81205.56, 132589.52, 25825.12, 80672.98, 16652.96, 68656.94, 127860.94, 99444.80, 0.00, 0.00, 0.00
224, 81206.19, 132592.31, 25829.45, 80678.15, 16681.06, 68671.40, 127871.87, 99448.20, 0.00, 0.00, 0.00
225, 81208.06, 132594.08, 25831.40, 80682.27, 16668.32, 68669.83, 127874.86, 99448.25, 0.07, -0.29, 0.96
226, 81208.51, 132594.19, 25830.61, 80679.80, 16648.47, 68659.77, 127873.41, 99446.23, 0.00, 0.00, 0.00
227, 81210.44, 132595.81, 25832.58, 80678.35, 16642.68, 68653.02, 127875.47, 99446.62, 0.00, 0.00, 0.00
228, 81213.90, 132596.38, 25834.68, 80680.85, 16678.13, 68660.89, 127876.25, 99447.58, 0.00, 0.00, 0.00
229, 81214.03, 132595.70, 25834.50, 80678.15, 16678.09, 68665.30, 127874.41, 99446.08, 0.00, 0.00, 0.00
230, 81219.04, 132596.89, 25835.73, 80678.04, 16649.68, 68654.45, 127874.95, 99450.40, 0.00, 0.00, 0.00
231, 81223.35, 132599.66, 25837.59, 80678.09, 16668.41, 68653.29, 127873.90, 99452.61, 0.00, 0.00, 0.00
232, 81227.11, 132600.63, 25841.34, 80681.99, 16674.49, 68665.59, 127881.12, 99455.73, 0.00, 0.00, 0.00
233, 81228.56, 132598.66, 25842.21, 80683.36, 16662.69, 68659.44, 127882.30, 99455.83, 0.00, 0.00, 0.00
234, 81232.12, 132596.44, 25840.98, 80680.23, 16669.46, 68662.14, 127886.59, 99459.47, 0.00, 0.00, 0.00
235, 81230.88, 132598.09, 25843.04, 80681.10, 16683.43, 68664.24, 127886.95, 99457.05, 0.07, -0.29, 0.96
236, 81227.94, 132599.19, 25843.15, 80681.13, 16663.76, 68652.69, 127882.46, 99454.91, 0.00, 0.00, 0.00
237, 81227.76, 132597.92, 25841.41, 80676.61, 16647.89, 68651.62, 127882.22, 99455.11, 0.00, 0.00, 0.00
238, 81230.64, 132601.11, 25843.11, 80673.92, 16657.88, 68659.84, 127884.70, 99459.07, 0.00, 0.00, 0.00
239, 81233.52, 132609.45, 25850.04, 80683.16, 16673.69, 68664.84, 127887.78, 99462.45, 0.00, 0.00, 0.00
240, 81229.74, 132611.13, 25847.73, 80674.62, 16655.13, 68656.60, 127884.83, 99460.92, 0.00, 0.00, 0.00
241, 81227.48, 132594.81, 25845.10, 80674.10, 16653.19, 68655.59, 127885.48, 99461.86, 0.00, 0.00, 0.00
242, 81230.77, 132596.11, 25844.65, 80673.63, 16656.03, 68660.84, 127885.63, 99463.78, 0.00, 0.00, 0.00
243, 81227.48, 132598.45, 25848.54, 80673.81, 16638.55, 68653.36, 127883.96, 99459.65, 0.00, 0.00, 0.00
244, 81226.04, 132602.77, 25853.99, 80677.59, 16643.58, 68659.70, 127889.62, 99458.17, 0.00, 0.00, 0.00
245, 81224.29, 132604.98, 25855.51, 80679.94, 16662.80, 68664.38, 127893.39, 99457.30, 0.07, -0.28, 0.96
246, 81225.52, 132611.17, 25857.12, 80680.72, 16657.73, 68665.36, 127896.66, 99459.72, 0.00, 0.00, 0.00
247, 81219.27, 132604.89, 25858.62, 80684.05, 16657.86, 68668.00, 127897.70, 99455.11, 0.00, 0.00, 0.00
248, 81219.53, 132589.67, 25857.86, 80688.43, 16655.92, 68662.74, 127896.03, 99455.45, 0.00, 0.00, 0.00
249, 81223.48, 132594.03, 25861.91, 80690.48, 16694.45, 68681.16, 127897.84, 99457.19, 0.00, 0.00, 0.00
250, 81223.40, 132596.38, 25866.24, 80697.41, 16683.12, 68680.23, 127897.93, 99460.21, 0.00, 0.00, 0.00
251, 81228.74, 132600.53, 25866.27, 80700.75, 16681.38, 68691.47, 127908.50, 99477.55, 0.00, 0.00, 0.00
252, 81232.34, 132601.61, 25862.26, 80694.71, 16677.64, 68688.70, 127911.38, 99486.52, 0.00, 0.00, 0.00
253, 81230.13, 132597.36, 25855.80, 80681.46, 16680.95, 68679.84, 127895.96, 99486.96, 0.00, 0.00, 0.00
254, 81229.34, 132595.38, 25858.62, 80673.37, 16676.23, 68673.52, 127891.29, 99489.58, 0.00, 0.00, 0.00
255, 81227.09, 132596.78, 25866.85, 80677.08, 16667.99, 68667.26, 127890.69, 99489.02, 0.07, -0.29, 0.96
0, 81229.19, 132601.41, 25873.48, 80679.09, 16660.83, 68666.75, 127890.77, 99490.09, 0.00, 0.00, 0.00
1, 81222.64, 132601.89, 25871.61, 80670.17, 16642.37, 68656.13, 127883.47, 99484.73, 0.00, 0.00, 0.00
2, 81218.44, 132597.09, 25866.91, 80663.55, 16644.63, 68650.90, 127880.92, 99481.11, 0.00, 0.00, 0.00
3, 81221.74, 132593.45, 25865.59, 80667.40, 16648.52, 68662.86, 127887.58, 99483.79, 0.00, 0.00, 0.00
4, 81222.75, 132588.83, 25865.42, 80674.22, 16644.96, 68658.23, 127887.65, 99484.93, 0.00, 0.00, 0.00
5, 81222.46, 132590.41, 25867.52, 80678.02, 16645.75, 68663.62, 127890.28, 99486.96, 0.00, 0.00, 0.00
6, 81217.54, 132591.02, 25872.63, 80673.21, 16655.42, 68659.82, 127887.38, 99482.13, 0.00, 0.00, 0.00
7, 81215.13, 132589.89, 25875.47, 80666.95, 16639.71, 68658.09, 127883.02, 99478.85, 0.00, 0.00, 0.00
8, 81218.70, 132587.80, 25872.57, 80667.89, 16639.60, 68656.27, 127882.84, 99480.34, 0.00, 0.00, 0.00
9, 81222.39, 132592.00, 25877.71, 80675.35, 16648.27, 68661.30, 127885.97, 99485.35, 0.08, -0.28, 0.96
10, 81222.39, 132588.58, 25874.74, 80673.21, 16626.01, 68653.29, 127886.13, 99486.94, 0.00, 0.00, 0.00
11, 81223.60, 132589.19, 25876.03, 80677.26, 16652.12, 68666.30, 127888.09, 99487.48, 0.00, 0.00, 0.00
12, 81225.88, 132591.14, 25878.13, 80680.27, 16665.30, 68667.13, 127887.00, 99488.59, 0.00, 0.00, 0.00
13, 81226.86, 132590.95, 25876.14, 80678.02, 16670.42, 68674.30, 127886.09, 99487.34, 0.00, 0.00, 0.00
14, 81230.38, 132593.69, 25878.07, 80681.52, 16669.95, 68674.41, 127891.56, 99491.05, 0.00, 0.00, 0.00
15, 81231.04, 132594.14, 25880.06, 80685.62, 16671.41, 68672.96, 127892.23, 99494.67, 0.00, 0.00, 0.00
16, 81232.23, 132592.52, 25880.14, 80681.16, 16654.04, 68668.34, 127884.05, 99491.43, 0.00, 0.00, 0.00
17, 81241.75, 132592.36, 25876.61, 80677.08, 16632.40, 68658.92, 127882.39, 99498.09, 0.00, 0.00, 0.00
18, 81229.32, 132585.42, 25886.67, 80688.37, 16647.15, 68670.77, 127892.90, 99496.17, 0.00, 0.00, 0.00
19, 81222.39, 132584.38, 25888.62, 80691.72, 16679.07, 68689.01, 127895.78, 99491.32, 0.07, -0.29, 0.96
20, 81236.43, 132584.67, 25882.22, 80685.08, 16667.63, 68677.25, 127891.83, 99502.72, 0.00, 0.00, 0.00
21, 81240.07, 132589.45, 25886.52, 80691.80, 16673.26, 68678.86, 127892.30, 99508.91, 0.00, 0.00, 0.00
22, 81232.36, 132589.94, 25886.87, 80697.93, 16680.19, 68679.71, 127892.09, 99504.69, 0.00, 0.00, 0.00
23, 81233.92, 132590.13, 25890.16, 80697.80, 16676.44, 68677.38, 127891.56, 99506.34, 0.00, 0.00, 0.00
24, 81229.30, 132587.92, 25889.60, 80688.19, 16657.37, 68669.70, 127882.15, 99501.07, 0.00, 0.00, 0.00
25, 81229.37, 132590.80, 25892.80, 80684.92, 16652.34, 68669.02, 127883.27, 99500.77, 0.00, 0.00, 0.00
26, 81229.66, 132598.02, 25902.16, 80689.99, 16659.63, 68669.43, 127885.08, 99501.83, 0.00, 0.00, 0.00
27, 81235.02, 132599.39, 25905.43, 80695.02, 16664.63, 68669.90, 127887.83, 99508.06, 0.00, 0.00, 0.00
28, 81236.59, 132591.86, 25900.04, 80690.69, 16652.07, 68665.95, 127884.80, 99507.75, 0.00, 0.00, 0.00
29, 81236.45, 132591.69, 25899.66, 80692.84, 16658.40, 68673.34, 127886.09, 99508.27, 0.07, -0.28, 0.96
30, 81237.50, 132592.38, 25901.16, 80695.07, 16663.69, 68680.05, 127889.84, 99510.63, 0.00, 0.00, 0.00
31, 81241.80, 132593.52, 25908.49, 80699.59, 16662.76, 68681.12, 127896.90, 99512.60, 0.00, 0.00, 0.00
32, 81242.80, 132594.77, 25911.01, 80697.75, 16670.56, 68687.24, 127895.60, 99512.33, 0.00, 0.00, 0.00
33, 81241.57, 132598.95, 25911.57, 80699.65, 16665.82, 68684.98, 127891.60, 99511.17, 0.00, 0.00, 0.00
34, 81244.23, 132605.31, 25917.07, 80701.84, 16661.75, 68687.04, 127894.45, 99514.39, 0.00, 0.00, 0.00
35, 81242.51, 132602.30, 25912.89, 80696.74, 16651.24, 68679.63, 127892.95, 99514.08, 0.00, 0.00, 0.00
36, 81246.04, 132607.84, 25912.11, 80694.89, 16663.52, 68683.63, 127893.80, 99516.47, 0.00, 0.00, 0.00
37, 81252.59, 132608.22, 25913.40, 80693.82, 16649.97, 68682.69, 127897.59, 99523.28, 0.00, 0.00, 0.00
38, 81256.75, 132596.83, 25912.71, 80693.05, 16644.20, 68680.07, 127900.09, 99528.00, 0.00, 0.00, 0.00
39, 81258.67, 132599.94, 25913.14, 80694.17, 16666.53, 68680.45, 127896.77, 99527.04, 0.07, -0.29, 0.96
40, 81260.34, 132605.72, 25914.81, 80692.70, 16666.91, 68682.84, 127897.05, 99528.60, 0.00, 0.00, 0.00
41, 81259.12, 132607.08, 25917.32, 80696.59, 16658.96, 68682.33, 127898.63, 99528.80, 0.00, 0.00, 0.00
42, 81257.04, 132608.02, 25921.79, 80700.81, 16653.59, 68681.97, 127898.29, 99524.89, 0.00, 0.00, 0.00
43, 81249.77, 132606.34, 25920.56, 80697.91, 16653.30, 68674.15, 127892.95, 99516.09, 0.00, 0.00, 0.00
44, 81247.38, 132603.81, 25922.84, 80699.09, 16686.69, 68684.77, 127894.20, 99513.07, 0.00, 0.00, 0.00
45, 81252.59, 132603.78, 25927.62, 80707.30, 16696.42, 68690.89, 127897.44, 99518.66, 0.00, 0.00, 0.00
46, 81251.65, 132605.16, 25932.02, 80710.42, 16689.40, 68696.34, 127895.13, 99518.08, 0.00, 0.00, 0.00
47, 81252.52, 132605.91, 25928.83, 80703.09, 16669.15, 68688.25, 127894.06, 99518.99, 0.00, 0.00, 0.00
48, 81255.47, 132606.28, 25927.82, 80699.96, 16660.79, 68684.16, 127894.30, 99523.44, 0.00, 0.00, 0.00
49, 81255.70, 132606.45, 25930.84, 80700.88, 16681.42, 68690.51, 127895.80, 99525.34, 0.07, -0.29, 0.96
50, 81261.59, 132609.56, 25932.16, 80700.84, 16690.03, 68696.36, 127900.19, 99528.88, 0.00, 0.00, 0.00
51, 81268.50, 132615.63, 25934.50, 80700.37, 16670.51, 68690.93, 127902.55, 99534.86, 0.00, 0.00, 0.00
52, 81269.73, 132610.39, 25934.17, 80697.64, 16660.59, 68687.31, 127902.24, 99535.89, 0.00, 0.00, 0.00
53, 81271.63, 132607.86, 25935.29, 80700.37, 16668.90, 68691.11, 127904.14, 99535.98, 0.00, 0.00, 0.00
54, 81266.34, 132608.89, 25943.51, 80706.07, 16675.14, 68692.12, 127905.71, 99532.83, 0.00, 0.00, 0.00
55, 81262.91, 132611.16, 25940.90, 80704.41, 16652.07, 68684.07, 127907.27, 99531.63, 0.00, 0.00, 0.00
56, 81257.82, 132616.47, 25942.15, 80703.61, 16663.58, 68690.66, 127909.62, 99528.98, 0.00, 0.00, 0.00
57, 81252.30, 132610.02, 25944.74, 80701.35, 16676.95, 68698.33, 127909.62, 99525.66, 0.00, 0.00, 0.00
58, 81255.16, 132611.06, 25957.48, 80697.06, 16660.39, 68695.00, 127907.25, 99527.38, 0.00, 0.00, 0.00
59, 81259.79, 132613.86, 25964.37, 80692.73, 16649.77, 68689.52, 127906.87, 99531.98, 0.07, -0.30, 0.97
60, 81264.52, 132605.50, 25963.52, 80691.13, 16652.34, 68695.13, 127910.63, 99539.89, 0.00, 0.00, 0.00
61, 81269.15, 132610.61, 25973.08, 80706.29, 16657.44, 68696.43, 127908.97, 99543.71, 0.00, 0.00, 0.00
62, 81271.45, 132615.27, 25976.62, 80708.88, 16668.90, 68700.34, 127910.54, 99545.30, 0.00, 0.00, 0.00
63, 81273.45, 132614.64, 25974.63, 80707.20, 16666.13, 68700.97, 127912.57, 99545.66, 0.00, 0.00, 0.00
64, 81274.13, 132611.75, 25974.87, 80706.76, 16659.56, 68704.84, 127912.21, 99544.01, 0.00, 0.00, 0.00
65, 81272.55, 132611.39, 25978.89, 80711.70, 16686.38, 68708.61, 127914.02, 99540.41, 0.00, 0.00, 0.00
66, 81276.88, 132613.59, 25981.33, 80714.43, 16687.28, 68712.48, 127920.57, 99544.16, 0.00, 0.00, 0.00
67, 81279.32, 132615.88, 25981.15, 80712.59, 16681.55, 68715.63, 127923.70, 99545.97, 0.00, 0.00, 0.00
68, 81275.43, 132619.31, 25985.04, 80715.68, 16692.75, 68721.17, 127924.64, 99545.52, 0.00, 0.00, 0.00
69, 81272.15, 132615.22, 25984.84, 80714.90, 16692.01, 68719.34, 127924.41, 99546.59, 0.06, -0.29, 0.96
70, 81272.64, 132615.64, 25988.44, 80713.47, 16685.80, 68715.88, 127923.95, 99546.27, 0.00, 0.00, 0.00
71, 81272.75, 132613.86, 25994.72, 80713.55, 16681.35, 68710.73, 127919.56, 99543.06, 0.00, 0.00, 0.00
72, 81270.41, 132609.56, 25987.97, 80710.60, 16678.45, 68704.88, 127912.97, 99539.67, 0.00, 0.00, 0.00
73, 81267.63, 132610.61, 25994.56, 80715.74, 16674.07, 68701.52, 127909.73, 99537.63, 0.00, 0.00, 0.00
74, 81267.41, 132619.67, 25997.71, 80711.88, 16666.58, 68706.96, 127913.13, 99539.02, 0.00, 0.00, 0.00
75, 81269.80, 132611.23, 25994.41, 80713.24, 16655.33, 68699.56, 127910.20, 99535.40, 0.00, 0.00, 0.00
76, 81277.29, 132605.16, 25995.88, 80717.20, 16693.91, 68719.36, 127914.20, 99537.92, 0.00, 0.00, 0.00
77, 81276.59, 132607.69, 25998.30, 80718.54, 16694.83, 68720.86, 127920.13, 99541.10, 0.00, 0.00, 0.00
78, 81276.55, 132608.38, 25995.95, 80713.33, 16681.69, 68714.91, 127921.09, 99543.29, 0.00, 0.00, 0.00
79, 81279.08, 132610.39, 25995.75, 80712.08, 16699.30, 68717.44, 127917.94, 99546.38, 0.06, -0.29, 0.95
80, 81279.91, 132613.75, 26000.64, 80717.58, 16705.11, 68721.33, 127918.60, 99547.42, 0.00, 0.00, 0.00
81, 81279.37, 132614.30, 26002.21, 80714.67, 16686.05, 68715.36, 127918.49, 99544.72, 0.00, 0.00, 0.00
82, 81278.90, 132614.64, 26005.94, 80715.16, 16684.30, 68713.80, 127921.47, 99545.14, 0.00, 0.00, 0.00
83, 81277.55, 132616.61, 26015.04, 80720.39, 16689.20, 68718.94, 127923.86, 99543.45, 0.00, 0.00, 0.00
84, 81278.92, 132618.66, 26016.74, 80719.61, 16696.37, 68722.13, 127922.07, 99540.38, 0.00, 0.00, 0.00
85, 81280.17, 132617.34, 26019.20, 80715.90, 16694.23, 68720.93, 127922.52, 99539.71, 0.00, 0.00, 0.00
86, 81278.92, 132618.58, 26024.11, 80717.20, 16685.15, 68715.66, 127919.90, 99537.73, 0.00, 0.00, 0.00
87, 81280.08, 132619.06, 26023.62, 80712.13, 16674.00, 68710.65, 127917.60, 99536.77, 0.00, 0.00, 0.00
88, 81281.60, 132612.38, 26021.99, 80709.11, 16668.68, 68710.04, 127916.05, 99538.88, 0.00, 0.00, 0.00
89, 81281.83, 132611.16, 26024.34, 80712.33, 16677.26, 68711.85, 127914.60, 99540.07, 0.07, -0.29, 0.96
90, 81283.32, 132612.98, 26023.67, 80714.25, 16678.02, 68709.48, 127911.43, 99539.22, 0.00, 0.00, 0.00
91, 81286.01, 132615.00, 26025.50, 80712.95, 16672.57, 68707.96, 127910.29, 99539.58, 0.00, 0.00, 0.00
92, 81288.13, 132614.75, 26025.61, 80709.55, 16674.38, 68710.84, 127910.20, 99539.94, 0.00, 0.00, 0.00
93, 81290.37, 132614.58, 26029.37, 80713.15, 16690.94, 68720.93, 127914.98, 99540.43, 0.00, 0.00, 0.00
94, 81293.05, 132616.73, 26034.28, 80718.49, 16683.25, 68723.54, 127916.03, 99541.28, 0.00, 0.00, 0.00
95, 81291.48, 132623.48, 26037.59, 80721.38, 16674.24, 68719.95, 127910.16, 99538.30, 0.00, 0.00, 0.00
96, 81291.05, 132617.56, 26035.20, 80712.37, 16667.67, 68714.05, 127907.43, 99537.74, 0.00, 0.00, 0.00
97, 81290.81, 132609.50, 26034.33, 80711.68, 16683.43, 68720.15, 127908.52, 99537.81, 0.00, 0.00, 0.00
98, 81287.13, 132615.28, 26036.12, 80714.59, 16700.55, 68727.79, 127907.09, 99533.86, 0.00, 0.00, 0.00
99, 81285.00, 132611.17, 26039.78, 80715.23, 16704.82, 68720.84, 127905.38, 99531.31, 0.07, -0.28, 0.96
100, 81290.09, 132609.36, 26043.96, 80718.98, 16698.61, 68719.79, 127908.50, 99534.26, 0.00, 0.00, 0.00
101, 81291.15, 132612.05, 26050.24, 80716.70, 16681.98, 68714.38, 127907.52, 99532.78, 0.00, 0.00, 0.00
102, 81288.46, 132612.20, 26051.18, 80713.58, 16668.57, 68706.51, 127904.91, 99531.76, 0.00, 0.00, 0.00
103, 81290.50, 132615.17, 26052.05, 80713.42, 16676.30, 68715.95, 127908.55, 99537.08, 0.00, 0.00, 0.00
104, 81292.87, 132615.53, 26053.82, 80712.39, 16684.82, 68721.89, 127911.77, 99538.77, 0.00, 0.00, 0.00
105, 81293.47, 132615.27, 26053.21, 80711.56, 16681.35, 68717.35, 127907.74, 99535.63, 0.00, 0.00, 0.00
106, 81292.76, 132617.50, 26052.10, 80707.19, 16661.53, 68710.06, 127905.13, 99534.62, 0.00, 0.00, 0.00
107, 81292.76, 132611.64, 26051.85, 80707.61, 16670.29, 68712.39, 127904.37, 99533.16, 0.00, 0.00, 0.00
108, 81295.51, 132609.59, 26054.56, 80711.12, 16675.12, 68713.57, 127903.90, 99535.42, 0.00, 0.00, 0.00
109, 81298.92, 132610.34, 26054.49, 80710.76, 16679.16, 68714.02, 127905.30, 99538.08, 0.07, -0.29, 0.96
110, 81300.35, 132613.41, 26058.62, 80709.42, 16682.13, 68713.71, 127906.65, 99540.79, 0.00, 0.00, 0.00
111, 81297.65, 132616.16, 26067.74, 80708.81, 16672.70, 68711.36, 127902.51, 99538.30, 0.00, 0.00, 0.00
112, 81298.08, 132618.22, 26069.26, 80711.99, 16671.96, 68713.04, 127903.80, 99538.41, 0.00, 0.00, 0.00
113, 81294.81, 132619.44, 26071.95, 80713.91, 16661.95, 68710.76, 127903.96, 99534.17, 0.00, 0.00, 0.00
114, 81291.30, 132619.72, 26072.21, 80712.46, 16667.09, 68710.53, 127901.46, 99529.12, 0.00, 0.00, 0.00
115, 81290.56, 132617.33, 26070.98, 80711.72, 16669.88, 68712.48, 127898.42, 99527.02, 0.00, 0.00, 0.00
116, 81290.38, 132611.75, 26070.47, 80709.60, 16650.57, 68702.63, 127897.91, 99531.40, 0.00, 0.00, 0.00
117, 81299.62, 132610.23, 26070.78, 80707.81, 16674.91, 68711.85, 127902.63, 99546.80, 0.00, 0.00, 0.00
118, 81305.23, 132613.77, 26075.30, 80711.92, 16700.31, 68723.43, 127904.19, 99545.01, 0.00, 0.00, 0.00
119, 81286.61, 132614.03, 26076.73, 80711.12, 16692.95, 68722.29, 127898.53, 99514.79, 0.07, -0.28, 0.96
120, 81289.76, 132611.48, 26074.11, 80704.84, 16675.07, 68714.83, 127898.45, 99520.76, 0.00, 0.00, 0.00
121, 81298.63, 132615.56, 26075.19, 80707.88, 16663.09, 68711.07, 127901.98, 99529.61, 0.00, 0.00, 0.00
122, 81292.55, 132620.16, 26076.75, 80710.78, 16645.66, 68706.53, 127899.54, 99522.52, 0.00, 0.00, 0.00
123, 81284.87, 132626.69, 26073.18, 80708.97, 16690.45, 68717.91, 127895.52, 99513.83, 0.00, 0.00, 0.00
124, 81280.26, 132611.47, 26072.82, 80710.25, 16688.86, 68717.75, 127898.22, 99510.81, 0.00, 0.00, 0.00
125, 81281.40, 132604.64, 26082.45, 80716.55, 16696.44, 68720.73, 127896.99, 99512.80, 0.00, 0.00, 0.00
126, 81283.41, 132610.38, 26088.82, 80718.38, 16693.27, 68723.32, 127897.19, 99513.43, 0.00, 0.00, 0.00
127, 81281.36, 132610.73, 26098.30, 80716.98, 16689.24, 68719.03, 127895.67, 99509.85, 0.00, 0.00, 0.00
128, 81282.32, 132610.80, 26097.74, 80710.88, 16677.44, 68720.80, 127895.49, 99510.14, 0.00, 0.00, 0.00
129, 81285.09, 132616.27, 26103.37, 80714.16, 16672.77, 68719.20, 127899.07, 99512.84, 0.07, -0.29, 0.96
130, 81282.02, 132617.56, 26099.77, 80713.73, 16672.72, 68716.66, 127894.35, 99508.98, 0.00, 0.00, 0.00
131, 81281.36, 132614.55, 26095.08, 80708.16, 16660.07, 68711.34, 127890.55, 99509.38, 0.00, 0.00, 0.00
132, 81288.02, 132616.00, 26102.39, 80706.65, 16652.52, 68712.37, 127896.14, 99518.77, 0.00, 0.00, 0.00
133, 81288.62, 132614.38, 26099.39, 80705.40, 16675.12, 68717.89, 127896.07, 99522.13, 0.00, 0.00, 0.00
134, 81291.13, 132612.63, 26097.70, 80704.34, 16686.11, 68719.59, 127896.99, 99525.74, 0.00, 0.00, 0.00
135, 81298.41, 132614.19, 26099.82, 80706.18, 16678.38, 68719.07, 127901.10, 99532.31, 0.00, 0.00, 0.00
136, 81298.14, 132613.36, 26098.48, 80704.28, 16666.87, 68713.62, 127900.27, 99532.63, 0.00, 0.00, 0.00
137, 81300.31, 132613.95, 26101.70, 80708.46, 16663.09, 68712.86, 127900.84, 99533.97, 0.00, 0.00, 0.00
138, 81301.30, 132612.98, 26103.89, 80711.25, 16677.98, 68723.14, 127900.21, 99534.75, 0.00, 0.00, 0.00
139, 81297.49, 132610.69, 26104.94, 80712.30, 16689.47, 68722.83, 127897.62, 99531.60, 0.07, -0.29, 0.95
140, 81297.23, 132615.16, 26107.60, 80715.68, 16683.59, 68721.93, 127896.88, 99530.84, 0.00, 0.00, 0.00
141, 81297.29, 132615.28, 26112.60, 80715.74, 16692.17, 68729.94, 127897.64, 99530.55, 0.00, 0.00, 0.00
142, 81293.31, 132610.06, 26113.01, 80713.40, 16689.27, 68726.80, 127895.02, 99525.36, 0.00, 0.00, 0.00
143, 81293.38, 132612.41, 26113.07, 80714.78, 16691.68, 68726.78, 127894.13, 99523.66, 0.00, 0.00, 0.00
144, 81294.37, 132613.41, 26115.89, 80714.85, 16685.11, 68725.76, 127890.69, 99523.84, 0.00, 0.00, 0.00
145, 81294.95, 132613.52, 26114.30, 80714.07, 16678.13, 68722.02, 127888.12, 99522.48, 0.00, 0.00, 0.00
146, 81303.33, 132617.17, 26116.92, 80717.33, 16700.46, 68730.96, 127894.22, 99530.05, 0.00, 0.00, 0.00
147, 81308.24, 132605.86, 26118.93, 80717.45, 16693.31, 68727.95, 127894.15, 99535.22, 0.00, 0.00, 0.00
148, 81308.40, 132604.30, 26118.21, 80715.52, 16684.71, 68719.50, 127891.80, 99537.03, 0.00, 0.00, 0.00
149, 81307.06, 132606.17, 26119.24, 80716.02, 16684.35, 68715.63, 127890.38, 99537.12, 0.08, -0.29, 0.96
150, 81307.22, 132610.30, 26122.55, 80719.39, 16717.41, 68727.72, 127889.44, 99537.92, 0.00, 0.00, 0.00
151, 81308.58, 132613.41, 26121.86, 80716.05, 16702.88, 68726.29, 127889.75, 99538.59, 0.00, 0.00, 0.00
152, 81312.00, 132613.52, 26122.44, 80716.33, 16691.23, 68717.77, 127888.14, 99539.47, 0.00, 0.00, 0.00
153, 81315.38, 132612.36, 26127.33, 80722.31, 16706.41, 68729.33, 127891.63, 99539.89, 0.00, 0.00, 0.00
154, 81321.50, 132612.78, 26130.19, 80722.79, 16696.48, 68729.04, 127893.62, 99540.45, 0.00, 0.00, 0.00
155, 81322.51, 132613.03, 26131.29, 80720.95, 16704.13, 68734.43, 127893.77, 99536.94, 0.00, 0.00, 0.00
156, 81319.63, 132614.92, 26137.08, 80721.49, 16700.28, 68730.67, 127891.34, 99530.99, 0.00, 0.00, 0.00
157, 81321.16, 132617.33, 26135.47, 80720.15, 16697.45, 68729.55, 127893.75, 99534.02, 0.00, 0.00, 0.00
158, 81323.29, 132618.89, 26134.13, 80717.89, 16693.51, 68726.72, 127892.45, 99536.96, 0.00, 0.00, 0.00
159, 81321.43, 132622.58, 26136.88, 80713.82, 16683.25, 68721.13, 127887.76, 99535.91, 0.07, -0.29, 0.96
160, 81317.68, 132627.00, 26136.54, 80713.17, 16685.40, 68725.30, 127888.72, 99535.82, 0.00, 0.00, 0.00
161, 81316.41, 132621.80, 26137.93, 80712.39, 16678.69, 68723.97, 127888.01, 99537.39, 0.00, 0.00, 0.00
162, 81316.72, 132614.59, 26136.72, 80714.07, 16673.87, 68726.16, 127888.02, 99537.23, 0.00, 0.00, 0.00
163, 81321.86, 132616.97, 26138.91, 80718.67, 16670.36, 68727.16, 127889.70, 99539.29, 0.00, 0.00, 0.00
164, 81324.90, 132618.17, 26135.83, 80718.96, 16691.10, 68726.38, 127893.21, 99539.16, 0.00, 0.00, 0.00
165, 81323.69, 132619.73, 26148.25, 80712.80, 16690.76, 68727.05, 127883.87, 99535.20, 0.00, 0.00, 0.00
166, 81322.84, 132618.95, 26150.67, 80706.52, 16687.72, 68727.56, 127872.94, 99531.17, 0.00, 0.00, 0.00
167, 81321.88, 132616.50, 26144.41, 80707.81, 16684.97, 68725.42, 127873.99, 99529.21, 0.00, 0.00, 0.00
168, 81313.95, 132612.84, 26141.35, 80711.12, 16682.51, 68723.81, 127871.40, 99521.32, 0.00, 0.00, 0.00
169, 81314.59, 132615.38, 26146.49, 80714.31, 16686.72, 68724.98, 127873.95, 99520.67, 0.07, -0.29, 0.96
170, 81321.52, 132623.42, 26152.01, 80720.39, 16701.20, 68736.38, 127884.52, 99527.69, 0.00, 0.00, 0.00
171, 81319.96, 132614.55, 26152.26, 80718.98, 16697.11, 68739.08, 127888.23, 99526.59, 0.00, 0.00, 0.00
172, 81317.72, 132608.02, 26150.87, 80720.10, 16697.96, 68737.76, 127887.16, 99525.56, 0.00, 0.00, 0.00
173, 81320.45, 132613.03, 26155.14, 80721.00, 16698.43, 68739.68, 127889.50, 99528.52, 0.00, 0.00, 0.00
174, 81322.53, 132614.03, 26155.65, 80720.77, 16693.38, 68735.26, 127888.48, 99528.25, 0.00, 0.00, 0.00
175, 81323.98, 132612.14, 26149.17, 80715.97, 16689.18, 68732.08, 127885.50, 99529.37, 0.00, 0.00, 0.00
176, 81326.38, 132614.97, 26151.67, 80716.98, 16688.95, 68734.65, 127886.95, 99532.60, 0.00, 0.00, 0.00
177, 81327.29, 132621.25, 26158.45, 80724.06, 16696.28, 68741.70, 127890.42, 99531.55, 0.00, 0.00, 0.00
178, 81325.43, 132614.55, 26157.49, 80719.03, 16680.77, 68728.55, 127886.26, 99527.46, 0.00, 0.00, 0.00
179, 81325.16, 132609.31, 26151.83, 80717.04, 16678.07, 68730.02, 127888.77, 99528.88, 0.07, -0.29, 0.95
180, 81323.94, 132610.23, 26151.38, 80714.96, 16669.77, 68732.64, 127888.88, 99527.53, 0.00, 0.00, 0.00
181, 81326.02, 132613.19, 26153.15, 80716.84, 16710.79, 68747.28, 127895.02, 99529.03, 0.00, 0.00, 0.00
182, 81330.73, 132619.02, 26159.01, 80724.02, 16721.90, 68755.33, 127898.89, 99531.82, 0.00, 0.00, 0.00
183, 81324.92, 132616.97, 26158.34, 80722.23, 16699.19, 68745.07, 127890.28, 99524.00, 0.00, 0.00, 0.00
184, 81323.66, 132610.53, 26154.58, 80717.80, 16690.58, 68737.13, 127884.80, 99522.84, 0.00, 0.00, 0.00
185, 81321.50, 132609.03, 26151.92, 80714.02, 16694.65, 68740.84, 127885.48, 99522.93, 0.00, 0.00, 0.00
186, 81322.91, 132610.28, 26148.86, 80710.45, 16679.72, 68738.72, 127885.44, 99525.41, 0.00, 0.00, 0.00
187, 81324.02, 132611.75, 26151.85, 80714.88, 16688.13, 68739.05, 127886.59, 99527.76, 0.00, 0.00, 0.00
188, 81322.05, 132610.95, 26149.82, 80713.78, 16687.14, 68736.44, 127882.64, 99524.13, 0.00, 0.00, 0.00
189, 81326.23, 132612.47, 26153.48, 80715.48, 16682.40, 68738.30, 127882.20, 99526.93, 0.08, -0.29, 0.95
190, 81334.28, 132610.84, 26149.13, 80711.45, 16680.08, 68736.66, 127878.55, 99528.36, 0.00, 0.00, 0.00
191, 81343.29, 132613.09, 26147.65, 80711.88, 16673.73, 68728.98, 127874.03, 99535.17, 0.00, 0.00, 0.00
192, 81331.60, 132627.89, 26159.45, 80726.81, 16692.13, 68742.92, 127883.13, 99536.80, 0.00, 0.00, 0.00
193, 81319.87, 132633.89, 26163.74, 80727.68, 16699.72, 68752.40, 127891.24, 99524.20, 0.00, 0.00, 0.00
194, 81321.23, 132613.47, 26158.22, 80715.12, 16688.06, 68737.11, 127882.59, 99525.20, 0.00, 0.00, 0.00
195, 81316.59, 132613.56, 26162.56, 80723.44, 16683.45, 68740.48, 127875.98, 99526.13, 0.00, 0.00, 0.00
196, 81311.77, 132613.41, 26164.41, 80729.96, 16700.51, 68752.20, 127885.97, 99529.66, 0.00, 0.00, 0.00
197, 81313.92, 132611.94, 26161.64, 80728.30, 16710.81, 68756.78, 127888.61, 99531.42, 0.00, 0.00, 0.00
198, 81316.85, 132612.47, 26160.93, 80727.84, 16701.33, 68752.87, 127889.48, 99531.38, 0.00, 0.00, 0.00
199, 81307.17, 132614.89, 26169.42, 80727.55, 16696.60, 68750.25, 127890.17, 99518.99, 0.07, -0.29, 0.96
200, 81293.70, 132617.83, 26170.96, 80729.78, 16679.59, 68744.77, 127890.28, 99510.37, 0.00, 0.00, 0.00
201, 81284.66, 132617.03, 26173.69, 80729.05, 16693.29, 68749.65, 127885.34, 99503.68, 0.00, 0.00, 0.00
202, 81272.37, 132615.58, 26177.38, 80728.93, 16704.58, 68749.11, 127879.42, 99486.65, 0.00, 0.00, 0.00
203, 81262.11, 132614.97, 26180.51, 80733.80, 16698.23, 68743.15, 127879.91, 99480.13, 0.00, 0.00, 0.00
204, 81247.43, 132607.27, 26170.85, 80723.97, 16696.62, 68742.79, 127872.83, 99464.88, 0.00, 0.00, 0.00
205, 81242.42, 132607.78, 26169.55, 80723.45, 16693.38, 68743.03, 127874.44, 99456.77, 0.00, 0.00, 0.00
206, 81225.74, 132607.94, 26174.29, 80728.95, 16687.92, 68752.48, 127880.00, 99444.90, 0.00, 0.00, 0.00
207, 81213.74, 132606.25, 26172.57, 80729.18, 16695.34, 68759.57, 127884.32, 99438.28, 0.00, 0.00, 0.00
208, 81206.43, 132613.39, 26174.96, 80731.46, 16701.60, 68763.10, 127892.07, 99430.62, 0.07, -0.29, 0.97
209, 81187.10, 132611.86, 26173.51, 80723.68, 16703.21, 68766.64, 127895.20, 99418.08, 0.00, 0.00, 0.00
210, 81171.20, 132602.75, 26164.13, 80712.91, 16680.28, 68756.34, 127885.08, 99404.91, 0.00, 0.00, 0.00
211, 81153.62, 132597.52, 26164.53, 80711.27, 16674.94, 68746.66, 127877.52, 99389.13, 0.00, 0.00, 0.00
212, 81123.80, 132594.95, 26161.96, 80709.46, 16682.65, 68746.84, 127866.39, 99359.65, 0.00, 0.00, 0.00
213, 81106.86, 132594.36, 26163.41, 80708.48, 16680.57, 68745.23, 127864.45, 99344.67, 0.00, 0.00, 0.00
214, 81095.13, 132590.61, 26164.82, 80714.02, 16686.34, 68750.32, 127862.77, 99339.80, 0.00, 0.00, 0.00
215, 81079.63, 132590.23, 26168.19, 80722.63, 16683.41, 68754.09, 127863.10, 99327.22, 0.00, 0.00, 0.00
216, 81069.87, 132589.52, 26168.37, 80724.62, 16682.58, 68750.59, 127858.08, 99310.20, 0.00, 0.00, 0.00
217, 81065.20, 132591.23, 26172.62, 80728.71, 16705.40, 68757.34, 127858.27, 99298.05, 0.00, 0.00, 0.00
218, 81048.67, 132590.34, 26172.69, 80728.89, 16709.96, 68761.25, 127856.22, 99285.30, 0.07, -0.29, 0.96
219, 81038.26, 132588.70, 26170.61, 80727.44, 16709.47, 68762.39, 127851.70, 99279.61, 0.00, 0.00, 0.00
220, 81034.21, 132587.28, 26165.87, 80723.97, 16703.75, 68752.73, 127843.50, 99269.50, 0.00, 0.00, 0.00
221, 81031.84, 132594.02, 26174.63, 80721.53, 16693.73, 68747.23, 127841.16, 99262.84, 0.00, 0.00, 0.00
222, 81029.97, 132603.42, 26188.71, 80729.09, 16708.29, 68757.45, 127845.78, 99262.30, 0.00, 0.00, 0.00
223, 81025.59, 132583.69, 26181.58, 80728.17, 16699.57, 68751.52, 127839.52, 99255.48, 0.00, 0.00, 0.00
224, 81024.29, 132577.41, 26175.34, 80723.75, 16703.70, 68752.09, 127839.50, 99256.78, 0.00, 0.00, 0.00
225, 81028.42, 132580.91, 26172.13, 80723.21, 16708.58, 68761.67, 127846.81, 99269.50, 0.00, 0.00, 0.00
226, 81042.77, 132576.33, 26175.08, 80722.83, 16703.86, 68758.91, 127854.41, 99287.49, 0.00, 0.00, 0.00
227, 81049.91, 132571.97, 26180.37, 80720.91, 16678.47, 68748.80, 127849.98, 99290.60, 0.00, 0.00, 0.00
228, 81057.05, 132564.92, 26178.68, 80720.84, 16684.24, 68754.23, 127851.37, 99297.58, 0.07, -0.29, 0.96
229, 81068.55, 132566.20, 26178.70, 80723.14, 16688.39, 68756.71, 127856.65, 99309.53, 0.00, 0.00, 0.00
230, 81080.03, 132567.05, 26181.65, 80722.41, 16700.20, 68759.35, 127856.35, 99314.70, 0.00, 0.00, 0.00
231, 81089.35, 132568.42, 26182.10, 80720.13, 16704.69, 68760.09, 127857.63, 99324.55, 0.00, 0.00, 0.00
232, 81103.62, 132573.25, 26181.80, 80720.93, 16707.06, 68765.54, 127865.16, 99337.07, 0.00, 0.00, 0.00
233, 81112.65, 132577.16, 26184.62, 80725.87, 16705.47, 68767.53, 127865.54, 99342.57, 0.00, 0.00, 0.00
234, 81116.49, 132575.30, 26181.51, 80720.73, 16700.40, 68766.73, 127864.71, 99346.35, 0.00, 0.00, 0.00
235, 81128.31, 132575.95, 26181.22, 80718.38, 16690.90, 68762.52, 127861.32, 99355.24, 0.00, 0.00, 0.00
236, 81144.30, 132581.73, 26182.38, 80719.79, 16687.14, 68759.04, 127862.13, 99366.29, 0.00, 0.00, 0.00
237, 81158.45, 132589.30, 26187.82, 80724.17, 16702.23, 68762.62, 127864.85, 99378.06, 0.00, 0.00, 0.00
238, 81166.55, 132590.75, 26188.11, 80725.80, 16705.43, 68764.88, 127862.73, 99384.28, 0.07, -0.29, 0.96
239, 81169.75, 132581.84, 26183.01, 80717.94, 16686.27, 68756.49, 127854.50, 99384.52, 0.00, 0.00, 0.00
240, 81179.45, 132581.25, 26184.31, 80718.94, 16675.36, 68750.66, 127853.49, 99393.13, 0.00, 0.00, 0.00
241, 81194.92, 132589.58, 26186.14, 80721.84, 16695.32, 68759.17, 127856.20, 99406.52, 0.00, 0.00, 0.00
242, 81205.23, 132590.83, 26188.93, 80721.11, 16696.44, 68760.02, 127857.43, 99415.66, 0.00, 0.00, 0.00
243, 81209.54, 132589.92, 26194.93, 80727.95, 16691.01, 68757.18, 127857.56, 99417.67, 0.00, 0.00, 0.00
244, 81214.62, 132588.20, 26193.29, 80726.43, 16680.90, 68757.43, 127855.13, 99421.23, 0.00, 0.00, 0.00
245, 81224.83, 132588.52, 26190.01, 80720.57, 16681.02, 68755.57, 127857.14, 99430.52, 0.00, 0.00, 0.00
246, 81235.69, 132590.55, 26193.25, 80729.85, 16692.91, 68766.52, 127863.73, 99439.94, 0.00, 0.00, 0.00
247, 81244.14, 132593.63, 26197.45, 80731.77, 16699.05, 68770.64, 127868.27, 99449.05, 0.00, 0.00, 0.00
248, 81250.80, 132593.69, 26194.72, 80730.43, 16709.00, 68773.61, 127870.03, 99457.86, 0.07, -0.29, 0.95
249, 81252.88, 132590.67, 26189.87, 80724.95, 16701.51, 68770.15, 127866.95, 99459.74, 0.00, 0.00, 0.00
250, 81263.14, 132596.20, 26192.85, 80730.23, 16697.42, 68771.40, 127869.85, 99468.12, 0.00, 0.00, 0.00
251, 81269.58, 132598.48, 26192.02, 80726.92, 16690.96, 68767.30, 127867.20, 99473.73, 0.00, 0.00, 0.00
252, 81278.63, 132595.42, 26191.44, 80722.45, 16679.74, 68761.95, 127862.81, 99482.05, 0.00, 0.00, 0.00
253, 81282.95, 132598.50, 26201.68, 80720.98, 16659.58, 68750.37, 127857.23, 99483.23, 0.00, 0.00, 0.00
254, 81287.03, 132605.83, 26202.03, 80725.67, 16671.54, 68748.89, 127858.99, 99488.23, 0.00, 0.00, 0.00
255, 81292.33, 132601.19, 26198.95, 80723.73, 16684.26, 68756.22, 127859.33, 99493.52, 0.00, 0.00, 0.00
0, 81294.86, 132593.22, 26203.46, 80725.91, 16686.29, 68765.50, 127865.36, 99497.40, 0.00, 0.00, 0.00
1, 81298.92, 132601.56, 26208.74, 80731.30, 16704.15, 68774.05, 127871.30, 99499.91, 0.00, 0.00, 0.00
2, 81301.38, 132600.58, 26212.05, 80730.50, 16694.03, 68777.12, 127871.15, 99499.88, 0.07, -0.29, 0.95
3, 81303.93, 132594.50, 26210.55, 80732.33, 16696.73, 68774.77, 127869.99, 99498.81, 0.00, 0.00, 0.00
4, 81308.80, 132597.05, 26213.03, 80734.48, 16697.60, 68781.16, 127871.51, 99503.13, 0.00, 0.00, 0.00
5, 81313.56, 132598.77, 26216.07, 80726.67, 16683.63, 68776.49, 127865.27, 99503.34, 0.00, 0.00, 0.00
6, 81316.05, 132600.11, 26214.59, 80727.68, 16674.31, 68769.68, 127860.27, 99506.50, 0.00, 0.00, 0.00
7, 81315.51, 132605.36, 26219.80, 80733.67, 16699.77, 68776.78, 127858.52, 99508.55, 0.00, 0.00, 0.00
8, 81314.21, 132606.14, 26220.07, 80732.95, 16702.92, 68778.62, 127853.52, 99510.16, 0.00, 0.00, 0.00
9, 81318.21, 132601.52, 26217.19, 80725.58, 16691.63, 68773.66, 127851.48, 99516.02, 0.00, 0.00, 0.00
10, 81319.48, 132598.75, 26217.05, 80727.32, 16692.97, 68773.03, 127851.99, 99516.34, 0.00, 0.00, 0.00
11, 81321.32, 132601.41, 26218.24, 80730.50, 16682.92, 68769.01, 127851.75, 99513.61, 0.00, 0.00, 0.00
12, 81325.16, 132603.34, 26219.96, 80730.20, 16683.03, 68767.62, 127848.13, 99514.63, 0.07, -0.28, 0.96
13, 81326.06, 132601.58, 26222.39, 80731.91, 16689.98, 68771.58, 127847.62, 99512.00, 0.00, 0.00, 0.00
14, 81323.87, 132602.19, 26226.82, 80736.45, 16683.21, 68769.34, 127842.05, 99507.19, 0.00, 0.00, 0.00
15, 81323.89, 132602.45, 26224.83, 80732.66, 16670.91, 68759.40, 127834.88, 99506.97, 0.00, 0.00, 0.00
16, 81325.05, 132604.80, 26227.76, 80736.20, 16686.63, 68764.88, 127835.10, 99511.20, 0.00, 0.00, 0.00
17, 81328.34, 132604.94, 26228.94, 80737.25, 16686.72, 68766.91, 127835.79, 99512.66, 0.00, 0.00, 0.00
18, 81334.28, 132601.67, 26225.93, 80734.34, 16687.92, 68771.02, 127838.16, 99517.09, 0.00, 0.00, 0.00
19, 81332.01, 132599.33, 26227.47, 80733.47, 16677.96, 68765.84, 127835.79, 99515.39, 0.00, 0.00, 0.00
20, 81335.18, 132604.92, 26227.80, 80734.05, 16681.08, 68765.63, 127836.64, 99517.92, 0.00, 0.00, 0.00
21, 81343.16, 132609.47, 26229.77, 80732.73, 16681.02, 68766.68, 127840.58, 99525.99, 0.00, 0.00, 0.00
22, 81344.27, 132605.00, 26232.34, 80735.62, 16695.72, 68769.03, 127839.75, 99527.04, 0.07, -0.28, 0.96
23, 81346.51, 132602.61, 26233.01, 80735.66, 16696.28, 68771.51, 127840.59, 99526.81, 0.00, 0.00, 0.00
24, 81350.11, 132600.02, 26236.32, 80737.78, 16692.30, 68777.43, 127842.09, 99526.34, 0.00, 0.00, 0.00
25, 81346.04, 132597.89, 26233.55, 80733.25, 16676.17, 68771.71, 127839.03, 99520.31, 0.00, 0.00, 0.00
26, 81342.71, 132603.13, 26235.98, 80734.79, 16681.98, 68770.28, 127838.18, 99517.14, 0.00, 0.00, 0.00
27, 81345.62, 132604.11, 26236.07, 80735.73, 16699.17, 68779.42, 127842.56, 99521.01, 0.00, 0.00, 0.00
28, 81346.35, 132602.23, 26240.14, 80736.91, 16684.59, 68775.94, 127843.13, 99522.88, 0.00, 0.00, 0.00
29, 81342.29, 132600.92, 26240.52, 80733.67, 16695.03, 68787.31, 127842.56, 99522.75, 0.00, 0.00, 0.00
30, 81344.92, 132606.41, 26236.83, 80731.03, 16684.66, 68780.49, 127841.11, 99525.36, 0.00, 0.00, 0.00
31, 81348.32, 132609.14, 26235.40, 80727.48, 16673.30, 68774.95, 127838.09, 99527.71, 0.00, 0.00, 0.00
32, 81350.76, 132598.17, 26237.26, 80730.61, 16706.27, 68790.71, 127839.26, 99527.53, 0.07, -0.29, 0.96
33, 81351.83, 132598.23, 26240.03, 80735.03, 16686.29, 68782.38, 127835.21, 99524.70, 0.00, 0.00, 0.00
34, 81346.69, 132597.27, 26241.82, 80727.88, 16685.93, 68776.88, 127827.90, 99519.46, 0.00, 0.00, 0.00
35, 81347.52, 132601.14, 26242.53, 80730.84, 16698.07, 68781.52, 127829.31, 99520.96, 0.00, 0.00, 0.00
36, 81345.41, 132603.53, 26244.59, 80735.75, 16694.43, 68779.84, 127828.80, 99519.75, 0.00, 0.00, 0.00
37, 81346.69, 132601.23, 26244.59, 80735.91, 16695.99, 68781.73, 127829.71, 99518.95, 0.00, 0.00, 0.00
38, 81344.27, 132601.14, 26243.81, 80733.05, 16681.96, 68780.20, 127833.53, 99518.52, 0.00, 0.00, 0.00
39, 81340.21, 132596.31, 26249.80, 80732.80, 16679.43, 68774.84, 127829.82, 99514.30, 0.00, 0.00, 0.00
40, 81340.12, 132596.11, 26252.62, 80739.26, 16707.84, 68787.98, 127831.66, 99516.52, 0.00, 0.00, 0.00
41, 81342.20, 132605.23, 26259.34, 80747.51, 16713.96, 68795.34, 127836.88, 99521.01, 0.00, 0.00, 0.00
42, 81339.20, 132604.61, 26262.14, 80745.00, 16703.84, 68787.83, 127831.27, 99518.44, 0.07, -0.29, 0.95
43, 81344.32, 132605.47, 26266.38, 80747.87, 16692.73, 68785.55, 127830.72, 99522.63, 0.00, 0.00, 0.00
44, 81340.55, 132602.64, 26259.90, 80741.74, 16694.32, 68781.59, 127826.94, 99518.03, 0.00, 0.00, 0.00
45, 81340.09, 132602.80, 26257.13, 80743.02, 16695.57, 68780.85, 127829.13, 99521.77, 0.00, 0.00, 0.00
46, 81343.88, 132604.14, 26255.34, 80742.70, 16695.70, 68781.37, 127831.48, 99527.17, 0.00, 0.00, 0.00
47, 81342.02, 132600.84, 26254.16, 80736.78, 16689.06, 68774.80, 127826.74, 99523.53, 0.00, 0.00, 0.00
48, 81345.57, 132600.84, 26256.71, 80738.59, 16702.63, 68783.94, 127827.34, 99525.05, 0.00, 0.00, 0.00
49, 81346.51, 132600.28, 26257.78, 80736.78, 16686.45, 68775.11, 127824.21, 99523.30, 0.00, 0.00, 0.00
50, 81347.59, 132599.89, 26253.06, 80729.78, 16698.27, 68778.13, 127822.67, 99521.88, 0.00, 0.00, 0.00
51, 81353.22, 132599.28, 26257.00, 80731.84, 16696.89, 68776.34, 127822.76, 99526.91, 0.00, 0.00, 0.00
52, 81352.97, 132597.03, 26253.89, 80729.02, 16682.96, 68772.45, 127820.68, 99524.80, 0.07, -0.28, 0.96
53, 81353.20, 132596.91, 26252.55, 80726.81, 16671.58, 68774.52, 127821.66, 99524.23, 0.00, 0.00, 0.00
54, 81354.24, 132598.28, 26252.88, 80728.15, 16676.21, 68774.88, 127817.30, 99523.28, 0.00, 0.00, 0.00
55, 81358.29, 132598.33, 26255.36, 80729.94, 16670.89, 68775.45, 127820.37, 99526.26, 0.00, 0.00, 0.00
56, 81362.27, 132599.11, 26254.36, 80727.97, 16677.93, 68778.23, 127823.84, 99528.18, 0.00, 0.00, 0.00
57, 81363.61, 132597.94, 26250.22, 80725.36, 16667.74, 68774.88, 127822.42, 99529.23, 0.00, 0.00, 0.00
58, 81358.85, 132596.89, 26253.29, 80725.73, 16659.25, 68773.81, 127816.86, 99526.68, 0.00, 0.00, 0.00
59, 81359.30, 132600.06, 26260.57, 80729.60, 16683.32, 68775.87, 127816.05, 99528.72, 0.00, 0.00, 0.00
60, 81362.45, 132603.27, 26259.30, 80729.76, 16674.42, 68775.33, 127815.83, 99531.64, 0.00, 0.00, 0.00
61, 81364.35, 132603.53, 26262.99, 80734.45, 16672.32, 68775.35, 127818.06, 99530.34, 0.00, 0.00, 0.00
62, 81365.87, 132604.72, 26263.50, 80738.16, 16691.23, 68782.77, 127821.91, 99530.26, 0.07, -0.29, 0.96
63, 81365.02, 132599.34, 26265.15, 80741.23, 16688.82, 68781.84, 127819.88, 99528.05, 0.00, 0.00, 0.00
64, 81367.25, 132599.81, 26268.35, 80743.70, 16684.41, 68781.86, 127821.62, 99528.58, 0.00, 0.00, 0.00
65, 81368.26, 132601.56, 26268.33, 80743.41, 16675.81, 68782.24, 127824.44, 99530.39, 0.00, 0.00, 0.00
66, 81367.30, 132590.83, 26265.98, 80742.01, 16682.13, 68778.53, 127821.33, 99528.94, 0.00, 0.00, 0.00
67, 81368.86, 132593.38, 26263.68, 80738.66, 16689.35, 68780.07, 127822.73, 99529.54, 0.00, 0.00, 0.00
68, 81371.21, 132593.31, 26265.15, 80740.71, 16685.22, 68782.66, 127824.62, 99529.77, 0.00, 0.00, 0.00
69, 81375.79, 132594.03, 26267.90, 80744.29, 16692.37, 68782.66, 127825.95, 99532.45, 0.00, 0.00, 0.00
70, 81373.24, 132593.61, 26267.79, 80742.12, 16679.68, 68783.55, 127826.31, 99531.87, 0.00, 0.00, 0.00
71, 81369.63, 132592.80, 26266.27, 80735.26, 16670.11, 68781.27, 127821.77, 99528.31, 0.00, 0.00, 0.00
72, 81373.47, 132599.84, 26275.55, 80738.50, 16683.03, 68785.57, 127823.27, 99532.85, 0.07, -0.28, 0.96
73, 81374.20, 132600.44, 26277.56, 80742.16, 16687.10, 68783.29, 127823.72, 99534.82, 0.00, 0.00, 0.00
74, 81374.97, 132600.58, 26275.79, 80738.52, 16665.48, 68773.90, 127822.05, 99534.04, 0.00, 0.00, 0.00
75, 81376.38, 132602.48, 26275.28, 80736.91, 16684.06, 68780.59, 127821.30, 99534.62, 0.00, 0.00, 0.00
76, 81374.72, 132598.48, 26272.15, 80733.94, 16690.11, 68787.85, 127818.96, 99532.74, 0.00, 0.00, 0.00
77, 81375.28, 132596.48, 26270.29, 80732.71, 16692.04, 68785.44, 127817.75, 99534.15, 0.00, 0.00, 0.00
78, 81379.44, 132599.73, 26279.35, 80736.71, 16685.69, 68785.91, 127817.87, 99539.94, 0.00, 0.00, 0.00
79, 81375.95, 132598.55, 26278.99, 80739.73, 16675.07, 68784.98, 127817.75, 99538.41, 0.00, 0.00, 0.00
80, 81377.55, 132600.56, 26279.93, 80741.38, 16687.05, 68788.19, 127819.66, 99538.26, 0.00, 0.00, 0.00
81, 81377.63, 132604.27, 26280.31, 80739.51, 16691.57, 68790.04, 127820.03, 99539.31, 0.00, 0.00, 0.00
82, 81379.52, 132609.39, 26287.97, 80736.06, 16686.72, 68788.45, 127820.46, 99540.12, 0.07, -0.29, 0.96
83, 81381.36, 132608.11, 26283.57, 80733.29, 16663.76, 68783.11, 127822.72, 99543.91, 0.00, 0.00, 0.00
84, 81381.09, 132609.36, 26281.56, 80735.02, 16683.86, 68789.81, 127823.09, 99544.79, 0.00, 0.00, 0.00
85, 81380.44, 132605.45, 26281.56, 80733.91, 16694.92, 68789.91, 127819.66, 99541.44, 0.00, 0.00, 0.00
86, 81381.47, 132605.77, 26284.55, 80732.58, 16686.69, 68789.03, 127818.09, 99540.18, 0.00, 0.00, 0.00
87, 81378.95, 132608.16, 26289.83, 80731.23, 16681.82, 68788.43, 127817.13, 99536.47, 0.00, 0.00, 0.00
88, 81380.33, 132606.14, 26290.30, 80733.58, 16682.36, 68791.78, 127820.80, 99536.05, 0.00, 0.00, 0.00
89, 81379.63, 132600.02, 26287.53, 80734.50, 16675.05, 68790.48, 127822.67, 99534.33, 0.00, 0.00, 0.00
90, 81379.63, 132600.00, 26287.82, 80734.92, 16671.90, 68790.91, 127822.70, 99533.05, 0.00, 0.00, 0.00
91, 81382.38, 132601.97, 26288.76, 80734.95, 16693.36, 68794.84, 127824.80, 99532.45, 0.00, 0.00, 0.00
92, 81384.60, 132605.98, 26292.20, 80738.43, 16688.08, 68791.89, 127825.89, 99534.23, 0.06, -0.29, 0.97
93, 81385.07, 132604.88, 26293.12, 80738.27, 16685.55, 68785.77, 127823.66, 99537.16, 0.00, 0.00, 0.00
94, 81383.21, 132602.61, 26293.14, 80739.13, 16681.73, 68787.18, 127821.17, 99536.98, 0.00, 0.00, 0.00
95, 81383.95, 132602.17, 26293.47, 80736.95, 16669.88, 68785.13, 127821.93, 99537.52, 0.00, 0.00, 0.00
96, 81389.09, 132604.38, 26293.32, 80738.50, 16697.07, 68797.05, 127823.99, 99541.68, 0.00, 0.00, 0.00
97, 81392.87, 132606.84, 26292.78, 80739.10, 16711.42, 68801.08, 127825.91, 99543.29, 0.00, 0.00, 0.00
98, 81392.51, 132605.59, 26289.99, 80733.23, 16686.40, 68799.88, 127826.90, 99542.57, 0.00, 0.00, 0.00
99, 81389.23, 132603.44, 26288.96, 80728.69, 16689.18, 68797.52, 127824.10, 99540.18, 0.00, 0.00, 0.00
100, 81390.27, 132611.20, 26303.40, 80733.16, 16692.13, 68793.84, 127822.76, 99539.29, 0.00, 0.00, 0.00
101, 81388.16, 132613.00, 26299.33, 80724.87, 16674.33, 68782.88, 127814.73, 99534.55, 0.00, 0.00, 0.00
102, 81388.58, 132600.98, 26295.55, 80721.84, 16681.87, 68781.95, 127812.12, 99534.59, 0.07, -0.29, 0.97
103, 81390.21, 132600.89, 26297.79, 80722.95, 16698.63, 68786.33, 127813.35, 99535.80, 0.00, 0.00, 0.00
104, 81390.68, 132604.22, 26295.17, 80719.45, 16681.91, 68780.72, 127812.01, 99536.72, 0.00, 0.00, 0.00
105, 81392.78, 132608.84, 26294.46, 80715.68, 16674.60, 68781.88, 127810.24, 99539.53, 0.00, 0.00, 0.00
106, 81397.07, 132610.58, 26295.51, 80715.81, 16673.57, 68779.69, 127809.73, 99541.52, 0.00, 0.00, 0.00
107, 81398.08, 132607.13, 26295.98, 80718.98, 16670.80, 68781.57, 127812.50, 99540.43, 0.00, 0.00, 0.00
108, 81398.37, 132605.41, 26294.48, 80716.30, 16669.64, 68784.88, 127814.80, 99540.77, 0.00, 0.00, 0.00
109, 81398.10, 132608.20, 26297.56, 80719.73, 16667.29, 68783.67, 127812.55, 99538.26, 0.00, 0.00, 0.00
110, 81399.22, 132605.03, 26299.64, 80718.36, 16665.79, 68782.22, 127811.36, 99537.79, 0.00, 0.00, 0.00
111, 81399.15, 132605.97, 26303.73, 80720.26, 16662.20, 68776.38, 127812.97, 99538.48, 0.00, 0.00, 0.00
112, 81401.32, 132606.88, 26303.67, 80716.86, 16674.94, 68783.22, 127811.92, 99539.13, 0.06, -0.29, 0.97
113, 81403.66, 132607.17, 26301.92, 80718.43, 16686.05, 68788.70, 127812.79, 99539.49, 0.00, 0.00, 0.00
114, 81405.25, 132607.67, 26304.45, 80728.77, 16689.91, 68790.20, 127812.99, 99539.67, 0.00, 0.00, 0.00
115, 81405.81, 132604.92, 26301.41, 80727.59, 16677.60, 68785.91, 127812.05, 99539.16, 0.00, 0.00, 0.00
116, 81405.56, 132603.63, 26296.80, 80723.39, 16675.03, 68784.95, 127812.57, 99539.84, 0.00, 0.00, 0.00
117, 81410.75, 132609.19, 26306.46, 80724.13, 16691.41, 68800.57, 127820.30, 99546.53, 0.00, 0.00, 0.00
118, 81410.15, 132605.55, 26308.43, 80711.37, 16669.86, 68789.19, 127814.38, 99543.67, 0.00, 0.00, 0.00
119, 81414.23, 132602.48, 26305.99, 80712.80, 16670.65, 68787.67, 127813.75, 99546.28, 0.00, 0.00, 0.00
120, 81414.20, 132606.25, 26305.97, 80720.13, 16678.18, 68790.38, 127813.15, 99545.59, 0.00, 0.00, 0.00
121, 81409.72, 132608.83, 26305.30, 80714.74, 16679.81, 68788.45, 127809.62, 99540.83, 0.00, 0.00, 0.00
122, 81407.58, 132607.67, 26314.28, 80716.62, 16667.03, 68788.45, 127806.22, 99538.91, 0.07, -0.28, 0.97
123, 81410.15, 132607.84, 26314.95, 80719.97, 16684.21, 68798.09, 127812.43, 99544.85, 0.00, 0.00, 0.00
124, 81410.66, 132605.77, 26309.68, 80712.75, 16683.47, 68799.16, 127814.60, 99545.68, 0.00, 0.00, 0.00
125, 81412.78, 132606.09, 26308.31, 80712.23, 16695.17, 68798.69, 127814.20, 99546.77, 0.00, 0.00, 0.00
126, 81417.37, 132608.27, 26314.95, 80720.84, 16695.21, 68796.79, 127815.72, 99551.73, 0.00, 0.00, 0.00
127, 81424.48, 132604.69, 26309.72, 80714.52, 16656.16, 68786.71, 127817.73, 99565.91, 0.00, 0.00, 0.00
128, 81419.71, 132604.69, 26310.77, 80716.02, 16661.35, 68789.08, 127815.07, 99561.69, 0.00, 0.00, 0.00
129, 81406.26, 132611.00, 26317.21, 80719.43, 16696.28, 68800.03, 127811.20, 99539.98, 0.00, 0.00, 0.00
130, 81406.75, 132612.02, 26318.04, 80718.02, 16696.73, 68798.76, 127804.45, 99536.12, 0.00, 0.00, 0.00
131, 81413.50, 132611.44, 26315.94, 80715.30, 16682.09, 68793.88, 127801.52, 99542.95, 0.00, 0.00, 0.00
132, 81417.63, 132613.23, 26319.27, 80716.30, 16676.61, 68794.27, 127802.15, 99544.12, 0.07, -0.29, 0.96
133, 81416.59, 132614.59, 26326.67, 80720.88, 16675.47, 68799.98, 127805.75, 99544.12, 0.00, 0.00, 0.00
134, 81418.64, 132615.36, 26329.04, 80725.58, 16680.79, 68805.91, 127813.51, 99549.37, 0.00, 0.00, 0.00
135, 81419.69, 132614.14, 26324.19, 80723.23, 16683.77, 68808.34, 127816.13, 99550.55, 0.00, 0.00, 0.00
136, 81422.82, 132616.61, 26319.04, 80714.70, 16657.32, 68797.08, 127812.19, 99548.77, 0.00, 0.00, 0.00
137, 81425.16, 132620.11, 26322.89, 80725.49, 16686.22, 68804.95, 127813.93, 99552.63, 0.00, 0.00, 0.00
138, 81425.62, 132617.23, 26322.64, 80726.09, 16687.43, 68803.88, 127811.18, 99552.16, 0.00, 0.00, 0.00
139, 81432.77, 132614.81, 26321.06, 80720.55, 16684.08, 68804.10, 127811.85, 99557.48, 0.00, 0.00, 0.00
140, 81433.19, 132615.02, 26321.41, 80722.00, 16678.63, 68798.06, 127809.75, 99557.64, 0.00, 0.00, 0.00
141, 81436.99, 132622.06, 26327.52, 80725.63, 16664.54, 68795.11, 127808.01, 99559.65, 0.00, 0.00, 0.00
142, 81436.99, 132629.53, 26332.50, 80730.20, 16684.44, 68806.09, 127812.77, 99560.86, 0.07, -0.29, 0.96
143, 81430.62, 132622.19, 26333.64, 80728.82, 16680.19, 68802.76, 127811.31, 99557.33, 0.00, 0.00, 0.00
144, 81429.05, 132619.17, 26331.99, 80724.71, 16675.96, 68799.18, 127811.07, 99557.15, 0.00, 0.00, 0.00
145, 81430.29, 132619.36, 26331.36, 80724.04, 16706.83, 68812.68, 127811.49, 99561.59, 0.00, 0.00, 0.00
146, 81431.20, 132621.13, 26332.10, 80724.87, 16693.78, 68809.82, 127810.65, 99564.84, 0.00, 0.00, 0.00
147, 81430.06, 132623.48, 26332.23, 80721.20, 16693.49, 68808.01, 127809.98, 99564.61, 0.00, 0.00, 0.00
148, 81430.22, 132621.64, 26329.33, 80715.56, 16675.65, 68802.45, 127804.32, 99562.89, 0.00, 0.00, 0.00
149, 81429.52, 132619.38, 26329.46, 80719.77, 16686.52, 68807.02, 127804.88, 99562.67, 0.00, 0.00, 0.00
150, 81429.28, 132621.23, 26332.28, 80726.92, 16682.45, 68806.47, 127804.88, 99559.25, 0.00, 0.00, 0.00
151, 81430.69, 132623.56, 26331.61, 80725.87, 16685.78, 68810.42, 127807.78, 99557.75, 0.00, 0.00, 0.00
152, 81431.36, 132626.48, 26327.20, 80724.02, 16682.98, 68812.95, 127811.36, 99559.54, 0.07, -0.29, 0.97
153, 81429.33, 132624.94, 26331.90, 80722.12, 16660.77, 68808.44, 127809.38, 99558.02, 0.00, 0.00, 0.00
154, 81425.37, 132622.42, 26339.43, 80723.05, 16683.27, 68809.59, 127805.95, 99554.40, 0.00, 0.00, 0.00
155, 81423.06, 132618.11, 26335.38, 80717.84, 16683.43, 68807.41, 127800.92, 99549.70, 0.00, 0.00, 0.00
156, 81424.36, 132619.47, 26341.93, 80718.77, 16694.05, 68806.45, 127798.53, 99547.76, 0.00, 0.00, 0.00
157, 81423.29, 132621.28, 26342.22, 80718.74, 16687.01, 68808.30, 127797.70, 99548.14, 0.00, 0.00, 0.00
158, 81420.85, 132621.64, 26341.55, 80719.92, 16681.42, 68807.30, 127795.16, 99542.89, 0.00, 0.00, 0.00
159, 81422.62, 132622.59, 26344.41, 80725.73, 16679.83, 68806.71, 127797.86, 99542.46, 0.00, 0.00, 0.00
160, 81420.43, 132622.33, 26344.01, 80724.15, 16673.08, 68804.30, 127797.39, 99542.66, 0.00, 0.00, 0.00
161, 81426.59, 132629.72, 26345.64, 80725.38, 16683.83, 68813.27, 127803.47, 99547.38, 0.00, 0.00, 0.00
162, 81433.23, 132632.13, 26341.93, 80720.38, 16678.78, 68815.92, 127809.28, 99553.02, 0.07, -0.29, 0.96
163, 81432.16, 132617.67, 26339.92, 80720.87, 16689.73, 68819.56, 127811.31, 99554.02, 0.00, 0.00, 0.00
164, 81433.77, 132615.23, 26339.99, 80720.10, 16693.13, 68821.33, 127814.18, 99559.16, 0.00, 0.00, 0.00
165, 81437.21, 132619.09, 26339.94, 80717.73, 16684.12, 68825.18, 127815.05, 99563.20, 0.00, 0.00, 0.00
166, 81434.66, 132622.42, 26343.81, 80719.92, 16693.60, 68821.53, 127807.88, 99558.27, 0.00, 0.00, 0.00
167, 81436.08, 132624.05, 26344.57, 80720.53, 16689.15, 68811.88, 127802.09, 99556.09, 0.00, 0.00, 0.00
168, 81438.91, 132627.61, 26348.64, 80723.79, 16681.53, 68808.81, 127799.27, 99556.92, 0.00, 0.00, 0.00
169, 81447.63, 132636.03, 26357.64, 80731.97, 16681.29, 68814.45, 127805.21, 99563.61, 0.00, 0.00, 0.00
170, 81448.79, 132634.70, 26358.27, 80735.33, 16697.18, 68825.98, 127807.49, 99561.73, 0.00, 0.00, 0.00
171, 81452.39, 132632.36, 26358.38, 80734.32, 16701.33, 68828.80, 127810.71, 99563.63, 0.00, 0.00, 0.00
172, 81460.95, 132634.67, 26359.95, 80735.19, 16711.37, 68826.70, 127814.47, 99570.24, 0.07, -0.29, 0.96
173, 81462.43, 132633.33, 26361.78, 80734.37, 16705.31, 68827.68, 127816.41, 99568.55, 0.00, 0.00, 0.00
174, 81459.79, 132633.89, 26364.96, 80735.21, 16691.14, 68823.14, 127814.47, 99563.41, 0.00, 0.00, 0.00
175, 81462.90, 132637.22, 26366.70, 80739.05, 16707.62, 68834.34, 127819.74, 99563.61, 0.00, 0.00, 0.00
176, 81467.45, 132639.47, 26367.99, 80739.88, 16698.61, 68829.60, 127820.73, 99566.65, 0.00, 0.00, 0.00
177, 81468.77, 132641.06, 26368.75, 80739.66, 16707.12, 68835.91, 127823.77, 99568.86, 0.00, 0.00, 0.00
178, 81467.41, 132641.86, 26367.23, 80738.56, 16705.83, 68837.76, 127823.99, 99567.48, 0.00, 0.00, 0.00
179, 81467.68, 132642.25, 26368.71, 80734.92, 16700.42, 68835.26, 127825.15, 99567.77, 0.00, 0.00, 0.00
180, 81470.01, 132643.36, 26367.79, 80734.34, 16692.80, 68835.16, 127826.80, 99571.79, 0.00, 0.00, 0.00
181, 81466.95, 132643.94, 26371.32, 80736.38, 16696.71, 68834.97, 127828.23, 99570.63, 0.00, 0.00, 0.00
182, 81466.20, 132644.30, 26370.77, 80737.54, 16707.35, 68836.20, 127828.77, 99570.42, 0.07, -0.29, 0.96
183, 81468.40, 132646.67, 26375.30, 80742.79, 16718.41, 68842.50, 127833.53, 99576.02, 0.00, 0.00, 0.00
184, 81462.96, 132643.94, 26373.74, 80740.82, 16701.40, 68838.34, 127828.44, 99572.57, 0.00, 0.00, 0.00
185, 81461.47, 132642.09, 26373.52, 80738.50, 16699.44, 68837.85, 127827.01, 99571.50, 0.00, 0.00, 0.00
186, 81464.82, 132643.88, 26374.74, 80741.41, 16709.29, 68844.11, 127827.52, 99571.74, 0.00, 0.00, 0.00
187, 81469.24, 132647.36, 26376.44, 80743.22, 16705.16, 68846.74, 127828.70, 99573.27, 0.00, 0.00, 0.00
188, 81468.93, 132644.66, 26376.69, 80742.23, 16707.28, 68843.46, 127827.48, 99570.85, 0.00, 0.00, 0.00
189, 81466.59, 132639.92, 26373.43, 80739.21, 16700.98, 68844.51, 127828.66, 99566.40, 0.00, 0.00, 0.00
190, 81468.22, 132636.16, 26374.14, 80739.21, 16711.79, 68848.31, 127828.30, 99567.48, 0.00, 0.00, 0.00
191, 81467.81, 132639.05, 26377.38, 80744.80, 16729.79, 68846.68, 127822.80, 99567.50, 0.00, 0.00, 0.00
192, 81470.90, 132644.48, 26381.76, 80750.77, 16721.81, 68846.61, 127820.05, 99568.03, 0.07, -0.28, 0.96
193, 81470.85, 132646.00, 26379.33, 80747.71, 16707.73, 68840.53, 127814.80, 99566.80, 0.00, 0.00, 0.00
194, 81479.02, 132651.70, 26381.61, 80751.89, 16712.26, 68843.57, 127819.52, 99573.29, 0.00, 0.00, 0.00
195, 81488.20, 132661.58, 26392.00, 80761.23, 16738.80, 68860.52, 127830.45, 99582.13, 0.00, 0.00, 0.00
196, 81488.83, 132658.11, 26389.70, 80755.02, 16718.32, 68850.61, 127829.24, 99583.63, 0.00, 0.00, 0.00
197, 81490.81, 132657.63, 26389.90, 80757.59, 16710.41, 68848.80, 127829.40, 99583.52, 0.00, 0.00, 0.00
198, 81489.56, 132658.89, 26390.55, 80758.68, 16734.59, 68861.88, 127835.66, 99585.16, 0.00, 0.00, 0.00
199, 81483.10, 132660.97, 26405.08, 80758.62, 16732.25, 68860.29, 127836.28, 99583.81, 0.00, 0.00, 0.00
200, 81489.56, 132667.88, 26413.77, 80766.98, 16734.68, 68866.39, 127843.79, 99589.29, 0.00, 0.00, 0.00
201, 81492.70, 132667.30, 26409.12, 80764.43, 16717.45, 68861.34, 127845.73, 99590.70, 0.00, 0.00, 0.00
202, 81493.16, 132666.34, 26402.86, 80759.40, 16725.47, 68864.47, 127845.73, 99588.17, 0.07, -0.28, 0.95
203, 81496.23, 132667.13, 26398.73, 80751.62, 16724.67, 68868.43, 127848.53, 99591.21, 0.00, 0.00, 0.00
204, 81500.85, 132666.00, 26401.63, 80757.56, 16725.34, 68868.20, 127848.60, 99593.91, 0.00, 0.00, 0.00
205, 81503.42, 132664.06, 26403.27, 80760.60, 16720.47, 68869.14, 127851.68, 99597.20, 0.00, 0.00, 0.00
206, 81501.14, 132664.75, 26400.72, 80754.30, 16708.51, 68863.69, 127848.98, 99597.18, 0.00, 0.00, 0.00
207, 81504.43, 132670.47, 26406.30, 80761.70, 16713.36, 68867.82, 127855.13, 99601.13, 0.00, 0.00, 0.00
208, 81502.75, 132667.83, 26407.22, 80761.45, 16711.26, 68868.12, 127856.58, 99600.35, 0.00, 0.00, 0.00
209, 81498.28, 132663.67, 26406.48, 80759.80, 16735.06, 68873.66, 127855.69, 99598.66, 0.00, 0.00, 0.00
210, 81497.23, 132663.77, 26408.74, 80763.22, 16755.31, 68884.19, 127858.10, 99597.70, 0.00, 0.00, 0.00
211, 81497.90, 132666.00, 26410.11, 80762.91, 16742.33, 68882.20, 127856.73, 99597.85, 0.00, 0.00, 0.00
212, 81498.68, 132666.72, 26406.93, 80759.09, 16734.33, 68878.64, 127855.51, 99599.84, 0.06, -0.29, 0.96
213, 81512.65, 132667.86, 26405.19, 80758.37, 16732.69, 68877.75, 127860.47, 99615.64, 0.00, 0.00, 0.00
214, 81515.83, 132668.73, 26409.52, 80764.09, 16720.87, 68873.05, 127857.36, 99613.74, 0.00, 0.00, 0.00
215, 81502.05, 132667.08, 26408.65, 80759.35, 16725.52, 68871.51, 127850.05, 99594.50, 0.00, 0.00, 0.00
216, 81501.03, 132666.36, 26407.27, 80757.38, 16722.41, 68865.70, 127842.95, 99592.53, 0.00, 0.00, 0.00
217, 81508.61, 132672.38, 26413.64, 80762.91, 16742.02, 68878.46, 127843.95, 99598.81, 0.00, 0.00, 0.00
218, 81504.05, 132675.39, 26418.06, 80767.38, 16740.32, 68881.73, 127846.16, 99596.42, 0.00, 0.00, 0.00
219, 81497.45, 132671.53, 26414.35, 80765.92, 16728.67, 68874.84, 127842.90, 99592.10, 0.00, 0.00, 0.00
220, 81494.68, 132665.72, 26411.11, 80766.08, 16731.24, 68871.40, 127837.47, 99587.26, 0.00, 0.00, 0.00
221, 81494.63, 132666.16, 26411.33, 80765.55, 16729.81, 68871.83, 127839.44, 99585.35, 0.00, 0.00, 0.00
222, 81499.22, 132669.69, 26414.08, 80767.60, 16735.67, 68878.30, 127846.68, 99590.97, 0.07, -0.29, 0.95
223, 81494.08, 132671.17, 26421.57, 80760.41, 16715.66, 68869.19, 127841.54, 99584.17, 0.00, 0.00, 0.00
224, 81490.05, 132669.13, 26428.08, 80764.52, 16718.63, 68868.74, 127840.13, 99580.98, 0.00, 0.00, 0.00
225, 81488.49, 132665.41, 26427.00, 80770.55, 16724.56, 68872.63, 127844.64, 99582.96, 0.00, 0.00, 0.00
226, 81493.23, 132666.67, 26429.73, 80770.84, 16733.07, 68875.73, 127847.34, 99586.90, 0.00, 0.00, 0.00
227, 81500.78, 132674.31, 26439.03, 80775.02, 16739.45, 68882.93, 127851.57, 99592.44, 0.00, 0.00, 0.00
228, 81496.67, 132674.77, 26431.59, 80767.04, 16717.18, 68876.77, 127848.69, 99588.17, 0.00, 0.00, 0.00
229, 81496.29, 132668.73, 26427.67, 80764.13, 16712.31, 68877.41, 127848.27, 99584.51, 0.00, 0.00, 0.00
230, 81492.63, 132665.16, 26428.68, 80761.90, 16715.44, 68871.55, 127845.73, 99580.21, 0.00, 0.00, 0.00
231, 81490.10, 132666.83, 26433.71, 80758.95, 16728.92, 68878.71, 127846.03, 99578.05, 0.00, 0.00, 0.00
232, 81494.19, 132671.14, 26438.22, 80762.93, 16734.79, 68883.58, 127850.84, 99579.66, 0.06, -0.29, 0.96
233, 81500.85, 132673.88, 26440.23, 80769.77, 16730.59, 68886.11, 127856.09, 99586.05, 0.00, 0.00, 0.00
234, 81504.54, 132674.41, 26441.04, 80772.25, 16751.18, 68891.12, 127856.55, 99587.95, 0.00, 0.00, 0.00
235, 81497.27, 132668.59, 26433.46, 80764.61, 16736.56, 68884.30, 127849.16, 99580.10, 0.00, 0.00, 0.00
236, 81503.35, 132672.66, 26438.71, 80770.84, 16733.14, 68888.43, 127854.97, 99585.47, 0.00, 0.00, 0.00
237, 81508.74, 132673.72, 26440.88, 80775.60, 16727.84, 68888.03, 127855.08, 99587.77, 0.00, 0.00, 0.00
238, 81508.61, 132677.22, 26444.55, 80780.38, 16736.65, 68891.63, 127857.02, 99589.60, 0.00, 0.00, 0.00
239, 81502.41, 132677.61, 26446.18, 80779.89, 16737.61, 68895.02, 127853.23, 99585.94, 0.00, 0.00, 0.00
240, 81499.09, 132678.72, 26450.90, 80783.02, 16746.93, 68897.87, 127851.70, 99582.88, 0.00, 0.00, 0.00
241, 81502.46, 132677.47, 26449.24, 80781.86, 16750.04, 68901.84, 127854.88, 99583.79, 0.00, 0.00, 0.00
242, 81505.68, 132674.98, 26446.79, 80780.66, 16747.56, 68898.71, 127856.71, 99582.59, 0.07, -0.28, 0.95
243, 81506.51, 132675.08, 26450.29, 80782.76, 16745.70, 68899.32, 127856.45, 99583.55, 0.00, 0.00, 0.00
244, 81503.71, 132673.56, 26451.90, 80783.63, 16741.88, 68894.40, 127852.87, 99582.74, 0.00, 0.00, 0.00
245, 81507.40, 132675.95, 26457.83, 80791.05, 16744.81, 68902.13, 127859.87, 99587.37, 0.00, 0.00, 0.00
246, 81508.72, 132675.34, 26454.59, 80787.27, 16739.02, 68904.28, 127859.73, 99587.81, 0.00, 0.00, 0.00
247, 81511.63, 132678.00, 26454.79, 80781.88, 16728.11, 68905.64, 127864.34, 99590.12, 0.00, 0.00, 0.00
248, 81508.45, 132677.47, 26453.24, 80784.88, 16708.22, 68893.80, 127860.83, 99585.87, 0.00, 0.00, 0.00
249, 81509.61, 132676.52, 26454.14, 80783.41, 16723.13, 68892.63, 127860.94, 99584.64, 0.00, 0.00, 0.00
250, 81512.95, 132678.00, 26460.87, 80785.15, 16762.00, 68908.88, 127865.59, 99586.61, 0.00, 0.00, 0.00
251, 81511.53, 132678.97, 26462.83, 80791.02, 16754.26, 68905.87, 127866.97, 99582.18, 0.00, 0.00, 0.00
252, 81516.67, 132685.00, 26464.42, 80791.41, 16759.40, 68912.77, 127871.33, 99584.30, 0.07, -0.29, 0.95
253, 81521.10, 132687.19, 26466.16, 80791.85, 16759.09, 68916.39, 127874.17, 99589.55, 0.00, 0.00, 0.00
254, 81516.79, 132683.66, 26462.54, 80789.77, 16748.34, 68911.32, 127869.19, 99586.16, 0.00, 0.00, 0.00
255, 81520.56, 132679.44, 26460.71, 80790.02, 16753.71, 68915.09, 127869.50, 99590.79, 0.00, 0.00, 0.00
0, 81523.73, 132678.14, 26459.68, 80789.93, 16726.79, 68909.51, 127866.84, 99593.16, 0.00, 0.00, 0.00
1, 81523.85, 132681.02, 26462.86, 80787.36, 16747.07, 68907.59, 127864.13, 99592.98, 0.00, 0.00, 0.00
2, 81527.63, 132680.94, 26464.69, 80780.54, 16746.33, 68902.11, 127858.81, 99592.20, 0.00, 0.00, 0.00
3, 81541.17, 132678.14, 26460.29, 80779.63, 16732.25, 68895.85, 127855.20, 99601.29, 0.00, 0.00, 0.00
4, 81534.20, 132678.30, 26463.73, 80783.85, 16743.15, 68905.40, 127860.67, 99604.82, 0.00, 0.00, 0.00
5, 81525.91, 132680.42, 26468.13, 80790.35, 16745.55, 68912.20, 127866.91, 99600.45, 0.00, 0.00, 0.00
6, 81522.93, 132683.81, 26472.53, 80799.19, 16752.77, 68915.09, 127871.51, 99598.27, 0.06, -0.29, 0.96
7, 81517.79, 132684.56, 26471.04, 80800.08, 16746.66, 68914.45, 127871.95, 99596.29, 0.00, 0.00, 0.00
8, 81518.40, 132682.19, 26467.84, 80795.90, 16754.40, 68917.38, 127871.04, 99598.54, 0.00, 0.00, 0.00
9, 81523.73, 132682.47, 26469.18, 80796.75, 16762.38, 68922.27, 127875.16, 99606.57, 0.00, 0.00, 0.00
10, 81524.61, 132688.88, 26481.92, 80800.05, 16740.36, 68917.27, 127877.88, 99610.73, 0.00, 0.00, 0.00
11, 81530.91, 132691.38, 26478.39, 80796.01, 16752.56, 68918.52, 127879.24, 99614.21, 0.00, 0.00, 0.00
12, 81537.64, 132687.08, 26476.65, 80794.87, 16758.87, 68923.95, 127882.57, 99617.12, 0.00, 0.00, 0.00
13, 81536.95, 132684.53, 26481.32, 80798.05, 16758.22, 68926.36, 127881.97, 99612.40, 0.00, 0.00, 0.00
14, 81541.91, 132681.81, 26478.08, 80797.44, 16748.01, 68923.70, 127881.91, 99612.40, 0.00, 0.00, 0.00
15, 81539.92, 132684.89, 26480.13, 80802.18, 16760.14, 68934.01, 127885.03, 99611.04, 0.00, 0.00, 0.00
16, 81537.98, 132693.66, 26488.07, 80812.23, 16765.24, 68934.66, 127885.41, 99610.59, 0.06, -0.29, 0.96
17, 81538.38, 132691.33, 26487.51, 80807.66, 16766.65, 68934.32, 127884.74, 99609.14, 0.00, 0.00, 0.00
18, 81535.77, 132688.75, 26486.26, 80803.05, 16740.38, 68924.53, 127882.10, 99609.16, 0.00, 0.00, 0.00
19, 81533.77, 132686.39, 26483.91, 80800.97, 16764.77, 68934.70, 127886.30, 99611.80, 0.00, 0.00, 0.00
20, 81541.22, 132688.52, 26489.19, 80805.22, 16762.40, 68935.13, 127892.23, 99616.55, 0.00, 0.00, 0.00
21, 81547.45, 132688.44, 26486.12, 80802.65, 16751.89, 68929.29, 127891.40, 99616.63, 0.00, 0.00, 0.00
22, 81550.23, 132690.83, 26491.00, 80798.78, 16744.88, 68925.63, 127888.83, 99614.77, 0.00, 0.00, 0.00
23, 81549.29, 132690.83, 26491.62, 80802.38, 16755.27, 68930.54, 127890.04, 99615.24, 0.00, 0.00, 0.00
24, 81551.27, 132690.13, 26490.68, 80803.84, 16764.19, 68933.76, 127890.87, 99619.35, 0.00, 0.00, 0.00
25, 81553.96, 132688.69, 26488.63, 80798.94, 16744.63, 68927.52, 127885.01, 99620.67, 0.00, 0.00, 0.00
26, 81556.87, 132691.16, 26489.01, 80799.43, 16745.28, 68924.75, 127887.20, 99625.81, 0.06, -0.28, 0.96
27, 81561.38, 132696.61, 26489.45, 80803.86, 16761.15, 68940.87, 127893.26, 99631.96, 0.00, 0.00, 0.00
28, 81563.28, 132694.20, 26490.88, 80803.90, 16764.01, 68939.10, 127892.20, 99631.40, 0.00, 0.00, 0.00
