%OpenBCI Raw EEG Data
%Sample Rate = 250.0 Hz
%First Column = SampleIndex
%Other Columns = EEG data in microvolts followed by Accel Data (in G) interleaved with Aux Data
150, 97665.12, 124780.35, 22354.72, 19403.79, 9524.77, 29393.08, 104635.82, 73291.68, 0.00, 0.00, 0.00
151, 97668.41, 124886.52, 22361.60, 19404.49, 9528.62, 29400.66, 104656.36, 73299.03, 0.00, 0.00, 0.00
152, 97666.99, 124845.10, 22351.05, 19401.63, 9516.84, 29397.48, 104654.64, 73298.70, 0.09, -0.19, 0.98
153, 97666.19, 124831.47, 22358.70, 19402.99, 9500.34, 29390.17, 104653.75, 73294.34, 0.00, 0.00, 0.00
154, 97667.13, 124778.97, 22348.03, 19391.34, 9507.29, 29390.49, 104652.74, 73287.86, 0.00, 0.00, 0.00
155, 97652.27, 124666.78, 22319.02, 19374.25, 9507.16, 29379.04, 104639.95, 73273.44, 0.00, 0.00, 0.00
156, 97671.20, 124751.36, 22340.93, 19396.42, 9523.99, 29396.10, 104648.92, 73296.15, 0.00, 0.00, 0.00
157, 97679.38, 124827.63, 22357.46, 19414.05, 9533.11, 29408.61, 104663.07, 73306.52, 0.00, 0.00, 0.00
158, 97664.23, 124793.20, 22343.79, 19399.99, 9512.72, 29392.48, 104640.98, 73291.88, 0.00, 0.00, 0.00
159, 97668.23, 124841.33, 22351.63, 19398.97, 9517.26, 29390.78, 104647.69, 73294.07, 0.00, 0.00, 0.00
160, 97669.61, 124814.51, 22354.61, 19398.68, 9518.18, 29389.17, 104641.99, 73291.84, 0.00, 0.00, 0.00
161, 97662.08, 124742.24, 22338.60, 19388.08, 9510.60, 29378.04, 104634.13, 73283.16, 0.00, 0.00, 0.00
162, 97666.97, 124754.23, 22338.87, 19391.17, 9516.59, 29382.80, 104658.38, 73292.73, 0.09, -0.19, 0.99
163, 97669.95, 124774.56, 22343.36, 19391.26, 9524.50, 29388.43, 104650.39, 73293.55, 0.00, 0.00, 0.00
164, 97676.20, 124817.57, 22350.54, 19402.99, 9520.70, 29388.92, 104643.38, 73296.30, 0.00, 0.00, 0.00
165, 97674.51, 124843.38, 22349.15, 19401.02, 9521.31, 29388.43, 104629.20, 73295.46, 0.00, 0.00, 0.00
166, 97675.63, 124869.00, 22351.36, 19408.78, 9525.91, 29394.91, 104633.79, 73299.26, 0.00, 0.00, 0.00
167, 97671.17, 124785.83, 22344.59, 19405.47, 9514.11, 29393.10, 104644.45, 73297.38, 0.00, 0.00, 0.00
168, 97665.90, 124804.52, 22352.64, 19397.04, 9518.29, 29390.29, 104647.31, 73293.00, 0.00, 0.00, 0.00
169, 97645.41, 124802.01, 22335.90, 19383.57, 9502.24, 29369.70, 104630.16, 73270.78, 0.00, 0.00, 0.00
170, 97659.95, 124791.71, 22350.09, 19399.88, 9512.23, 29378.42, 104646.80, 73282.78, 0.00, 0.00, 0.00
171, 97668.16, 124778.25, 22356.84, 19404.17, 9528.01, 29397.17, 104660.85, 73288.22, 0.00, 0.00, 0.00
172, 97660.53, 124801.32, 22352.93, 19397.27, 9518.20, 29390.38, 104656.25, 73280.10, 0.08, -0.19, 0.99
173, 97662.62, 124835.07, 22344.57, 19392.57, 9514.62, 29387.33, 104660.59, 73281.27, 0.00, 0.00, 0.00
174, 97661.49, 124784.04, 22337.42, 19384.66, 9496.94, 29381.34, 104636.73, 73279.16, 0.00, 0.00, 0.00
175, 97658.55, 124731.94, 22334.82, 19381.29, 9489.88, 29380.90, 104619.86, 73277.98, 0.00, 0.00, 0.00
176, 97657.85, 124770.07, 22342.00, 19388.86, 9516.30, 29387.27, 104627.71, 73279.81, 0.00, 0.00, 0.00
177, 97666.48, 124839.77, 22353.91, 19403.50, 9530.69, 29391.60, 104645.37, 73284.86, 0.00, 0.00, 0.00
178, 97660.53, 124789.80, 22346.98, 19398.65, 9519.72, 29387.25, 104651.96, 73282.90, 0.00, 0.00, 0.00
179, 97664.34, 124821.62, 22349.08, 19398.01, 9515.65, 29386.75, 104641.50, 73282.94, 0.00, 0.00, 0.00
180, 97660.16, 124797.85, 22346.78, 19397.33, 9515.72, 29383.24, 104632.49, 73278.16, 0.00, 0.00, 0.00
181, 97659.04, 124804.38, 22350.58, 19399.21, 9521.46, 29392.16, 104644.34, 73284.17, 0.00, 0.00, 0.00
182, 97659.64, 124770.32, 22342.67, 19395.37, 9519.67, 29391.65, 104653.14, 73280.73, 0.09, -0.19, 0.99
183, 97664.18, 124786.79, 22338.56, 19389.62, 9512.25, 29383.15, 104667.13, 73278.60, 0.00, 0.00, 0.00
184, 97665.34, 124872.98, 22352.77, 19395.46, 9521.62, 29391.72, 104671.65, 73282.38, 0.00, 0.00, 0.00
185, 97656.87, 124860.75, 22341.39, 19390.21, 9509.75, 29384.85, 104637.48, 73280.80, 0.00, 0.00, 0.00
186, 97662.99, 124760.44, 22341.35, 19396.44, 9490.95, 29384.92, 104639.33, 73286.54, 0.00, 0.00, 0.00
187, 97668.41, 124779.41, 22336.68, 19397.49, 9512.99, 29386.49, 104650.73, 73290.83, 0.00, 0.00, 0.00
188, 97666.84, 124774.43, 22338.24, 19398.97, 9538.96, 29395.05, 104679.20, 73289.89, 0.00, 0.00, 0.00
189, 97662.14, 124755.48, 22340.30, 19392.71, 9533.60, 29394.82, 104711.62, 73281.16, 0.00, 0.00, 0.00
190, 97663.17, 124759.38, 22341.75, 19399.99, 9522.56, 29389.37, 104708.24, 73284.48, 0.00, 0.00, 0.00
191, 97668.41, 124824.45, 22351.92, 19400.38, 9535.08, 29392.63, 104701.80, 73286.30, 0.00, 0.00, 0.00
192, 97664.85, 124781.78, 22341.75, 19388.21, 9524.66, 29383.11, 104695.99, 73279.88, 0.08, -0.19, 0.98
193, 97666.23, 124786.09, 22340.59, 19394.18, 9529.06, 29386.37, 104718.86, 73285.80, 0.00, 0.00, 0.00
194, 97667.80, 124816.72, 22341.53, 19392.35, 9521.24, 29384.92, 104735.15, 73290.49, 0.00, 0.00, 0.00
195, 97675.33, 124793.61, 22341.33, 19390.79, 9517.44, 29385.86, 104746.17, 73298.32, 0.00, 0.00, 0.00
196, 97671.46, 124832.90, 22336.16, 19384.08, 9507.00, 29381.12, 104748.34, 73292.46, 0.00, 0.00, 0.00
197, 97667.06, 124878.14, 22336.61, 19385.60, 9514.56, 29384.74, 104754.42, 73286.34, 0.00, 0.00, 0.00
198, 97680.63, 124809.25, 22346.74, 19397.40, 9525.96, 29400.54, 104760.32, 73297.45, 0.00, 0.00, 0.00
199, 97669.81, 124724.88, 22332.99, 19394.29, 9515.54, 29391.69, 104749.73, 73289.02, 0.00, 0.00, 0.00
200, 97669.27, 124771.48, 22341.93, 19398.03, 9520.08, 29395.52, 104754.42, 73289.42, 0.00, 0.00, 0.00
201, 97666.19, 124811.94, 22345.22, 19397.36, 9518.00, 29391.67, 104737.86, 73283.23, 0.00, 0.00, 0.00
202, 97663.02, 124801.20, 22343.76, 19394.72, 9516.88, 29390.13, 104737.23, 73280.66, 0.08, -0.19, 0.98
203, 97663.91, 124783.21, 22338.96, 19389.09, 9512.19, 29390.15, 104751.47, 73281.00, 0.00, 0.00, 0.00
204, 97663.66, 124755.01, 22332.32, 19383.68, 9505.08, 29386.02, 104758.06, 73279.50, 0.00, 0.00, 0.00
205, 97664.20, 124790.97, 22333.97, 19391.12, 9506.78, 29387.58, 104767.14, 73284.05, 0.00, 0.00, 0.00
206, 97671.84, 124812.98, 22345.40, 19403.17, 9523.99, 29395.70, 104787.52, 73288.93, 0.00, 0.00, 0.00
207, 97673.23, 124840.95, 22348.23, 19404.02, 9529.22, 29397.55, 104750.28, 73291.57, 0.00, 0.00, 0.00
208, 97678.35, 124869.85, 22351.14, 19403.15, 9524.82, 29395.54, 104740.90, 73293.85, 0.00, 0.00, 0.00
209, 97671.91, 124816.77, 22343.41, 19399.44, 9517.57, 29389.84, 104748.56, 73288.40, 0.00, 0.00, 0.00
210, 97659.48, 124827.02, 22342.51, 19398.05, 9520.23, 29387.31, 104750.38, 73275.30, 0.00, 0.00, 0.00
211, 97635.57, 124838.31, 22341.80, 19384.79, 9506.22, 29378.60, 104760.30, 73255.54, 0.00, 0.00, 0.00
212, 97641.71, 124792.42, 22347.90, 19397.67, 9519.27, 29380.65, 104759.63, 73251.65, 0.08, -0.19, 0.98
213, 97635.66, 124751.61, 22347.99, 19405.11, 9523.81, 29383.13, 104744.54, 73251.16, 0.00, 0.00, 0.00
214, 97613.15, 124753.53, 22350.43, 19406.10, 9515.27, 29391.00, 104762.98, 73254.17, 0.00, 0.00, 0.00
215, 97609.02, 124791.95, 22357.55, 19414.10, 9533.35, 29394.33, 104753.68, 73241.73, 0.00, 0.00, 0.00
216, 97606.22, 124805.34, 22353.87, 19409.67, 9557.52, 29395.49, 104746.04, 73227.27, 0.00, 0.00, 0.00
217, 97588.79, 124804.23, 22349.04, 19405.90, 9565.43, 29397.59, 104741.10, 73208.60, 0.00, 0.00, 0.00
218, 97570.93, 124852.50, 22353.17, 19406.61, 9558.23, 29401.91, 104747.22, 73199.28, 0.00, 0.00, 0.00
219, 97552.76, 124833.55, 22346.74, 19401.13, 9543.39, 29398.15, 104752.70, 73183.05, 0.00, 0.00, 0.00
220, 97529.29, 124803.77, 22344.72, 19399.19, 9539.52, 29395.58, 104743.24, 73160.92, 0.00, 0.00, 0.00
221, 97513.86, 124850.76, 22349.24, 19400.15, 9540.37, 29395.87, 104745.41, 73140.65, 0.00, 0.00, 0.00
222, 97488.76, 124814.87, 22343.00, 19397.04, 9532.62, 29390.55, 104741.74, 73120.66, 0.08, -0.19, 0.98
223, 97468.78, 124817.63, 22345.24, 19404.06, 9539.12, 29401.42, 104753.88, 73105.36, 0.00, 0.00, 0.00
224, 97461.05, 124846.67, 22359.14, 19415.42, 9548.35, 29410.07, 104790.38, 73092.70, 0.00, 0.00, 0.00
225, 97432.50, 124752.59, 22342.20, 19401.40, 9537.15, 29394.64, 104734.88, 73063.85, 0.00, 0.00, 0.00
226, 97417.23, 124765.76, 22340.46, 19401.85, 9539.68, 29395.02, 104712.47, 73047.24, 0.00, 0.00, 0.00
227, 97406.58, 124755.34, 22341.10, 19403.86, 9541.54, 29395.34, 104715.77, 73035.98, 0.00, 0.00, 0.00
228, 97404.90, 124829.46, 22345.82, 19402.39, 9536.77, 29398.98, 104740.96, 73033.96, 0.00, 0.00, 0.00
229, 97401.26, 124915.27, 22360.37, 19412.51, 9539.08, 29408.41, 104769.84, 73031.64, 0.00, 0.00, 0.00
230, 97396.85, 124842.09, 22346.38, 19409.45, 9530.85, 29406.71, 104742.88, 73032.60, 0.00, 0.00, 0.00
231, 97400.02, 124839.65, 22342.20, 19402.19, 9518.74, 29400.61, 104726.19, 73034.84, 0.00, 0.00, 0.00
232, 97387.46, 124721.41, 22328.12, 19388.57, 9548.24, 29402.33, 104720.42, 73018.36, 0.09, -0.19, 0.98
233, 97392.72, 124759.59, 22342.54, 19384.71, 9529.24, 29399.67, 104723.26, 73025.41, 0.00, 0.00, 0.00
234, 97394.82, 124802.93, 22348.97, 19388.19, 9520.70, 29395.20, 104723.26, 73029.14, 0.00, 0.00, 0.00
235, 97395.87, 124750.53, 22332.74, 19379.65, 9511.20, 29387.13, 104725.90, 73032.63, 0.00, 0.00, 0.00
236, 97417.30, 124803.60, 22343.54, 19392.53, 9514.11, 29399.94, 104742.15, 73047.20, 0.00, 0.00, 0.00
237, 97421.39, 124834.24, 22340.48, 19394.94, 9551.97, 29410.40, 104732.76, 73039.02, 0.00, 0.00, 0.00
238, 97430.76, 124820.74, 22333.93, 19386.16, 9544.31, 29405.11, 104732.29, 73046.75, 0.00, 0.00, 0.00
239, 97451.68, 124890.79, 22355.54, 19402.68, 9539.81, 29415.68, 104750.11, 73077.22, 0.00, 0.00, 0.00
240, 97455.84, 124775.99, 22344.46, 19397.92, 9529.11, 29404.17, 104714.32, 73083.81, 0.00, 0.00, 0.00
241, 97473.34, 124822.38, 22346.11, 19396.13, 9534.32, 29405.48, 104715.21, 73100.35, 0.00, 0.00, 0.00
242, 97481.19, 124934.78, 22358.58, 19402.83, 9542.63, 29414.40, 104744.65, 73113.13, 0.08, -0.19, 0.98
243, 97479.13, 124770.05, 22331.78, 19385.31, 9525.17, 29400.59, 104748.48, 73106.27, 0.00, 0.00, 0.00
244, 97504.97, 124762.41, 22340.03, 19394.27, 9528.71, 29409.11, 104740.77, 73130.93, 0.00, 0.00, 0.00
245, 97516.37, 124816.27, 22347.92, 19401.69, 9533.20, 29415.03, 104735.98, 73149.08, 0.00, 0.00, 0.00
246, 97511.41, 124795.64, 22340.08, 19389.49, 9527.97, 29406.20, 104722.57, 73144.05, 0.00, 0.00, 0.00
247, 97524.44, 124815.96, 22341.71, 19383.28, 9524.93, 29404.17, 104726.70, 73155.29, 0.00, 0.00, 0.00
248, 97531.37, 124807.94, 22343.85, 19397.56, 9531.36, 29410.98, 104742.26, 73164.59, 0.00, 0.00, 0.00
249, 97545.53, 124812.72, 22344.41, 19401.63, 9530.29, 29412.84, 104749.50, 73174.94, 0.00, 0.00, 0.00
250, 97555.05, 124819.29, 22338.42, 19393.76, 9522.69, 29408.26, 104744.34, 73180.23, 0.00, 0.00, 0.00
251, 97567.66, 124863.84, 22344.57, 19398.63, 9530.98, 29416.64, 104752.09, 73192.44, 0.00, 0.00, 0.00
252, 97562.81, 124812.45, 22333.48, 19390.76, 9530.81, 29412.41, 104733.52, 73188.73, 0.08, -0.19, 0.98
253, 97568.47, 124806.23, 22336.30, 19388.75, 9531.92, 29410.33, 104732.58, 73195.50, 0.00, 0.00, 0.00
254, 97583.94, 124829.21, 22349.13, 19398.03, 9533.06, 29416.12, 104735.20, 73209.41, 0.00, 0.00, 0.00
255, 97582.21, 124810.86, 22344.77, 19391.48, 9523.34, 29407.27, 104715.93, 73205.94, 0.00, 0.00, 0.00
0, 97595.27, 124806.64, 22346.51, 19391.12, 9538.07, 29412.12, 104727.11, 73222.34, 0.00, 0.00, 0.00
1, 97601.02, 124857.16, 22346.45, 19390.38, 9535.88, 29411.81, 104738.59, 73227.35, 0.00, 0.00, 0.00
2, 97605.66, 124936.81, 22356.08, 19397.16, 9544.35, 29419.46, 104728.09, 73233.05, 0.00, 0.00, 0.00
3, 97611.14, 124841.87, 22343.74, 19396.64, 9540.55, 29421.42, 104716.31, 73242.62, 0.00, 0.00, 0.00
4, 97616.34, 124768.98, 22331.67, 19389.98, 9535.12, 29415.97, 104717.72, 73246.17, 0.00, 0.00, 0.00
5, 97618.70, 124759.70, 22334.46, 19388.24, 9525.22, 29410.83, 104728.11, 73250.55, 0.00, 0.00, 0.00
6, 97624.84, 124797.48, 22342.71, 19397.74, 9540.39, 29423.37, 104743.80, 73258.84, 0.09, -0.19, 0.98
7, 97628.26, 124826.04, 22340.99, 19397.40, 9537.78, 29422.58, 104732.41, 73265.57, 0.00, 0.00, 0.00
8, 97637.76, 124853.69, 22344.72, 19397.42, 9515.85, 29420.73, 104726.97, 73278.70, 0.00, 0.00, 0.00
9, 97644.80, 124862.27, 22348.19, 19393.18, 9539.97, 29431.08, 104732.41, 73284.46, 0.00, 0.00, 0.00
10, 97645.00, 124880.00, 22350.65, 19389.71, 9564.74, 29426.54, 104736.00, 73286.52, 0.00, 0.00, 0.00
11, 97644.66, 124823.36, 22342.54, 19384.62, 9548.62, 29415.25, 104735.98, 73283.34, 0.00, 0.00, 0.00
12, 97648.51, 124851.92, 22335.83, 19384.88, 9535.08, 29409.93, 104741.05, 73282.07, 0.00, 0.00, 0.00
13, 97644.24, 124864.80, 22335.34, 19379.19, 9516.57, 29403.58, 104733.66, 73281.06, 0.00, 0.00, 0.00
14, 97651.70, 124790.41, 22336.79, 19384.53, 9516.30, 29408.12, 104737.84, 73295.41, 0.00, 0.00, 0.00
15, 97650.03, 124775.73, 22332.81, 19382.83, 9519.14, 29409.84, 104726.57, 73292.59, 0.00, 0.00, 0.00
16, 97657.65, 124780.77, 22340.28, 19390.74, 9551.37, 29420.66, 104726.16, 73299.62, 0.08, -0.19, 0.98
17, 97663.80, 124838.16, 22344.93, 19393.89, 9551.55, 29423.30, 104732.36, 73308.22, 0.00, 0.00, 0.00
18, 97666.68, 124817.84, 22343.09, 19391.84, 9537.78, 29416.37, 104737.34, 73312.53, 0.00, 0.00, 0.00
19, 97669.48, 124838.69, 22347.07, 19390.67, 9535.41, 29414.34, 104735.73, 73318.66, 0.00, 0.00, 0.00
20, 97669.25, 124868.33, 22353.51, 19392.22, 9538.09, 29414.40, 104743.94, 73320.00, 0.00, 0.00, 0.00
21, 97669.19, 124859.63, 22344.99, 19388.24, 9528.46, 29410.65, 104746.44, 73319.35, 0.00, 0.00, 0.00
22, 97674.52, 124866.23, 22342.11, 19384.93, 9527.23, 29408.72, 104736.23, 73324.20, 0.00, 0.00, 0.00
23, 97684.63, 124843.41, 22344.03, 19387.70, 9531.95, 29411.97, 104741.12, 73333.03, 0.00, 0.00, 0.00
24, 97683.38, 124817.79, 22337.06, 19384.79, 9522.27, 29405.26, 104742.08, 73334.91, 0.00, 0.00, 0.00
25, 97684.70, 124781.88, 22332.37, 19387.37, 9528.55, 29405.75, 104743.04, 73341.46, 0.00, 0.00, 0.00
26, 97699.05, 124854.70, 22347.68, 19397.89, 9546.97, 29423.59, 104763.12, 73354.82, 0.08, -0.19, 0.99
27, 97695.74, 124831.23, 22341.35, 19388.28, 9537.11, 29413.67, 104769.91, 73347.05, 0.00, 0.00, 0.00
28, 97686.87, 124794.84, 22332.77, 19378.43, 9523.83, 29402.76, 104752.09, 73347.13, 0.00, 0.00, 0.00
29, 97690.30, 124826.64, 22338.65, 19388.17, 9519.70, 29396.03, 104751.16, 73351.41, 0.00, 0.00, 0.00
30, 97699.67, 124863.16, 22340.10, 19391.88, 9527.61, 29401.66, 104744.98, 73349.26, 0.00, 0.00, 0.00
31, 97700.21, 124919.73, 22341.98, 19390.09, 9530.09, 29404.03, 104735.53, 73348.25, 0.00, 0.00, 0.00
32, 97701.84, 124914.91, 22352.41, 19386.74, 9526.67, 29400.57, 104736.88, 73353.57, 0.00, 0.00, 0.00
33, 97698.20, 124846.40, 22337.30, 19379.48, 9523.14, 29394.60, 104747.00, 73349.93, 0.00, 0.00, 0.00
34, 97701.82, 124787.17, 22331.58, 19383.57, 9518.92, 29395.58, 104744.61, 73352.23, 0.00, 0.00, 0.00
35, 97698.66, 124802.39, 22324.43, 19376.46, 9511.87, 29390.15, 104727.38, 73351.02, 0.00, 0.00, 0.00
36, 97702.91, 124806.62, 22335.65, 19389.49, 9533.91, 29403.38, 104741.41, 73358.58, 0.08, -0.19, 0.99
37, 97698.94, 124816.59, 22335.65, 19395.01, 9519.36, 29400.21, 104740.70, 73358.67, 0.00, 0.00, 0.00
38, 97702.65, 124851.99, 22338.91, 19395.61, 9545.87, 29407.50, 104735.94, 73359.72, 0.00, 0.00, 0.00
39, 97702.73, 124865.20, 22340.81, 19395.64, 9552.55, 29405.17, 104742.80, 73361.33, 0.00, 0.00, 0.00
40, 97699.90, 124851.68, 22338.76, 19390.38, 9542.32, 29399.70, 104757.37, 73359.85, 0.00, 0.00, 0.00
41, 97696.55, 124859.70, 22343.67, 19387.19, 9531.14, 29399.12, 104768.28, 73354.82, 0.00, 0.00, 0.00
42, 97703.67, 124921.68, 22356.42, 19395.61, 9550.30, 29411.94, 104750.77, 73357.41, 0.00, 0.00, 0.00
43, 97706.65, 124904.13, 22349.71, 19391.68, 9553.76, 29407.47, 104722.91, 73356.21, 0.00, 0.00, 0.00
44, 97711.30, 124896.70, 22354.02, 19403.46, 9548.87, 29410.78, 104737.21, 73363.36, 0.00, 0.00, 0.00
45, 97702.24, 124795.38, 22351.97, 19395.59, 9545.96, 29407.94, 104739.20, 73360.91, 0.00, 0.00, 0.00
46, 97703.59, 124799.17, 22343.45, 19387.30, 9542.27, 29406.51, 104748.63, 73362.02, 0.08, -0.19, 0.98
47, 97704.12, 124823.42, 22339.63, 19386.90, 9538.90, 29411.23, 104766.38, 73363.59, 0.00, 0.00, 0.00
48, 97687.47, 124840.50, 22326.87, 19370.85, 9514.71, 29404.19, 104749.46, 73351.23, 0.00, 0.00, 0.00
49, 97702.66, 124930.35, 22349.69, 19386.56, 9528.06, 29401.84, 104755.76, 73367.20, 0.00, 0.00, 0.00
50, 97710.55, 124880.27, 22346.18, 19392.66, 9547.06, 29409.62, 104746.33, 73374.65, 0.00, 0.00, 0.00
51, 97708.30, 124862.34, 22345.31, 19388.89, 9542.05, 29408.61, 104719.13, 73371.41, 0.00, 0.00, 0.00
52, 97706.80, 124862.92, 22344.97, 19386.94, 9532.75, 29403.70, 104722.57, 73369.94, 0.00, 0.00, 0.00
53, 97705.87, 124817.01, 22343.92, 19390.43, 9533.64, 29407.05, 104737.08, 73372.26, 0.00, 0.00, 0.00
54, 97701.10, 124840.39, 22342.87, 19386.58, 9530.14, 29408.39, 104739.13, 73369.80, 0.00, 0.00, 0.00
55, 97704.75, 124853.47, 22345.73, 19388.97, 9537.51, 29410.60, 104747.67, 73371.14, 0.00, 0.00, 0.00
56, 97707.98, 124857.78, 22348.70, 19391.01, 9540.15, 29412.93, 104749.50, 73371.45, 0.08, -0.19, 0.98
57, 97706.16, 124875.82, 22346.78, 19392.33, 9535.75, 29409.62, 104737.74, 73372.82, 0.00, 0.00, 0.00
58, 97704.81, 124881.49, 22343.96, 19388.04, 9525.06, 29405.64, 104726.46, 73371.63, 0.00, 0.00, 0.00
59, 97702.11, 124871.84, 22337.46, 19382.05, 9511.54, 29401.35, 104735.38, 73370.23, 0.00, 0.00, 0.00
60, 97692.09, 124859.77, 22321.57, 19365.46, 9511.09, 29387.78, 104737.92, 73359.83, 0.00, 0.00, 0.00
61, 97703.79, 124847.81, 22336.16, 19379.95, 9520.93, 29398.96, 104742.48, 73371.14, 0.00, 0.00, 0.00
62, 97704.59, 124812.41, 22338.09, 19379.56, 9517.80, 29408.99, 104722.63, 73370.52, 0.00, 0.00, 0.00
63, 97687.24, 124825.41, 22324.16, 19371.00, 9512.43, 29400.21, 104696.26, 73356.05, 0.00, 0.00, 0.00
64, 97681.21, 124846.16, 22319.24, 19366.45, 9523.12, 29396.97, 104706.25, 73351.41, 0.00, 0.00, 0.00
65, 97677.86, 124800.65, 22315.96, 19364.46, 9531.52, 29393.95, 104702.36, 73345.21, 0.00, 0.00, 0.00
66, 97693.75, 124880.47, 22329.97, 19381.00, 9548.58, 29405.17, 104715.15, 73361.24, 0.08, -0.19, 0.98
67, 97693.03, 124908.88, 22326.84, 19379.16, 9536.68, 29400.54, 104708.06, 73364.01, 0.00, 0.00, 0.00
68, 97689.19, 124813.45, 22320.85, 19369.42, 9518.87, 29391.56, 104714.55, 73360.30, 0.00, 0.00, 0.00
69, 97697.23, 124838.02, 22329.53, 19379.61, 9523.99, 29395.31, 104720.73, 73367.72, 0.00, 0.00, 0.00
70, 97684.67, 124776.09, 22314.48, 19367.56, 9514.76, 29386.40, 104703.70, 73359.95, 0.00, 0.00, 0.00
71, 97674.37, 124774.07, 22304.94, 19361.86, 9511.99, 29383.92, 104685.95, 73353.91, 0.00, 0.00, 0.00
72, 97669.23, 124799.64, 22298.55, 19354.87, 9500.47, 29376.63, 104681.59, 73348.16, 0.00, 0.00, 0.00
73, 97668.27, 124822.53, 22300.76, 19352.14, 9482.57, 29369.83, 104692.02, 73346.15, 0.00, 0.00, 0.00
74, 97669.54, 124867.19, 22308.65, 19354.80, 9476.42, 29369.74, 104703.48, 73348.90, 0.00, 0.00, 0.00
75, 97670.21, 124824.45, 22301.54, 19353.88, 9502.82, 29377.37, 104717.07, 73352.09, 0.00, 0.00, 0.00
76, 97673.99, 124786.77, 22299.40, 19356.56, 9520.77, 29382.33, 104726.88, 73355.36, 0.08, -0.19, 0.99
77, 97675.13, 124797.01, 22299.33, 19358.85, 9518.94, 29383.49, 104718.23, 73353.86, 0.00, 0.00, 0.00
78, 97680.43, 124831.49, 22299.96, 19358.38, 9508.99, 29383.07, 104720.31, 73358.20, 0.00, 0.00, 0.00
79, 97679.00, 124881.70, 22306.91, 19362.29, 9494.93, 29379.13, 104720.24, 73356.55, 0.00, 0.00, 0.00
80, 97667.60, 124825.91, 22305.05, 19357.28, 9501.12, 29372.20, 104715.77, 73348.74, 0.00, 0.00, 0.00
81, 97662.45, 124811.00, 22296.91, 19348.09, 9508.50, 29374.68, 104724.53, 73344.07, 0.00, 0.00, 0.00
82, 97658.73, 124794.30, 22287.71, 19345.93, 9490.46, 29368.60, 104716.31, 73342.17, 0.00, 0.00, 0.00
83, 97658.30, 124894.68, 22295.39, 19354.33, 9496.03, 29365.97, 104716.89, 73341.73, 0.00, 0.00, 0.00
84, 97666.48, 124879.04, 22313.59, 19366.89, 9506.73, 29372.22, 104738.55, 73351.78, 0.00, 0.00, 0.00
85, 97657.45, 124758.72, 22288.73, 19354.02, 9495.09, 29365.18, 104723.41, 73343.73, 0.00, 0.00, 0.00
86, 97660.53, 124780.71, 22292.94, 19354.24, 9494.80, 29371.06, 104715.95, 73347.05, 0.08, -0.19, 0.98
87, 97649.49, 124769.47, 22272.42, 19339.71, 9496.09, 29360.76, 104708.51, 73338.44, 0.00, 0.00, 0.00
88, 97653.23, 124820.85, 22284.87, 19346.19, 9507.05, 29368.78, 104728.18, 73343.02, 0.00, 0.00, 0.00
89, 97659.73, 124845.98, 22295.37, 19351.78, 9505.59, 29371.29, 104731.69, 73346.51, 0.00, 0.00, 0.00
90, 97659.88, 124864.38, 22296.49, 19352.65, 9504.68, 29370.59, 104737.34, 73346.42, 0.00, 0.00, 0.00
91, 97652.06, 124781.60, 22286.46, 19345.46, 9497.88, 29363.44, 104733.23, 73337.63, 0.00, 0.00, 0.00
92, 97645.25, 124753.22, 22280.46, 19343.00, 9484.43, 29355.69, 104725.16, 73330.69, 0.00, 0.00, 0.00
93, 97646.52, 124789.18, 22284.67, 19346.46, 9483.98, 29359.15, 104733.59, 73332.34, 0.00, 0.00, 0.00
94, 97645.67, 124780.30, 22286.05, 19346.39, 9493.52, 29361.38, 104733.07, 73332.61, 0.00, 0.00, 0.00
95, 97644.98, 124790.59, 22280.31, 19343.82, 9497.57, 29363.02, 104721.59, 73331.94, 0.00, 0.00, 0.00
96, 97647.02, 124807.04, 22278.05, 19342.71, 9495.11, 29367.58, 104739.58, 73335.02, 0.08, -0.19, 0.99
97, 97642.90, 124843.90, 22279.62, 19337.21, 9486.17, 29361.36, 104746.57, 73333.30, 0.00, 0.00, 0.00
98, 97647.80, 124884.84, 22288.80, 19347.69, 9492.27, 29371.15, 104731.17, 73342.58, 0.00, 0.00, 0.00
99, 97655.69, 124865.31, 22290.19, 19351.85, 9499.09, 29372.43, 104731.06, 73345.33, 0.00, 0.00, 0.00
100, 97656.06, 124769.80, 22282.81, 19346.19, 9495.60, 29365.74, 104740.85, 73347.54, 0.00, 0.00, 0.00
101, 97664.34, 124820.43, 22288.04, 19353.01, 9491.58, 29369.61, 104775.03, 73358.47, 0.00, 0.00, 0.00
102, 97663.73, 124801.03, 22265.02, 19330.59, 9470.34, 29348.62, 104749.95, 73353.35, 0.00, 0.00, 0.00
103, 97663.20, 124767.61, 22258.80, 19319.13, 9470.19, 29340.93, 104708.87, 73348.95, 0.00, 0.00, 0.00
104, 97638.92, 124786.34, 22260.73, 19325.25, 9471.71, 29344.51, 104717.34, 73337.39, 0.00, 0.00, 0.00
105, 97650.77, 124794.39, 22274.41, 19339.96, 9488.45, 29363.96, 104738.88, 73348.63, 0.00, 0.00, 0.00
106, 97668.73, 124826.06, 22274.43, 19333.28, 9479.37, 29361.65, 104733.97, 73364.46, 0.07, -0.19, 0.98
107, 97684.01, 124856.04, 22278.94, 19335.17, 9482.57, 29365.99, 104741.92, 73387.97, 0.00, 0.00, 0.00
108, 97692.37, 124805.95, 22272.08, 19340.14, 9480.65, 29365.68, 104760.14, 73402.19, 0.00, 0.00, 0.00
109, 97692.85, 124795.66, 22274.32, 19346.37, 9493.43, 29372.16, 104772.63, 73406.50, 0.00, 0.00, 0.00
110, 97697.48, 124830.82, 22281.96, 19348.14, 9478.70, 29369.97, 104760.34, 73406.16, 0.00, 0.00, 0.00
111, 97698.20, 124821.34, 22287.75, 19346.28, 9472.80, 29355.30, 104756.16, 73404.87, 0.00, 0.00, 0.00
112, 97701.80, 124848.59, 22292.31, 19346.84, 9504.30, 29369.19, 104764.95, 73407.17, 0.00, 0.00, 0.00
113, 97698.45, 124815.89, 22283.15, 19341.25, 9510.78, 29375.15, 104759.56, 73405.74, 0.00, 0.00, 0.00
114, 97691.70, 124820.23, 22278.50, 19337.63, 9495.51, 29364.25, 104759.63, 73400.98, 0.00, 0.00, 0.00
115, 97688.92, 124787.23, 22270.23, 19331.42, 9485.61, 29358.46, 104746.33, 73396.60, 0.00, 0.00, 0.00
116, 97690.71, 124797.41, 22270.45, 19331.08, 9485.43, 29359.44, 104746.77, 73398.41, 0.08, -0.19, 0.98
117, 97695.38, 124843.81, 22283.59, 19340.47, 9492.63, 29369.36, 104765.23, 73409.05, 0.00, 0.00, 0.00
118, 97699.56, 124881.70, 22297.52, 19345.79, 9479.78, 29368.94, 104756.21, 73409.74, 0.00, 0.00, 0.00
119, 97684.63, 124821.44, 22278.83, 19334.46, 9482.41, 29355.86, 104734.03, 73394.21, 0.00, 0.00, 0.00
120, 97680.34, 124762.49, 22269.69, 19337.12, 9496.67, 29359.75, 104745.44, 73393.52, 0.00, 0.00, 0.00
121, 97687.36, 124846.16, 22278.45, 19342.97, 9504.88, 29371.96, 104776.59, 73397.72, 0.00, 0.00, 0.00
122, 97692.41, 124844.26, 22287.66, 19349.44, 9503.31, 29378.42, 104753.19, 73400.96, 0.00, 0.00, 0.00
123, 97689.75, 124860.66, 22284.42, 19344.81, 9495.20, 29370.17, 104749.68, 73402.05, 0.00, 0.00, 0.00
124, 97680.72, 124782.48, 22267.95, 19328.60, 9477.77, 29353.47, 104725.95, 73394.61, 0.00, 0.00, 0.00
125, 97685.10, 124795.40, 22273.58, 19332.13, 9481.81, 29358.63, 104730.01, 73401.67, 0.00, 0.00, 0.00
126, 97677.88, 124802.23, 22267.12, 19324.60, 9481.74, 29355.93, 104731.17, 73396.73, 0.09, -0.19, 0.98
127, 97670.39, 124792.13, 22261.60, 19320.80, 9471.01, 29345.92, 104729.97, 73384.33, 0.00, 0.00, 0.00
128, 97694.53, 124859.34, 22279.35, 19336.63, 9480.40, 29360.27, 104760.86, 73404.45, 0.00, 0.00, 0.00
129, 97700.73, 124846.23, 22277.31, 19330.77, 9476.22, 29359.37, 104753.55, 73411.98, 0.00, 0.00, 0.00
130, 97698.78, 124817.75, 22279.23, 19342.51, 9482.97, 29363.51, 104747.70, 73411.77, 0.00, 0.00, 0.00
131, 97685.63, 124790.70, 22266.56, 19330.46, 9466.17, 29350.66, 104723.13, 73399.88, 0.00, 0.00, 0.00
132, 97689.16, 124805.45, 22270.27, 19332.27, 9480.83, 29358.99, 104738.28, 73403.64, 0.00, 0.00, 0.00
133, 97700.90, 124875.23, 22282.12, 19335.96, 9482.26, 29359.75, 104759.29, 73409.90, 0.00, 0.00, 0.00
134, 97687.60, 124864.22, 22275.48, 19325.05, 9458.95, 29346.92, 104754.60, 73395.70, 0.00, 0.00, 0.00
135, 97684.43, 124763.88, 22267.01, 19321.03, 9466.92, 29348.46, 104734.98, 73396.11, 0.00, 0.00, 0.00
136, 97691.63, 124793.20, 22270.81, 19323.51, 9475.04, 29349.20, 104733.81, 73405.18, 0.08, -0.19, 0.99
137, 97682.48, 124846.05, 22266.18, 19318.90, 9451.70, 29339.86, 104722.48, 73394.55, 0.00, 0.00, 0.00
138, 97689.95, 124864.88, 22267.03, 19320.98, 9465.76, 29340.87, 104715.30, 73399.05, 0.00, 0.00, 0.00
139, 97687.40, 124760.75, 22258.00, 19316.94, 9488.27, 29343.66, 104723.64, 73396.58, 0.00, 0.00, 0.00
141, 97686.51, 124883.88, 22272.08, 19325.45, 9490.59, 29356.51, 104745.32, 73402.19, 0.00, 0.00, 0.00
142, 97683.52, 124763.63, 22254.56, 19319.04, 9473.12, 29351.17, 104769.84, 73397.92, 0.00, 0.00, 0.00
143, 97681.97, 124764.57, 22257.06, 19320.78, 9465.63, 29349.61, 104746.09, 73395.39, 0.00, 0.00, 0.00
144, 97682.30, 124818.62, 22265.49, 19325.05, 9475.44, 29351.93, 104715.35, 73399.02, 0.00, 0.00, 0.00
145, 97680.79, 124846.70, 22269.51, 19327.29, 9478.91, 29354.72, 104727.89, 73401.65, 0.00, 0.00, 0.00
146, 97675.42, 124863.95, 22258.25, 19316.02, 9467.33, 29347.79, 104737.01, 73393.02, 0.08, -0.19, 0.99
147, 97697.88, 124899.04, 22277.67, 19333.50, 9477.70, 29364.67, 104745.81, 73407.55, 0.00, 0.00, 0.00
148, 97685.97, 124790.99, 22263.54, 19318.14, 9467.33, 29353.43, 104742.08, 73397.12, 0.00, 0.00, 0.00
149, 97682.71, 124771.52, 22256.59, 19320.71, 9467.48, 29352.38, 104752.59, 73395.39, 0.00, 0.00, 0.00
150, 97691.34, 124766.54, 22260.32, 19331.08, 9475.33, 29357.23, 104760.19, 73401.20, 0.00, 0.00, 0.00
151, 97689.16, 124794.44, 22252.17, 19326.73, 9472.58, 29355.01, 104747.29, 73404.76, 0.00, 0.00, 0.00
152, 97699.23, 124801.54, 22252.23, 19324.94, 9468.49, 29355.89, 104752.41, 73412.60, 0.00, 0.00, 0.00
153, 97703.74, 124827.42, 22264.37, 19320.87, 9459.03, 29352.09, 104750.42, 73415.15, 0.00, 0.00, 0.00
154, 97682.64, 124841.84, 22272.33, 19321.27, 9453.76, 29349.92, 104748.27, 73398.23, 0.00, 0.00, 0.00
155, 97675.04, 124792.45, 22266.49, 19321.85, 9466.30, 29349.74, 104759.52, 73388.27, 0.00, 0.00, 0.00
156, 97690.80, 124865.91, 22270.43, 19325.76, 9461.05, 29355.62, 104773.62, 73403.91, 0.08, -0.20, 0.98
157, 97696.68, 124820.67, 22262.09, 19316.96, 9438.54, 29346.25, 104747.27, 73408.52, 0.00, 0.00, 0.00
158, 97704.63, 124778.63, 22252.14, 19316.18, 9449.54, 29355.08, 104760.90, 73416.27, 0.00, 0.00, 0.00
159, 97704.26, 124806.95, 22253.66, 19322.14, 9441.56, 29348.94, 104772.88, 73412.72, 0.00, 0.00, 0.00
160, 97705.87, 124849.66, 22261.87, 19326.61, 9446.20, 29351.79, 104775.43, 73415.64, 0.00, 0.00, 0.00
161, 97700.30, 124821.32, 22263.37, 19323.84, 9455.66, 29354.34, 104770.98, 73412.94, 0.00, 0.00, 0.00
162, 97702.40, 124816.85, 22264.71, 19318.41, 9448.48, 29345.76, 104765.26, 73412.89, 0.00, 0.00, 0.00
163, 97696.30, 124834.82, 22259.68, 19312.98, 9446.85, 29349.20, 104757.75, 73408.83, 0.00, 0.00, 0.00
164, 97710.29, 124887.84, 22277.83, 19335.33, 9469.43, 29366.71, 104782.49, 73420.47, 0.00, 0.00, 0.00
165, 97710.55, 124854.34, 22273.60, 19329.74, 9464.62, 29356.98, 104792.06, 73413.05, 0.00, 0.00, 0.00
166, 97699.85, 124823.83, 22267.79, 19322.43, 9456.64, 29351.48, 104780.50, 73406.14, 0.09, -0.19, 0.99
167, 97698.00, 124829.91, 22264.17, 19323.08, 9450.41, 29350.43, 104787.73, 73408.47, 0.00, 0.00, 0.00
168, 97700.59, 124761.47, 22253.57, 19315.57, 9438.09, 29345.13, 104778.29, 73408.89, 0.00, 0.00, 0.00
169, 97693.91, 124804.02, 22248.54, 19306.36, 9429.66, 29334.96, 104774.00, 73398.34, 0.00, 0.00, 0.00
170, 97691.20, 124951.92, 22262.25, 19309.20, 9437.38, 29340.98, 104790.56, 73400.58, 0.00, 0.00, 0.00
171, 97696.25, 124824.32, 22267.19, 19323.15, 9453.56, 29351.84, 104783.61, 73409.77, 0.00, 0.00, 0.00
172, 97694.82, 124699.33, 22253.13, 19318.10, 9437.42, 29342.77, 104777.69, 73403.93, 0.00, 0.00, 0.00
173, 97700.61, 124771.81, 22260.91, 19320.13, 9439.03, 29350.41, 104785.33, 73412.76, 0.00, 0.00, 0.00
174, 97709.95, 124898.80, 22274.34, 19323.78, 9449.92, 29357.70, 104806.09, 73422.64, 0.00, 0.00, 0.00
175, 97702.98, 124874.68, 22265.51, 19321.50, 9438.96, 29347.59, 104794.54, 73413.43, 0.00, 0.00, 0.00
176, 97693.70, 124758.90, 22250.11, 19313.27, 9444.68, 29343.46, 104779.12, 73403.44, 0.09, -0.19, 0.98
177, 97703.23, 124764.69, 22251.12, 19319.89, 9437.53, 29346.16, 104785.78, 73407.89, 0.00, 0.00, 0.00
178, 97701.62, 124790.43, 22252.23, 19315.95, 9419.27, 29342.74, 104794.88, 73408.91, 0.00, 0.00, 0.00
179, 97701.98, 124819.96, 22254.18, 19312.38, 9433.49, 29342.56, 104800.30, 73408.40, 0.00, 0.00, 0.00
180, 97706.98, 124899.24, 22266.54, 19311.37, 9456.75, 29343.10, 104802.70, 73411.62, 0.00, 0.00, 0.00
181, 97694.63, 124868.89, 22250.58, 19301.49, 9445.44, 29333.06, 104805.00, 73404.22, 0.00, 0.00, 0.00
182, 97690.51, 124822.06, 22247.32, 19293.80, 9423.32, 29323.59, 104783.45, 73396.73, 0.00, 0.00, 0.00
183, 97700.34, 124800.36, 22250.69, 19301.18, 9413.73, 29326.45, 104786.12, 73405.70, 0.00, 0.00, 0.00
184, 97702.53, 124791.53, 22247.88, 19305.49, 9444.68, 29343.62, 104811.51, 73411.24, 0.00, 0.00, 0.00
185, 97694.91, 124760.48, 22244.30, 19304.29, 9446.18, 29339.21, 104769.17, 73404.38, 0.00, 0.00, 0.00
186, 97688.95, 124800.63, 22242.24, 19303.95, 9439.48, 29336.17, 104768.01, 73403.26, 0.08, -0.20, 0.98
187, 97688.43, 124856.73, 22246.94, 19305.87, 9436.59, 29339.93, 104787.30, 73406.13, 0.00, 0.00, 0.00
188, 97691.41, 124848.86, 22244.59, 19302.50, 9416.19, 29328.24, 104791.81, 73401.31, 0.00, 0.00, 0.00
189, 97696.59, 124768.75, 22237.37, 19296.33, 9419.47, 29328.42, 104788.98, 73399.44, 0.00, 0.00, 0.00
190, 97699.98, 124760.37, 22239.78, 19296.10, 9430.45, 29333.33, 104788.46, 73403.82, 0.00, 0.00, 0.00
191, 97693.68, 124785.96, 22240.30, 19297.45, 9429.55, 29335.26, 104786.49, 73403.06, 0.00, 0.00, 0.00
192, 97697.08, 124821.93, 22245.71, 19308.26, 9448.39, 29346.59, 104796.59, 73406.86, 0.00, 0.00, 0.00
193, 97699.23, 124852.98, 22247.09, 19308.62, 9441.98, 29346.97, 104802.79, 73404.78, 0.00, 0.00, 0.00
194, 97690.98, 124821.66, 22250.24, 19309.96, 9435.54, 29343.03, 104802.95, 73394.09, 0.00, 0.00, 0.00
195, 97687.89, 124817.19, 22253.46, 19313.00, 9437.31, 29343.37, 104819.24, 73392.15, 0.00, 0.00, 0.00
196, 97686.15, 124848.62, 22253.60, 19316.24, 9442.90, 29346.86, 104815.02, 73396.60, 0.08, -0.19, 0.99
197, 97683.40, 124895.69, 22256.55, 19314.41, 9446.88, 29349.65, 104822.39, 73398.01, 0.00, 0.00, 0.00
198, 97680.59, 124793.90, 22244.92, 19305.96, 9433.06, 29341.94, 104816.36, 73394.27, 0.00, 0.00, 0.00
199, 97681.01, 124791.71, 22245.82, 19305.69, 9430.56, 29339.14, 104778.63, 73394.27, 0.00, 0.00, 0.00
200, 97672.78, 124843.90, 22241.46, 19295.72, 9420.90, 29328.42, 104755.94, 73384.77, 0.00, 0.00, 0.00
201, 97678.46, 124845.09, 22244.75, 19300.19, 9423.43, 29332.13, 104770.31, 73387.84, 0.00, 0.00, 0.00
202, 97690.22, 124831.20, 22254.45, 19308.62, 9432.91, 29340.22, 104797.52, 73397.83, 0.00, 0.00, 0.00
203, 97686.13, 124794.95, 22249.98, 19300.35, 9416.75, 29334.25, 104798.20, 73393.80, 0.00, 0.00, 0.00
204, 97681.50, 124751.23, 22247.23, 19296.91, 9411.56, 29324.35, 104779.14, 73390.63, 0.00, 0.00, 0.00
205, 97674.37, 124781.11, 22241.08, 19294.05, 9409.61, 29321.13, 104775.88, 73387.21, 0.00, 0.00, 0.00
206, 97676.07, 124829.30, 22244.25, 19294.99, 9427.50, 29333.00, 104784.88, 73383.81, 0.08, -0.19, 0.99
207, 97680.79, 124854.36, 22240.52, 19290.52, 9432.68, 29332.62, 104806.45, 73387.52, 0.00, 0.00, 0.00
208, 97701.77, 124825.73, 22241.24, 19289.80, 9427.83, 29331.95, 104813.27, 73413.38, 0.00, 0.00, 0.00
209, 97681.81, 124801.61, 22240.54, 19297.02, 9426.24, 29334.61, 104783.72, 73383.48, 0.00, 0.00, 0.00
210, 97655.23, 124814.88, 22245.48, 19303.05, 9422.60, 29332.15, 104774.31, 73357.28, 0.00, 0.00, 0.00
211, 97637.53, 124804.70, 22235.78, 19297.29, 9434.38, 29328.75, 104769.73, 73346.20, 0.00, 0.00, 0.00
212, 97634.61, 124849.93, 22239.00, 19299.70, 9435.72, 29335.01, 104782.00, 73342.91, 0.00, 0.00, 0.00
213, 97624.05, 124831.72, 22238.20, 19292.17, 9422.91, 29328.95, 104783.81, 73326.52, 0.00, 0.00, 0.00
214, 97612.03, 124801.23, 22236.50, 19285.96, 9414.80, 29326.05, 104789.34, 73310.05, 0.00, 0.00, 0.00
215, 97603.05, 124797.61, 22239.38, 19288.19, 9421.84, 29327.46, 104788.41, 73297.63, 0.00, 0.00, 0.00
216, 97597.80, 124787.08, 22233.30, 19282.07, 9425.93, 29325.31, 104774.83, 73290.05, 0.08, -0.19, 1.00
217, 97606.87, 124840.39, 22238.62, 19285.71, 9423.03, 29331.59, 104774.23, 73304.96, 0.00, 0.00, 0.00
218, 97597.08, 124821.44, 22230.64, 19287.16, 9417.19, 29329.27, 104789.78, 73296.04, 0.00, 0.00, 0.00
219, 97593.99, 124728.07, 22220.29, 19276.61, 9403.65, 29316.86, 104747.96, 73288.53, 0.00, 0.00, 0.00
220, 97588.48, 124782.70, 22215.06, 19264.59, 9388.11, 29304.28, 104732.13, 73283.08, 0.00, 0.00, 0.00
221, 97611.77, 124906.22, 22244.70, 19294.25, 9413.84, 29335.63, 104776.50, 73309.16, 0.00, 0.00, 0.00
222, 97612.92, 124825.59, 22235.83, 19288.79, 9435.54, 29340.53, 104794.23, 73304.73, 0.00, 0.00, 0.00
223, 97610.76, 124763.92, 22229.01, 19277.28, 9425.91, 29330.29, 104780.26, 73301.47, 0.00, 0.00, 0.00
224, 97606.31, 124771.70, 22223.29, 19271.72, 9415.40, 29322.85, 104761.15, 73302.19, 0.00, 0.00, 0.00
225, 97606.53, 124791.10, 22228.74, 19274.20, 9417.97, 29325.13, 104771.52, 73307.35, 0.08, -0.19, 0.99
226, 97619.14, 124864.53, 22238.73, 19278.22, 9421.75, 29328.44, 104780.02, 73313.95, 0.00, 0.00, 0.00
227, 97621.09, 124805.41, 22233.39, 19282.76, 9414.24, 29322.29, 104785.13, 73314.13, 0.00, 0.00, 0.00
228, 97617.15, 124770.05, 22226.87, 19276.12, 9413.03, 29322.16, 104786.72, 73309.47, 0.00, 0.00, 0.00
229, 97619.09, 124850.41, 22236.05, 19278.07, 9415.96, 29323.05, 104758.15, 73307.20, 0.00, 0.00, 0.00
230, 97617.80, 124781.63, 22223.06, 19282.60, 9412.81, 29321.53, 104743.80, 73306.68, 0.00, 0.00, 0.00
231, 97619.25, 124764.15, 22222.75, 19284.77, 9411.27, 29324.91, 104769.20, 73310.79, 0.00, 0.00, 0.00
232, 97620.95, 124808.63, 22229.57, 19281.78, 9416.07, 29330.09, 104758.84, 73312.96, 0.00, 0.00, 0.00
233, 97620.41, 124848.30, 22232.59, 19273.69, 9407.29, 29327.86, 104757.05, 73314.03, 0.00, 0.00, 0.00
234, 97620.99, 124794.86, 22235.00, 19271.25, 9415.87, 29330.43, 104770.98, 73314.93, 0.00, 0.00, 0.00
235, 97627.68, 124811.71, 22234.35, 19269.62, 9415.58, 29334.00, 104784.95, 73322.80, 0.08, -0.19, 0.98
236, 97618.70, 124802.84, 22220.14, 19258.35, 9402.71, 29319.97, 104767.30, 73313.34, 0.00, 0.00, 0.00
237, 97628.37, 124846.07, 22232.77, 19269.37, 9409.06, 29325.80, 104774.11, 73324.52, 0.00, 0.00, 0.00
238, 97622.38, 124849.98, 22219.94, 19252.81, 9378.10, 29309.08, 104765.04, 73314.39, 0.00, 0.00, 0.00
239, 97627.19, 124792.58, 22216.16, 19252.52, 9390.17, 29313.24, 104780.28, 73317.79, 0.00, 0.00, 0.00
240, 97629.65, 124759.01, 22219.73, 19267.02, 9415.47, 29322.98, 104780.57, 73321.03, 0.00, 0.00, 0.00
241, 97624.99, 124795.89, 22223.96, 19270.67, 9412.16, 29318.42, 104765.66, 73315.89, 0.00, 0.00, 0.00
242, 97628.70, 124886.19, 22234.96, 19278.69, 9426.29, 29328.53, 104772.08, 73325.25, 0.00, 0.00, 0.00
243, 97626.18, 124894.41, 22227.51, 19272.41, 9419.83, 29327.34, 104755.42, 73320.91, 0.00, 0.00, 0.00
244, 97621.48, 124784.22, 22215.82, 19269.51, 9413.01, 29321.42, 104764.88, 73314.41, 0.00, 0.00, 0.00
245, 97624.46, 124720.92, 22213.05, 19275.43, 9417.68, 29322.38, 104771.66, 73321.27, 0.08, -0.19, 0.98
246, 97624.88, 124772.75, 22218.37, 19277.26, 9417.19, 29319.95, 104754.55, 73323.80, 0.00, 0.00, 0.00
247, 97623.21, 124831.27, 22221.10, 19274.54, 9401.90, 29315.00, 104749.63, 73320.73, 0.00, 0.00, 0.00
248, 97619.30, 124822.89, 22216.36, 19268.07, 9400.76, 29312.57, 104749.70, 73318.66, 0.00, 0.00, 0.00
249, 97622.76, 124806.30, 22227.33, 19275.81, 9399.00, 29314.27, 104765.95, 73322.08, 0.00, 0.00, 0.00
250, 97617.06, 124786.12, 22227.87, 19279.03, 9402.13, 29314.36, 104773.04, 73314.97, 0.00, 0.00, 0.00
251, 97624.59, 124833.33, 22233.64, 19289.76, 9430.63, 29332.82, 104779.38, 73319.58, 0.00, 0.00, 0.00
252, 97625.04, 124825.57, 22229.10, 19291.43, 9418.09, 29326.02, 104752.25, 73315.41, 0.00, 0.00, 0.00
253, 97622.23, 124795.82, 22224.63, 19289.46, 9416.54, 29323.14, 104742.88, 73318.32, 0.00, 0.00, 0.00
254, 97626.85, 124828.66, 22227.78, 19290.81, 9417.82, 29327.72, 104769.35, 73323.58, 0.00, 0.00, 0.00
255, 97628.23, 124850.65, 22230.37, 19293.94, 9424.39, 29331.25, 104760.08, 73320.27, 0.08, -0.19, 0.98
0, 97624.05, 124823.78, 22228.56, 19293.64, 9423.74, 29329.11, 104742.23, 73317.14, 0.00, 0.00, 0.00
1, 97620.19, 124824.25, 22227.91, 19298.54, 9417.66, 29330.76, 104756.54, 73318.23, 0.00, 0.00, 0.00
2, 97622.02, 124788.20, 22224.81, 19300.69, 9415.34, 29334.07, 104756.03, 73318.66, 0.00, 0.00, 0.00
3, 97621.30, 124803.69, 22225.37, 19299.52, 9414.84, 29329.60, 104758.06, 73317.32, 0.00, 0.00, 0.00
4, 97614.76, 124805.43, 22231.20, 19295.97, 9408.39, 29327.92, 104752.43, 73311.55, 0.00, 0.00, 0.00
5, 97614.58, 124830.06, 22237.44, 19301.27, 9417.06, 29329.85, 104752.12, 73311.80, 0.00, 0.00, 0.00
6, 97609.46, 124880.29, 22227.02, 19297.24, 9418.40, 29322.49, 104761.30, 73307.39, 0.00, 0.00, 0.00
7, 97618.40, 124885.61, 22243.63, 19311.30, 9426.80, 29343.84, 104783.39, 73315.95, 0.00, 0.00, 0.00
8, 97607.65, 124760.57, 22229.66, 19303.77, 9431.97, 29340.78, 104751.52, 73302.66, 0.00, 0.00, 0.00
9, 97607.90, 124739.56, 22219.53, 19299.97, 9433.49, 29338.88, 104739.24, 73302.01, 0.08, -0.19, 0.98
10, 97614.27, 124807.38, 22236.07, 19304.35, 9430.47, 29345.56, 104749.39, 73313.36, 0.00, 0.00, 0.00
11, 97608.01, 124808.07, 22228.36, 19302.38, 9433.35, 29345.72, 104745.88, 73311.35, 0.00, 0.00, 0.00
12, 97600.05, 124825.99, 22226.69, 19307.66, 9425.84, 29342.59, 104745.66, 73304.71, 0.00, 0.00, 0.00
13, 97595.13, 124875.03, 22233.73, 19319.13, 9425.86, 29341.54, 104754.71, 73304.91, 0.00, 0.00, 0.00
14, 97595.49, 124899.11, 22241.35, 19324.22, 9429.40, 29343.77, 104765.22, 73309.67, 0.00, 0.00, 0.00
15, 97569.97, 124842.85, 22232.88, 19299.08, 9409.21, 29326.56, 104741.19, 73288.87, 0.00, 0.00, 0.00
16, 97570.37, 124798.86, 22233.93, 19301.78, 9400.14, 29327.97, 104745.03, 73280.17, 0.00, 0.00, 0.00
17, 97590.98, 124759.48, 22229.77, 19301.02, 9404.36, 29335.35, 104742.46, 73289.67, 0.00, 0.00, 0.00
18, 97596.72, 124730.84, 22215.42, 19293.67, 9412.41, 29330.16, 104720.49, 73300.13, 0.00, 0.00, 0.00
19, 97589.68, 124775.55, 22223.47, 19303.37, 9417.64, 29337.58, 104723.93, 73291.79, 0.08, -0.19, 0.98
20, 97539.74, 124811.82, 22225.21, 19306.38, 9412.41, 29335.46, 104722.97, 73242.87, 0.00, 0.00, 0.00
21, 97487.95, 124828.30, 22221.25, 19301.54, 9406.28, 29325.35, 104720.35, 73207.17, 0.00, 0.00, 0.00
22, 97472.24, 124881.43, 22229.52, 19308.98, 9413.03, 29329.58, 104721.09, 73206.88, 0.00, 0.00, 0.00
23, 97465.02, 124851.61, 22231.98, 19314.57, 9418.60, 29333.96, 104729.12, 73199.70, 0.00, 0.00, 0.00
24, 97463.95, 124809.14, 22225.10, 19311.71, 9407.25, 29328.24, 104717.77, 73185.87, 0.00, 0.00, 0.00
25, 97453.09, 124742.35, 22213.19, 19307.15, 9417.06, 29335.23, 104708.45, 73157.03, 0.00, 0.00, 0.00
26, 97428.50, 124778.14, 22218.44, 19311.13, 9407.74, 29335.68, 104723.98, 73142.93, 0.00, 0.00, 0.00
27, 97378.79, 124788.29, 22218.37, 19307.44, 9388.29, 29325.11, 104697.53, 73107.55, 0.00, 0.00, 0.00
28, 97355.39, 124798.26, 22215.35, 19305.00, 9413.64, 29329.94, 104700.64, 73101.29, 0.00, 0.00, 0.00
29, 97339.74, 124865.22, 22225.43, 19311.73, 9423.63, 29334.41, 104694.88, 73085.42, 0.08, -0.19, 0.98
30, 97318.77, 124828.03, 22222.04, 19309.27, 9424.21, 29331.84, 104687.32, 73058.40, 0.00, 0.00, 0.00
31, 97300.29, 124798.68, 22217.32, 19304.66, 9416.41, 29329.71, 104694.98, 73049.48, 0.00, 0.00, 0.00
32, 97281.70, 124761.02, 22212.47, 19298.05, 9402.89, 29319.54, 104690.25, 73034.79, 0.00, 0.00, 0.00
33, 97272.28, 124748.50, 22208.49, 19299.21, 9398.62, 29315.18, 104674.02, 73003.79, 0.00, 0.00, 0.00
34, 97273.42, 124799.69, 22211.44, 19297.96, 9401.90, 29318.87, 104676.34, 72993.59, 0.00, 0.00, 0.00
35, 97266.09, 124801.36, 22207.11, 19291.25, 9402.91, 29319.32, 104674.47, 72991.07, 0.00, 0.00, 0.00
36, 97252.99, 124789.92, 22205.54, 19302.09, 9392.63, 29314.94, 104683.16, 72980.86, 0.00, 0.00, 0.00
37, 97238.13, 124773.11, 22205.74, 19302.05, 9368.55, 29309.51, 104672.70, 72971.18, 0.00, 0.00, 0.00
38, 97236.03, 124786.74, 22203.31, 19293.58, 9385.21, 29308.01, 104651.73, 72969.03, 0.00, 0.00, 0.00
39, 97240.39, 124788.40, 22204.76, 19291.72, 9398.48, 29309.37, 104650.66, 72967.11, 0.08, -0.19, 0.98
40, 97236.97, 124876.98, 22213.54, 19300.53, 9398.86, 29312.61, 104666.29, 72959.42, 0.00, 0.00, 0.00
41, 97230.48, 124779.97, 22197.72, 19288.28, 9388.09, 29305.62, 104648.83, 72948.94, 0.00, 0.00, 0.00
42, 97247.25, 124720.12, 22189.89, 19284.37, 9374.14, 29305.59, 104647.35, 72966.04, 0.00, 0.00, 0.00
43, 97254.29, 124763.63, 22195.15, 19286.07, 9389.61, 29302.94, 104640.09, 72973.62, 0.00, 0.00, 0.00
44, 97266.83, 124823.23, 22200.40, 19289.73, 9395.98, 29311.27, 104645.57, 72983.83, 0.00, 0.00, 0.00
45, 97283.55, 124779.99, 22205.00, 19294.45, 9398.37, 29315.07, 104651.65, 72994.96, 0.00, 0.00, 0.00
46, 97289.16, 124761.15, 22197.58, 19289.69, 9380.56, 29307.32, 104654.57, 73003.63, 0.00, 0.00, 0.00
47, 97300.34, 124785.60, 22197.54, 19285.73, 9386.59, 29305.95, 104654.64, 73012.30, 0.00, 0.00, 0.00
48, 97314.15, 124807.80, 22205.50, 19288.39, 9388.81, 29306.56, 104634.13, 73022.72, 0.00, 0.00, 0.00
49, 97325.80, 124783.26, 22207.44, 19287.12, 9387.13, 29302.71, 104628.69, 73035.75, 0.08, -0.19, 0.98
50, 97345.17, 124814.75, 22211.06, 19292.39, 9403.07, 29311.72, 104642.80, 73050.62, 0.00, 0.00, 0.00
51, 97359.97, 124815.18, 22209.50, 19293.27, 9390.62, 29307.40, 104636.18, 73059.40, 0.00, 0.00, 0.00
52, 97378.23, 124839.74, 22210.46, 19295.23, 9372.35, 29306.73, 104635.30, 73082.80, 0.00, 0.00, 0.00
53, 97385.97, 124794.70, 22206.88, 19291.16, 9379.26, 29305.64, 104640.29, 73093.58, 0.00, 0.00, 0.00
54, 97395.29, 124773.96, 22208.83, 19283.83, 9393.48, 29304.81, 104624.47, 73100.28, 0.00, 0.00, 0.00
55, 97409.52, 124782.88, 22212.07, 19288.97, 9404.34, 29314.29, 104632.83, 73115.15, 0.00, 0.00, 0.00
56, 97421.04, 124823.42, 22216.36, 19299.57, 9398.06, 29317.93, 104645.37, 73129.90, 0.00, 0.00, 0.00
57, 97431.95, 124796.70, 22214.04, 19294.40, 9388.72, 29312.21, 104643.02, 73142.20, 0.00, 0.00, 0.00
58, 97447.03, 124796.96, 22207.55, 19292.59, 9393.48, 29317.73, 104658.84, 73158.40, 0.00, 0.00, 0.00
59, 97458.03, 124833.66, 22212.49, 19300.55, 9391.71, 29319.14, 104676.84, 73168.95, 0.08, -0.19, 0.98
60, 97464.06, 124848.88, 22215.80, 19302.38, 9396.90, 29319.38, 104662.89, 73174.55, 0.00, 0.00, 0.00
61, 97467.37, 124832.05, 22216.13, 19295.54, 9387.31, 29308.63, 104626.19, 73177.27, 0.00, 0.00, 0.00
62, 97472.52, 124756.46, 22213.48, 19297.29, 9395.80, 29306.60, 104625.18, 73184.84, 0.00, 0.00, 0.00
63, 97487.87, 124777.34, 22218.48, 19302.47, 9401.23, 29316.50, 104636.96, 73200.95, 0.00, 0.00, 0.00
64, 97495.04, 124797.59, 22216.45, 19302.94, 9395.20, 29310.80, 104645.81, 73201.80, 0.00, 0.00, 0.00
65, 97504.84, 124820.92, 22221.16, 19302.41, 9386.73, 29312.66, 104647.65, 73208.69, 0.00, 0.00, 0.00
66, 97508.84, 124875.70, 22229.61, 19312.20, 9396.07, 29327.21, 104649.91, 73217.45, 0.00, 0.00, 0.00
68, 97515.18, 124787.26, 22216.05, 19302.54, 9393.23, 29316.17, 104653.99, 73232.90, 0.00, 0.00, 0.00
69, 97519.16, 124819.96, 22223.40, 19306.65, 9412.83, 29320.64, 104638.41, 73239.35, 0.08, -0.19, 0.99
70, 97527.56, 124874.92, 22228.52, 19311.44, 9423.52, 29323.12, 104642.91, 73245.21, 0.00, 0.00, 0.00
71, 97542.20, 124955.99, 22235.80, 19316.44, 9416.21, 29325.33, 104662.38, 73257.77, 0.00, 0.00, 0.00
72, 97530.00, 124810.82, 22209.61, 19291.92, 9380.45, 29299.34, 104637.81, 73240.14, 0.00, 0.00, 0.00
73, 97546.38, 124734.48, 22206.88, 19294.29, 9392.63, 29311.58, 104644.00, 73252.63, 0.00, 0.00, 0.00
74, 97557.18, 124720.74, 22208.40, 19306.70, 9398.33, 29311.88, 104623.55, 73263.16, 0.00, 0.00, 0.00
75, 97549.67, 124779.15, 22202.52, 19300.04, 9376.31, 29299.60, 104621.00, 73258.91, 0.00, 0.00, 0.00
76, 97559.02, 124835.27, 22213.81, 19308.17, 9401.68, 29322.96, 104639.09, 73269.26, 0.00, 0.00, 0.00
77, 97563.35, 124814.84, 22211.22, 19304.11, 9394.10, 29314.04, 104631.93, 73272.68, 0.00, 0.00, 0.00
78, 97566.32, 124803.93, 22207.91, 19299.52, 9405.90, 29318.25, 104635.02, 73274.34, 0.00, 0.00, 0.00
79, 97566.16, 124782.95, 22204.83, 19297.22, 9402.17, 29318.45, 104638.23, 73275.12, 0.08, -0.19, 0.98
80, 97564.94, 124800.47, 22205.59, 19301.20, 9400.47, 29321.87, 104636.83, 73277.48, 0.00, 0.00, 0.00
81, 97574.15, 124825.73, 22212.40, 19302.74, 9406.87, 29326.56, 104640.80, 73283.86, 0.00, 0.00, 0.00
82, 97572.63, 124855.56, 22208.78, 19291.75, 9395.18, 29319.18, 104638.41, 73281.96, 0.00, 0.00, 0.00
83, 97577.45, 124918.95, 22223.29, 19302.72, 9397.88, 29322.65, 104656.09, 73286.14, 0.00, 0.00, 0.00
84, 97571.35, 124817.91, 22213.59, 19300.60, 9402.55, 29320.44, 104646.80, 73281.71, 0.00, 0.00, 0.00
85, 97581.03, 124813.88, 22205.96, 19303.21, 9410.44, 29328.01, 104640.00, 73290.88, 0.00, 0.00, 0.00
86, 97589.70, 124817.45, 22209.56, 19298.79, 9400.12, 29327.92, 104644.52, 73294.81, 0.00, 0.00, 0.00
87, 97595.34, 124804.56, 22202.97, 19288.17, 9383.17, 29320.26, 104647.02, 73296.27, 0.00, 0.00, 0.00
88, 97601.19, 124800.31, 22203.91, 19292.97, 9384.42, 29323.77, 104657.70, 73306.41, 0.00, 0.00, 0.00
89, 97599.36, 124804.83, 22206.57, 19296.93, 9383.53, 29323.77, 104650.28, 73305.54, 0.09, -0.19, 0.98
90, 97606.94, 124812.65, 22201.45, 19293.44, 9388.67, 29327.86, 104639.27, 73304.17, 0.00, 0.00, 0.00
91, 97603.67, 124784.53, 22197.76, 19289.22, 9390.39, 29325.29, 104639.13, 73303.68, 0.00, 0.00, 0.00
92, 97600.14, 124797.72, 22203.57, 19285.62, 9406.91, 29325.00, 104637.25, 73304.87, 0.00, 0.00, 0.00
93, 97595.07, 124810.75, 22205.41, 19278.58, 9397.43, 29319.38, 104639.38, 73302.61, 0.00, 0.00, 0.00
94, 97596.97, 124819.80, 22206.14, 19282.02, 9396.38, 29325.60, 104641.38, 73304.09, 0.00, 0.00, 0.00
95, 97602.95, 124839.09, 22215.55, 19295.93, 9401.43, 29331.61, 104646.93, 73310.73, 0.00, 0.00, 0.00
96, 97608.30, 124863.59, 22217.46, 19290.81, 9394.42, 29328.88, 104647.60, 73316.52, 0.00, 0.00, 0.00
97, 97614.65, 124874.59, 22216.87, 19288.91, 9393.01, 29324.88, 104644.27, 73320.07, 0.00, 0.00, 0.00
98, 97615.74, 124820.74, 22211.73, 19288.95, 9392.07, 29325.85, 104644.56, 73319.84, 0.00, 0.00, 0.00
99, 97615.85, 124861.42, 22221.05, 19300.08, 9417.55, 29338.50, 104673.82, 73320.13, 0.08, -0.19, 0.98
100, 97609.04, 124873.29, 22223.65, 19299.57, 9416.52, 29339.19, 104673.20, 73316.63, 0.00, 0.00, 0.00
101, 97605.44, 124797.97, 22214.88, 19289.31, 9405.64, 29332.77, 104628.27, 73310.95, 0.00, 0.00, 0.00
102, 97604.63, 124781.96, 22212.74, 19283.68, 9395.11, 29326.85, 104615.80, 73305.47, 0.00, 0.00, 0.00
103, 97606.69, 124839.48, 22222.21, 19293.71, 9395.31, 29329.47, 104618.01, 73308.34, 0.00, 0.00, 0.00
104, 97603.07, 124849.84, 22215.69, 19294.81, 9394.10, 29322.83, 104618.66, 73304.20, 0.00, 0.00, 0.00
105, 97599.52, 124814.44, 22208.71, 19284.03, 9393.54, 29315.45, 104620.27, 73300.60, 0.00, 0.00, 0.00
106, 97605.17, 124819.22, 22217.25, 19288.28, 9387.35, 29320.71, 104636.52, 73306.21, 0.00, 0.00, 0.00
107, 97613.93, 124813.19, 22215.13, 19282.65, 9375.95, 29311.72, 104628.63, 73310.10, 0.00, 0.00, 0.00
108, 97613.35, 124816.23, 22211.11, 19280.68, 9386.01, 29314.18, 104628.20, 73312.00, 0.00, 0.00, 0.00
109, 97614.00, 124792.34, 22207.08, 19280.37, 9388.87, 29314.96, 104629.74, 73310.39, 0.09, -0.19, 0.98
110, 97609.93, 124811.80, 22207.75, 19280.95, 9413.01, 29322.22, 104640.31, 73308.02, 0.00, 0.00, 0.00
111, 97607.25, 124777.63, 22195.75, 19274.18, 9399.87, 29322.94, 104657.99, 73304.87, 0.00, 0.00, 0.00
112, 97620.21, 124817.37, 22204.87, 19276.88, 9395.06, 29325.73, 104638.52, 73312.69, 0.00, 0.00, 0.00
113, 97625.35, 124904.20, 22218.17, 19274.56, 9389.86, 29323.54, 104607.21, 73319.66, 0.00, 0.00, 0.00
114, 97616.68, 124910.88, 22217.23, 19275.70, 9379.64, 29320.06, 104611.01, 73319.66, 0.00, 0.00, 0.00
115, 97607.90, 124782.09, 22207.64, 19285.40, 9375.26, 29322.18, 104626.59, 73314.01, 0.00, 0.00, 0.00
116, 97611.61, 124821.70, 22205.47, 19282.20, 9393.01, 29323.79, 104622.48, 73319.66, 0.00, 0.00, 0.00
117, 97612.73, 124872.89, 22205.59, 19275.88, 9402.98, 29320.37, 104631.82, 73318.30, 0.00, 0.00, 0.00
118, 97618.67, 124823.31, 22204.58, 19276.05, 9402.91, 29325.46, 104638.98, 73319.66, 0.00, 0.00, 0.00
119, 97619.43, 124766.85, 22202.23, 19275.41, 9403.11, 29329.36, 104622.74, 73321.50, 0.07, -0.19, 0.98
120, 97619.07, 124767.08, 22198.46, 19271.16, 9397.30, 29330.58, 104609.65, 73316.60, 0.00, 0.00, 0.00
121, 97619.52, 124777.29, 22196.47, 19274.18, 9377.74, 29322.98, 104614.34, 73315.46, 0.00, 0.00, 0.00
122, 97617.55, 124795.82, 22196.71, 19273.78, 9378.03, 29321.82, 104622.70, 73317.38, 0.00, 0.00, 0.00
123, 97621.76, 124853.63, 22203.33, 19275.99, 9404.14, 29329.00, 104635.27, 73320.29, 0.00, 0.00, 0.00
124, 97632.17, 124920.95, 22214.48, 19281.96, 9405.43, 29337.51, 104640.29, 73329.90, 0.00, 0.00, 0.00
125, 97627.09, 124866.77, 22211.38, 19278.69, 9409.32, 29337.07, 104634.57, 73325.03, 0.00, 0.00, 0.00
126, 97623.66, 124816.14, 22205.52, 19277.35, 9402.75, 29333.91, 104639.04, 73323.98, 0.00, 0.00, 0.00
127, 97619.14, 124825.13, 22197.54, 19271.99, 9392.67, 29326.70, 104627.38, 73318.59, 0.00, 0.00, 0.00
128, 97624.88, 124764.93, 22196.20, 19274.98, 9394.62, 29330.12, 104619.41, 73326.26, 0.00, 0.00, 0.00
129, 97630.54, 124793.80, 22206.97, 19280.86, 9397.30, 29333.62, 104617.45, 73332.05, 0.08, -0.19, 0.98
130, 97628.13, 124815.06, 22208.49, 19276.79, 9396.00, 29326.81, 104622.88, 73322.62, 0.00, 0.00, 0.00
131, 97623.48, 124812.16, 22198.99, 19268.39, 9398.60, 29328.42, 104627.26, 73317.50, 0.00, 0.00, 0.00
132, 97623.16, 124867.91, 22205.65, 19270.64, 9391.64, 29327.92, 104630.57, 73320.73, 0.00, 0.00, 0.00
133, 97619.19, 124858.72, 22206.59, 19271.07, 9382.88, 29322.34, 104640.80, 73322.66, 0.00, 0.00, 0.00
134, 97618.96, 124822.09, 22199.26, 19269.91, 9403.71, 29327.30, 104628.83, 73321.14, 0.00, 0.00, 0.00
135, 97624.30, 124815.67, 22195.71, 19266.04, 9403.80, 29327.30, 104611.62, 73316.49, 0.00, 0.00, 0.00
136, 97631.52, 124864.51, 22207.24, 19275.29, 9412.39, 29339.55, 104622.16, 73324.98, 0.00, 0.00, 0.00
137, 97626.05, 124821.59, 22194.61, 19260.77, 9392.45, 29327.95, 104629.49, 73321.97, 0.00, 0.00, 0.00
138, 97619.01, 124755.03, 22186.34, 19249.68, 9367.79, 29311.58, 104618.52, 73312.91, 0.00, 0.00, 0.00
139, 97619.79, 124788.33, 22194.70, 19258.15, 9382.01, 29318.65, 104610.95, 73313.56, 0.08, -0.19, 0.98
140, 97611.92, 124804.63, 22187.68, 19252.29, 9383.80, 29315.74, 104617.91, 73308.11, 0.00, 0.00, 0.00
141, 97618.02, 124872.89, 22200.71, 19259.98, 9387.46, 29319.36, 104619.86, 73318.95, 0.00, 0.00, 0.00
142, 97627.48, 124865.02, 22209.83, 19271.63, 9392.94, 29324.79, 104599.95, 73329.73, 0.00, 0.00, 0.00
143, 97628.48, 124801.66, 22197.81, 19268.79, 9387.02, 29321.96, 104601.78, 73322.28, 0.00, 0.00, 0.00
144, 97633.24, 124828.23, 22201.41, 19270.76, 9410.67, 29329.60, 104619.19, 73328.47, 0.00, 0.00, 0.00
145, 97629.17, 124846.09, 22200.06, 19265.26, 9414.46, 29331.72, 104630.55, 73325.70, 0.00, 0.00, 0.00
146, 97621.27, 124791.22, 22186.36, 19255.33, 9399.96, 29324.84, 104623.84, 73317.70, 0.00, 0.00, 0.00
147, 97628.75, 124821.55, 22194.61, 19262.76, 9400.56, 29326.70, 104627.53, 73328.29, 0.00, 0.00, 0.00
148, 97629.42, 124859.88, 22201.79, 19265.84, 9406.66, 29327.39, 104614.84, 73331.40, 0.00, 0.00, 0.00
149, 97627.88, 124946.20, 22213.16, 19273.48, 9418.82, 29333.60, 104614.59, 73330.88, 0.08, -0.19, 0.98
150, 97610.71, 124780.55, 22192.93, 19260.36, 9402.10, 29320.10, 104612.44, 73314.68, 0.00, 0.00, 0.00
151, 97614.83, 124737.48, 22184.02, 19259.89, 9386.48, 29318.54, 104613.29, 73314.61, 0.00, 0.00, 0.00
152, 97618.18, 124783.95, 22187.75, 19262.31, 9394.91, 29319.25, 104613.85, 73315.17, 0.00, 0.00, 0.00
153, 97624.62, 124839.56, 22200.78, 19262.38, 9397.59, 29318.80, 104596.23, 73320.34, 0.00, 0.00, 0.00
154, 97624.80, 124887.10, 22207.96, 19270.38, 9388.96, 29319.30, 104596.95, 73322.73, 0.00, 0.00, 0.00
155, 97613.51, 124867.19, 22203.73, 19266.73, 9407.20, 29317.29, 104613.54, 73314.37, 0.00, 0.00, 0.00
156, 97603.94, 124811.73, 22192.71, 19261.37, 9395.33, 29307.81, 104611.77, 73305.34, 0.00, 0.00, 0.00
157, 97620.08, 124853.87, 22205.07, 19273.44, 9419.11, 29330.09, 104607.19, 73318.48, 0.00, 0.00, 0.00
158, 97614.98, 124862.49, 22203.64, 19268.12, 9409.57, 29323.21, 104616.40, 73313.07, 0.00, 0.00, 0.00
159, 97609.10, 124749.09, 22188.89, 19258.06, 9398.73, 29313.60, 104600.98, 73303.23, 0.08, -0.19, 0.98
160, 97617.58, 124781.23, 22195.68, 19265.39, 9401.50, 29321.60, 104593.33, 73311.10, 0.00, 0.00, 0.00
161, 97618.20, 124823.71, 22195.97, 19264.41, 9394.30, 29320.59, 104594.59, 73309.02, 0.00, 0.00, 0.00
162, 97618.63, 124822.73, 22196.06, 19265.26, 9398.42, 29321.64, 104595.55, 73308.63, 0.00, 0.00, 0.00
163, 97607.52, 124831.54, 22191.75, 19255.09, 9405.48, 29318.83, 104597.91, 73301.52, 0.00, 0.00, 0.00
164, 97602.64, 124905.50, 22202.68, 19254.11, 9404.12, 29320.15, 104606.65, 73300.35, 0.00, 0.00, 0.00
165, 97613.59, 124903.02, 22214.12, 19272.01, 9410.13, 29329.04, 104607.32, 73309.80, 0.00, 0.00, 0.00
166, 97610.11, 124775.32, 22196.06, 19263.69, 9397.08, 29323.45, 104603.57, 73307.38, 0.00, 0.00, 0.00
167, 97616.30, 124788.80, 22194.92, 19261.86, 9394.13, 29323.81, 104606.88, 73310.50, 0.00, 0.00, 0.00
168, 97618.76, 124868.22, 22199.06, 19261.32, 9388.20, 29319.14, 104601.27, 73311.10, 0.00, 0.00, 0.00
169, 97617.48, 124908.25, 22200.56, 19261.10, 9400.09, 29325.09, 104607.59, 73314.32, 0.08, -0.20, 0.98
170, 97608.12, 124839.65, 22195.19, 19253.37, 9391.22, 29321.04, 104590.29, 73304.53, 0.00, 0.00, 0.00
171, 97605.46, 124729.19, 22182.52, 19245.83, 9382.61, 29307.36, 104567.02, 73299.02, 0.00, 0.00, 0.00
172, 97612.57, 124753.93, 22186.90, 19249.23, 9377.70, 29309.48, 104580.66, 73305.00, 0.00, 0.00, 0.00
173, 97614.16, 124844.62, 22201.23, 19258.62, 9396.76, 29313.82, 104608.41, 73304.66, 0.00, 0.00, 0.00
174, 97607.90, 124839.74, 22201.85, 19258.71, 9397.46, 29311.32, 104606.70, 73300.40, 0.00, 0.00, 0.00
175, 97606.11, 124825.30, 22191.75, 19256.05, 9407.76, 29315.77, 104575.72, 73299.33, 0.00, 0.00, 0.00
176, 97596.61, 124816.30, 22184.91, 19248.67, 9396.07, 29308.52, 104564.20, 73290.88, 0.00, 0.00, 0.00
177, 97608.84, 124866.27, 22203.15, 19260.30, 9398.26, 29319.52, 104585.59, 73304.55, 0.00, 0.00, 0.00
178, 97609.33, 124855.34, 22204.29, 19260.45, 9398.80, 29316.12, 104579.31, 73304.31, 0.00, 0.00, 0.00
179, 97609.87, 124810.46, 22195.91, 19253.01, 9394.26, 29310.51, 104575.13, 73301.67, 0.09, -0.20, 0.98
180, 97608.86, 124834.53, 22199.04, 19257.97, 9395.38, 29322.27, 104594.67, 73302.99, 0.00, 0.00, 0.00
181, 97606.47, 124871.05, 22200.40, 19268.46, 9404.63, 29322.72, 104594.18, 73302.50, 0.00, 0.00, 0.00
182, 97599.11, 124818.20, 22189.20, 19259.00, 9404.97, 29322.22, 104573.44, 73297.00, 0.00, 0.00, 0.00
183, 97600.59, 124807.06, 22185.85, 19251.54, 9380.49, 29312.77, 104579.30, 73292.73, 0.00, 0.00, 0.00
184, 97608.01, 124798.34, 22194.16, 19255.47, 9413.03, 29320.66, 104602.09, 73297.09, 0.00, 0.00, 0.00
185, 97611.36, 124833.20, 22199.33, 19257.73, 9413.01, 29322.25, 104587.85, 73302.84, 0.00, 0.00, 0.00
186, 97611.14, 124801.41, 22189.78, 19247.06, 9394.46, 29314.83, 104563.98, 73299.81, 0.00, 0.00, 0.00
187, 97618.09, 124848.32, 22189.89, 19249.99, 9396.18, 29313.93, 104562.10, 73303.26, 0.00, 0.00, 0.00
188, 97619.34, 124863.59, 22193.20, 19256.16, 9401.14, 29312.88, 104569.77, 73303.03, 0.00, 0.00, 0.00
189, 97615.16, 124833.39, 22190.05, 19250.04, 9389.70, 29310.85, 104576.39, 73302.79, 0.09, -0.20, 0.99
190, 97612.48, 124798.99, 22185.33, 19239.93, 9384.63, 29305.01, 104566.46, 73297.54, 0.00, 0.00, 0.00
191, 97618.07, 124822.40, 22192.02, 19240.40, 9394.62, 29307.36, 104561.61, 73301.27, 0.00, 0.00, 0.00
192, 97620.50, 124921.77, 22199.10, 19246.68, 9403.07, 29321.69, 104582.87, 73307.26, 0.00, 0.00, 0.00
193, 97607.74, 124810.37, 22181.92, 19235.11, 9395.35, 29310.47, 104572.50, 73295.81, 0.00, 0.00, 0.00
194, 97606.29, 124779.57, 22183.39, 19227.60, 9386.77, 29307.00, 104574.06, 73294.85, 0.00, 0.00, 0.00
195, 97615.66, 124817.97, 22182.92, 19231.73, 9387.08, 29312.99, 104587.02, 73303.57, 0.00, 0.00, 0.00
196, 97616.16, 124869.89, 22187.88, 19245.88, 9398.53, 29317.40, 104598.72, 73304.51, 0.00, 0.00, 0.00
197, 97604.84, 124860.02, 22188.93, 19240.56, 9386.88, 29307.58, 104562.77, 73290.79, 0.00, 0.00, 0.00
198, 97604.23, 124873.45, 22181.60, 19233.99, 9381.61, 29299.25, 104542.70, 73289.27, 0.00, 0.00, 0.00
199, 97618.00, 124913.97, 22198.05, 19251.74, 9400.12, 29314.94, 104557.12, 73303.82, 0.08, -0.20, 0.99
200, 97609.73, 124774.23, 22184.87, 19242.01, 9394.84, 29307.96, 104552.61, 73296.60, 0.00, 0.00, 0.00
201, 97607.23, 124742.35, 22170.38, 19233.92, 9389.21, 29301.93, 104555.94, 73297.27, 0.00, 0.00, 0.00
202, 97607.90, 124788.33, 22175.37, 19236.71, 9387.02, 29303.63, 104557.08, 73299.03, 0.00, 0.00, 0.00
203, 97612.45, 124880.38, 22186.77, 19244.02, 9388.60, 29305.95, 104567.67, 73299.02, 0.00, 0.00, 0.00
204, 97611.72, 124871.05, 22186.05, 19239.42, 9381.45, 29305.01, 104574.33, 73295.68, 0.00, 0.00, 0.00
205, 97611.63, 124802.15, 22179.50, 19237.27, 9386.15, 29304.32, 104567.07, 73296.58, 0.00, 0.00, 0.00
206, 97615.49, 124878.68, 22185.76, 19241.12, 9398.08, 29304.88, 104550.77, 73299.41, 0.00, 0.00, 0.00
207, 97607.34, 124859.03, 22175.30, 19231.80, 9384.76, 29299.58, 104555.94, 73291.21, 0.00, 0.00, 0.00
208, 97618.98, 124788.87, 22175.05, 19231.40, 9388.83, 29313.73, 104556.05, 73301.63, 0.00, 0.00, 0.00
209, 97621.55, 124825.88, 22176.60, 19233.25, 9390.97, 29312.37, 104551.94, 73307.15, 0.08, -0.20, 0.98
210, 97620.77, 124851.70, 22176.42, 19231.57, 9394.15, 29314.92, 104566.42, 73310.45, 0.00, 0.00, 0.00
211, 97616.19, 124838.22, 22173.31, 19217.81, 9389.05, 29305.06, 104558.17, 73304.47, 0.00, 0.00, 0.00
212, 97621.04, 124858.52, 22173.78, 19221.02, 9370.81, 29296.74, 104559.13, 73307.73, 0.00, 0.00, 0.00
213, 97619.30, 124847.81, 22171.01, 19220.58, 9367.88, 29299.40, 104560.81, 73307.38, 0.00, 0.00, 0.00
214, 97620.08, 124836.84, 22170.96, 19221.63, 9390.17, 29303.31, 104557.63, 73308.66, 0.00, 0.00, 0.00
215, 97618.80, 124885.47, 22174.72, 19225.49, 9391.67, 29305.33, 104547.02, 73310.30, 0.00, 0.00, 0.00
216, 97608.66, 124877.54, 22170.61, 19214.50, 9384.85, 29295.00, 104539.17, 73299.33, 0.00, 0.00, 0.00
217, 97620.30, 124883.02, 22173.87, 19223.10, 9384.78, 29300.48, 104555.96, 73307.33, 0.00, 0.00, 0.00
218, 97618.52, 124807.84, 22170.43, 19220.85, 9380.60, 29300.37, 104556.49, 73305.45, 0.00, 0.00, 0.00
219, 97616.01, 124830.76, 22172.10, 19217.81, 9376.24, 29297.48, 104540.29, 73304.53, 0.08, -0.20, 0.98
220, 97618.78, 124897.54, 22182.34, 19225.99, 9375.71, 29302.09, 104557.73, 73310.66, 0.00, 0.00, 0.00
221, 97614.20, 124831.76, 22172.51, 19219.44, 9373.79, 29298.17, 104539.82, 73308.55, 0.00, 0.00, 0.00
222, 97610.60, 124790.79, 22164.30, 19218.68, 9362.77, 29291.98, 104524.24, 73302.52, 0.00, 0.00, 0.00
223, 97615.61, 124825.55, 22170.63, 19222.34, 9367.30, 29292.00, 104528.09, 73300.60, 0.00, 0.00, 0.00
224, 97615.61, 124852.28, 22175.08, 19223.46, 9398.26, 29309.13, 104539.24, 73301.25, 0.00, 0.00, 0.00
225, 97610.29, 124855.03, 22165.35, 19216.71, 9386.77, 29299.36, 104544.54, 73297.72, 0.00, 0.00, 0.00
226, 97615.38, 124864.13, 22167.97, 19220.46, 9382.55, 29295.07, 104529.78, 73302.01, 0.00, 0.00, 0.00
227, 97606.84, 124819.83, 22159.07, 19210.34, 9368.93, 29281.79, 104519.19, 73291.68, 0.00, 0.00, 0.00
228, 97603.60, 124841.93, 22163.77, 19209.45, 9370.30, 29286.08, 104542.80, 73292.62, 0.00, 0.00, 0.00
229, 97610.20, 124841.55, 22168.37, 19221.45, 9382.30, 29293.77, 104535.06, 73299.10, 0.09, -0.19, 0.98
230, 97607.23, 124835.16, 22158.42, 19209.45, 9359.41, 29282.10, 104505.89, 73289.73, 0.00, 0.00, 0.00
231, 97608.59, 124929.80, 22167.88, 19212.98, 9354.25, 29279.58, 104515.79, 73290.77, 0.00, 0.00, 0.00
232, 97614.24, 124889.56, 22174.92, 19222.01, 9379.40, 29287.74, 104527.91, 73299.73, 0.00, 0.00, 0.00
233, 97612.73, 124786.84, 22166.98, 19219.75, 9386.15, 29288.81, 104529.05, 73298.03, 0.00, 0.00, 0.00
234, 97613.95, 124828.09, 22162.16, 19223.21, 9380.27, 29284.76, 104532.45, 73298.77, 0.00, 0.00, 0.00
235, 97615.54, 124818.93, 22159.59, 19220.96, 9388.00, 29292.50, 104530.34, 73298.74, 0.00, 0.00, 0.00
236, 97619.19, 124859.48, 22171.95, 19219.66, 9380.89, 29296.05, 104547.55, 73299.95, 0.00, 0.00, 0.00
237, 97612.19, 124812.12, 22162.36, 19208.31, 9360.31, 29282.71, 104557.57, 73297.18, 0.00, 0.00, 0.00
238, 97611.45, 124780.15, 22151.32, 19205.94, 9376.56, 29284.05, 104539.13, 73299.93, 0.00, 0.00, 0.00
239, 97611.30, 124813.77, 22156.70, 19211.86, 9370.86, 29281.12, 104523.23, 73301.90, 0.08, -0.19, 0.98
240, 97615.52, 124838.27, 22165.13, 19216.84, 9371.48, 29288.70, 104534.05, 73303.62, 0.00, 0.00, 0.00
241, 97615.16, 124874.72, 22169.73, 19217.38, 9390.33, 29293.32, 104538.73, 73304.87, 0.00, 0.00, 0.00
242, 97612.30, 124914.53, 22173.80, 19216.00, 9384.18, 29286.75, 104536.53, 73298.72, 0.00, 0.00, 0.00
243, 97614.58, 124847.61, 22170.16, 19212.93, 9377.47, 29284.96, 104541.38, 73298.05, 0.00, 0.00, 0.00
244, 97618.27, 124790.32, 22161.51, 19212.73, 9378.25, 29289.08, 104551.04, 73304.45, 0.00, 0.00, 0.00
245, 97621.89, 124840.10, 22170.22, 19220.44, 9380.42, 29295.34, 104553.41, 73308.84, 0.00, 0.00, 0.00
246, 97617.46, 124820.16, 22167.52, 19211.86, 9380.96, 29295.07, 104550.64, 73304.71, 0.00, 0.00, 0.00
247, 97605.91, 124786.45, 22154.00, 19197.85, 9362.94, 29281.14, 104521.24, 73294.14, 0.00, 0.00, 0.00
248, 97615.81, 124835.85, 22164.41, 19209.33, 9367.24, 29286.69, 104520.40, 73307.64, 0.00, 0.00, 0.00
249, 97614.63, 124863.57, 22164.50, 19206.43, 9373.47, 29288.94, 104546.46, 73308.31, 0.08, -0.19, 0.99
250, 97617.95, 124837.38, 22171.57, 19213.00, 9381.21, 29297.68, 104550.33, 73310.10, 0.00, 0.00, 0.00
251, 97622.23, 124924.37, 22181.22, 19222.25, 9375.19, 29299.89, 104538.68, 73314.57, 0.00, 0.00, 0.00
252, 97621.87, 124909.66, 22179.08, 19216.35, 9375.48, 29293.55, 104542.99, 73312.73, 0.00, 0.00, 0.00
253, 97615.74, 124810.62, 22166.25, 19203.52, 9360.49, 29282.53, 104528.17, 73305.25, 0.00, 0.00, 0.00
254, 97612.70, 124844.50, 22167.52, 19205.09, 9367.12, 29286.13, 104518.20, 73302.56, 0.00, 0.00, 0.00
255, 97613.82, 124822.73, 22166.67, 19214.41, 9387.98, 29288.96, 104534.84, 73302.07, 0.00, 0.00, 0.00
0, 97611.45, 124809.14, 22164.26, 19212.24, 9381.79, 29295.76, 104521.34, 73303.41, 0.00, 0.00, 0.00
1, 97608.08, 124773.20, 22160.77, 19211.68, 9359.93, 29289.12, 104504.44, 73300.22, 0.00, 0.00, 0.00
2, 97602.87, 124803.20, 22166.29, 19213.07, 9371.64, 29290.13, 104517.49, 73296.48, 0.00, 0.00, 0.00
3, 97610.24, 124835.34, 22165.84, 19212.44, 9396.61, 29303.27, 104527.03, 73305.29, 0.07, -0.19, 0.98
4, 97619.88, 124882.03, 22170.81, 19218.97, 9404.34, 29311.65, 104534.66, 73313.12, 0.00, 0.00, 0.00
5, 97611.67, 124820.12, 22162.96, 19209.94, 9380.85, 29297.73, 104534.32, 73306.19, 0.00, 0.00, 0.00
6, 97613.59, 124858.27, 22162.56, 19203.08, 9374.23, 29294.40, 104537.79, 73306.32, 0.00, 0.00, 0.00
7, 97613.08, 124835.70, 22169.24, 19203.17, 9371.59, 29294.78, 104526.81, 73307.10, 0.00, 0.00, 0.00
8, 97604.99, 124773.52, 22165.42, 19206.52, 9362.88, 29290.42, 104497.04, 73305.43, 0.00, 0.00, 0.00
9, 97608.90, 124807.76, 22166.47, 19209.58, 9366.83, 29293.39, 104504.84, 73311.20, 0.00, 0.00, 0.00
10, 97613.62, 124827.18, 22162.89, 19202.36, 9365.13, 29294.84, 104507.27, 73311.87, 0.00, 0.00, 0.00
11, 97614.65, 124804.60, 22158.60, 19207.52, 9363.55, 29304.12, 104511.57, 73310.57, 0.00, 0.00, 0.00
12, 97617.06, 124865.09, 22165.13, 19219.59, 9357.63, 29305.48, 104530.59, 73316.73, 0.00, 0.00, 0.00
13, 97623.59, 124947.68, 22181.47, 19230.19, 9378.52, 29315.79, 104538.62, 73326.44, 0.08, -0.18, 0.98
14, 97607.29, 124811.65, 22164.75, 19213.20, 9380.65, 29307.03, 104527.59, 73309.23, 0.00, 0.00, 0.00
15, 97601.77, 124750.85, 22145.66, 19200.19, 9359.10, 29299.47, 104503.74, 73301.52, 0.00, 0.00, 0.00
16, 97617.20, 124827.76, 22161.15, 19210.41, 9361.63, 29310.91, 104508.15, 73319.62, 0.00, 0.00, 0.00
17, 97617.09, 124799.24, 22158.54, 19207.26, 9360.31, 29309.30, 104504.75, 73320.00, 0.00, 0.00, 0.00
18, 97620.88, 124809.59, 22159.65, 19205.74, 9362.47, 29310.60, 104514.25, 73325.72, 0.00, 0.00, 0.00
19, 97615.38, 124808.98, 22157.37, 19203.46, 9357.20, 29307.18, 104520.28, 73329.45, 0.00, 0.00, 0.00
20, 97615.49, 124812.34, 22155.12, 19206.96, 9364.96, 29311.34, 104525.31, 73329.41, 0.00, 0.00, 0.00
21, 97616.13, 124822.89, 22152.16, 19209.18, 9357.07, 29302.89, 104521.09, 73324.31, 0.00, 0.00, 0.00
22, 97620.48, 124926.60, 22173.94, 19218.39, 9364.46, 29312.99, 104531.95, 73333.91, 0.00, 0.00, 0.00
23, 97626.16, 124964.60, 22190.61, 19227.17, 9390.82, 29329.20, 104539.33, 73348.59, 0.08, -0.19, 0.98
24, 97617.80, 124791.66, 22157.31, 19210.65, 9369.36, 29309.93, 104505.31, 73339.52, 0.00, 0.00, 0.00
25, 97626.72, 124739.78, 22153.80, 19210.68, 9359.97, 29307.96, 104505.20, 73341.73, 0.00, 0.00, 0.00
26, 97626.31, 124783.41, 22155.29, 19209.09, 9348.50, 29306.51, 104508.46, 73342.62, 0.00, 0.00, 0.00
27, 97627.97, 124826.77, 22155.83, 19210.83, 9383.08, 29314.04, 104505.87, 73346.48, 0.00, 0.00, 0.00
28, 97623.61, 124863.34, 22156.39, 19216.08, 9379.15, 29307.18, 104506.16, 73341.32, 0.00, 0.00, 0.00
29, 97626.11, 124841.51, 22154.29, 19207.43, 9358.63, 29299.52, 104517.27, 73341.13, 0.00, 0.00, 0.00
30, 97627.01, 124791.02, 22154.85, 19203.90, 9356.40, 29302.58, 104506.13, 73340.74, 0.00, 0.00, 0.00
31, 97626.00, 124861.45, 22165.29, 19202.41, 9349.47, 29299.31, 104488.57, 73339.02, 0.00, 0.00, 0.00
32, 97622.49, 124822.38, 22159.79, 19195.43, 9349.60, 29294.55, 104495.97, 73340.74, 0.00, 0.00, 0.00
33, 97622.36, 124788.42, 22149.75, 19188.93, 9343.70, 29291.09, 104494.98, 73342.80, 0.08, -0.20, 0.98
34, 97618.76, 124830.15, 22151.67, 19194.02, 9348.91, 29292.94, 104491.56, 73339.45, 0.00, 0.00, 0.00
35, 97624.05, 124848.10, 22163.21, 19208.08, 9352.66, 29297.06, 104490.71, 73342.09, 0.00, 0.00, 0.00
36, 97626.02, 124923.91, 22172.26, 19208.40, 9352.37, 29293.55, 104501.60, 73345.41, 0.00, 0.00, 0.00
37, 97617.66, 124891.66, 22158.02, 19203.25, 9339.12, 29283.49, 104486.38, 73338.93, 0.00, 0.00, 0.00
38, 97623.66, 124803.66, 22159.72, 19209.51, 9361.18, 29299.22, 104486.66, 73344.30, 0.00, 0.00, 0.00
39, 97614.06, 124738.17, 22141.66, 19198.00, 9369.52, 29296.52, 104477.33, 73333.88, 0.00, 0.00, 0.00
40, 97614.58, 124815.65, 22146.55, 19200.88, 9362.68, 29297.03, 104488.44, 73339.40, 0.00, 0.00, 0.00
41, 97613.82, 124810.66, 22146.35, 19202.09, 9352.06, 29293.37, 104477.70, 73340.32, 0.00, 0.00, 0.00
42, 97622.76, 124795.89, 22144.72, 19204.21, 9361.25, 29301.71, 104484.52, 73341.37, 0.00, 0.00, 0.00
43, 97623.66, 124811.78, 22146.44, 19207.19, 9367.66, 29303.47, 104504.37, 73341.75, 0.08, -0.20, 0.99
44, 97622.76, 124820.20, 22145.62, 19206.81, 9370.37, 29306.69, 104510.83, 73347.65, 0.00, 0.00, 0.00
45, 97625.91, 124920.63, 22159.27, 19215.12, 9369.76, 29312.86, 104508.55, 73356.57, 0.00, 0.00, 0.00
46, 97618.67, 124896.11, 22154.98, 19207.39, 9363.06, 29303.20, 104477.10, 73352.92, 0.00, 0.00, 0.00
47, 97618.58, 124841.24, 22150.42, 19203.43, 9347.41, 29296.34, 104477.80, 73353.26, 0.00, 0.00, 0.00
48, 97616.19, 124765.80, 22142.67, 19201.00, 9360.24, 29292.14, 104483.45, 73345.77, 0.00, 0.00, 0.00
49, 97622.07, 124788.84, 22149.01, 19203.32, 9383.84, 29298.20, 104479.72, 73348.97, 0.00, 0.00, 0.00
50, 97616.05, 124840.48, 22152.79, 19205.27, 9382.28, 29295.89, 104481.80, 73345.34, 0.00, 0.00, 0.00
51, 97606.51, 124801.43, 22137.59, 19198.09, 9366.83, 29289.70, 104477.86, 73337.50, 0.00, 0.00, 0.00
52, 97595.94, 124773.34, 22126.71, 19190.78, 9354.92, 29280.65, 104464.41, 73327.16, 0.07, -0.21, 1.00
53, 97618.85, 124853.87, 22155.23, 19213.83, 9373.20, 29301.28, 104492.19, 73350.40, 0.00, 0.00, 0.00
54, 97618.20, 124875.02, 22155.81, 19206.52, 9366.97, 29295.78, 104479.16, 73352.57, 0.00, 0.00, 0.00
55, 97617.46, 124840.03, 22151.32, 19200.37, 9352.55, 29289.55, 104469.01, 73351.41, 0.00, 0.00, 0.00
56, 97615.49, 124821.50, 22146.40, 19194.54, 9350.00, 29289.72, 104473.84, 73349.80, 0.00, 0.00, 0.00
57, 97618.00, 124787.39, 22139.49, 19192.35, 9358.88, 29291.60, 104475.09, 73356.05, 0.00, 0.00, 0.00
58, 97619.03, 124840.70, 22143.63, 19197.29, 9366.45, 29300.19, 104473.88, 73362.36, 0.00, 0.00, 0.00
59, 97621.55, 124829.19, 22148.50, 19197.76, 9362.18, 29299.85, 104468.43, 73362.11, 0.00, 0.00, 0.00
60, 97618.60, 124833.05, 22153.15, 19199.66, 9358.74, 29298.51, 104470.69, 73357.95, 0.00, 0.00, 0.00
61, 97615.36, 124852.28, 22153.95, 19199.21, 9359.48, 29296.34, 104476.77, 73354.65, 0.00, 0.00, 0.00
62, 97610.49, 124801.59, 22150.31, 19200.44, 9349.42, 29291.69, 104485.59, 73350.45, 0.08, -0.20, 0.99
63, 97610.49, 124794.91, 22151.94, 19203.59, 9373.27, 29299.80, 104483.74, 73353.35, 0.00, 0.00, 0.00
64, 97614.24, 124814.64, 22152.68, 19205.36, 9379.37, 29305.44, 104482.84, 73355.67, 0.00, 0.00, 0.00
65, 97617.64, 124837.02, 22155.74, 19205.85, 9377.50, 29309.04, 104487.72, 73361.46, 0.00, 0.00, 0.00
66, 97623.23, 124903.27, 22164.88, 19209.16, 9377.45, 29312.48, 104493.22, 73368.21, 0.00, 0.00, 0.00
67, 97618.88, 124926.09, 22159.56, 19205.58, 9374.30, 29310.09, 104495.20, 73363.48, 0.00, 0.00, 0.00
68, 97615.85, 124849.77, 22157.37, 19204.66, 9375.06, 29308.86, 104480.70, 73359.52, 0.00, 0.00, 0.00
69, 97608.66, 124823.71, 22144.28, 19199.25, 9360.80, 29301.64, 104472.16, 73355.09, 0.00, 0.00, 0.00
70, 97624.23, 124808.36, 22157.78, 19213.27, 9377.76, 29313.04, 104484.19, 73368.91, 0.00, 0.00, 0.00
71, 97617.55, 124843.56, 22158.18, 19212.31, 9373.74, 29311.81, 104482.87, 73366.65, 0.00, 0.00, 0.00
72, 97611.02, 124784.15, 22146.91, 19204.71, 9379.17, 29309.15, 104514.61, 73362.65, 0.07, -0.19, 0.99
73, 97616.23, 124779.26, 22153.19, 19210.99, 9387.13, 29309.44, 104488.55, 73365.89, 0.00, 0.00, 0.00
74, 97618.09, 124838.53, 22161.89, 19214.43, 9386.86, 29309.01, 104465.66, 73369.02, 0.00, 0.00, 0.00
75, 97603.05, 124891.58, 22150.73, 19198.76, 9367.79, 29296.61, 104470.26, 73355.05, 0.00, 0.00, 0.00
76, 97614.38, 124967.02, 22167.54, 19212.42, 9376.02, 29308.97, 104478.17, 73370.25, 0.00, 0.00, 0.00
77, 97616.50, 124805.12, 22153.35, 19209.18, 9379.26, 29308.23, 104476.41, 73370.13, 0.00, 0.00, 0.00
78, 97616.21, 124746.55, 22140.23, 19199.16, 9367.77, 29303.07, 104473.34, 73364.30, 0.00, 0.00, 0.00
79, 97611.05, 124813.55, 22136.52, 19189.33, 9362.05, 29298.58, 104476.41, 73358.06, 0.00, 0.00, 0.00
80, 97629.53, 124845.64, 22152.57, 19200.44, 9360.93, 29308.90, 104488.99, 73378.07, 0.00, 0.00, 0.00
81, 97631.21, 124851.03, 22157.31, 19202.90, 9363.95, 29307.61, 104481.98, 73379.95, 0.00, 0.00, 0.00
82, 97635.97, 124915.27, 22162.49, 19205.27, 9363.62, 29309.35, 104490.91, 73378.05, 0.08, -0.19, 0.98
83, 97640.58, 124963.46, 22165.84, 19204.37, 9386.68, 29315.43, 104483.02, 73380.80, 0.00, 0.00, 0.00
84, 97628.80, 124794.19, 22151.54, 19193.08, 9375.35, 29306.49, 104486.47, 73372.33, 0.00, 0.00, 0.00
85, 97624.28, 124777.89, 22142.33, 19184.93, 9357.58, 29301.57, 104488.61, 73369.46, 0.00, 0.00, 0.00
86, 97634.47, 124814.06, 22158.36, 19200.77, 9365.16, 29310.51, 104469.73, 73379.19, 0.00, 0.00, 0.00
87, 97634.70, 124819.18, 22151.38, 19202.18, 9376.36, 29313.02, 104476.37, 73380.55, 0.00, 0.00, 0.00
88, 97634.18, 124833.77, 22147.05, 19202.47, 9382.39, 29315.85, 104498.00, 73378.67, 0.00, 0.00, 0.00
89, 97630.70, 124845.53, 22153.19, 19202.27, 9389.45, 29315.50, 104483.65, 73374.65, 0.00, 0.00, 0.00
90, 97631.73, 124851.32, 22150.89, 19196.97, 9382.68, 29312.88, 104464.02, 73374.92, 0.00, 0.00, 0.00
91, 97626.80, 124841.91, 22146.46, 19191.81, 9376.02, 29313.13, 104467.29, 73375.55, 0.00, 0.00, 0.00
92, 97631.05, 124820.79, 22140.61, 19185.69, 9369.11, 29312.23, 104471.45, 73378.45, 0.08, -0.19, 0.99
93, 97640.10, 124894.03, 22147.56, 19193.17, 9378.14, 29313.55, 104467.06, 73381.31, 0.00, 0.00, 0.00
94, 97626.34, 124913.08, 22137.68, 19186.47, 9362.30, 29301.19, 104464.05, 73369.94, 0.00, 0.00, 0.00
95, 97634.88, 124857.91, 22155.23, 19202.92, 9367.53, 29313.08, 104490.96, 73381.65, 0.00, 0.00, 0.00
96, 97632.73, 124833.69, 22155.12, 19197.55, 9370.05, 29311.79, 104478.33, 73383.32, 0.00, 0.00, 0.00
97, 97632.44, 124821.16, 22144.01, 19193.71, 9369.49, 29305.62, 104480.12, 73379.61, 0.00, 0.00, 0.00
98, 97635.99, 124844.91, 22150.31, 19197.62, 9382.14, 29311.70, 104485.15, 73384.38, 0.00, 0.00, 0.00
99, 97632.41, 124831.45, 22144.25, 19191.07, 9378.03, 29306.06, 104472.19, 73386.01, 0.00, 0.00, 0.00
100, 97629.40, 124886.77, 22151.72, 19192.57, 9376.09, 29308.28, 104480.97, 73383.99, 0.00, 0.00, 0.00
101, 97622.11, 124872.77, 22151.05, 19188.17, 9370.77, 29308.03, 104496.10, 73380.23, 0.00, 0.00, 0.00
102, 97615.43, 124882.50, 22142.40, 19178.71, 9359.86, 29301.50, 104493.10, 73373.94, 0.08, -0.19, 0.98
103, 97624.99, 124857.33, 22149.08, 19195.63, 9366.90, 29303.63, 104489.64, 73382.18, 0.00, 0.00, 0.00
104, 97626.41, 124795.41, 22147.20, 19188.88, 9369.20, 29299.00, 104479.45, 73379.92, 0.00, 0.00, 0.00
105, 97625.66, 124794.73, 22151.52, 19189.29, 9360.98, 29298.11, 104467.09, 73380.08, 0.00, 0.00, 0.00
106, 97628.04, 124812.47, 22150.47, 19188.70, 9351.12, 29298.02, 104468.72, 73379.92, 0.00, 0.00, 0.00
107, 97627.48, 124837.51, 22146.17, 19179.58, 9356.26, 29295.49, 104476.92, 73381.31, 0.00, 0.00, 0.00
108, 97632.04, 124894.75, 22145.41, 19181.10, 9372.85, 29302.35, 104491.27, 73387.81, 0.00, 0.00, 0.00
109, 97630.88, 124911.16, 22151.05, 19186.29, 9377.61, 29305.75, 104503.77, 73385.34, 0.00, 0.00, 0.00
110, 97635.23, 124864.04, 22154.02, 19188.62, 9377.09, 29308.63, 104517.89, 73390.19, 0.00, 0.00, 0.00
111, 97633.84, 124844.97, 22151.61, 19191.10, 9369.61, 29304.34, 104509.45, 73390.12, 0.00, 0.00, 0.00
112, 97632.33, 124833.55, 22151.32, 19191.68, 9356.57, 29299.65, 104505.82, 73388.51, 0.08, -0.19, 0.99
113, 97632.10, 124868.10, 22153.84, 19198.11, 9379.28, 29307.70, 104513.91, 73388.64, 0.00, 0.00, 0.00
114, 97632.38, 124898.64, 22159.14, 19204.60, 9392.67, 29314.76, 104536.78, 73392.77, 0.00, 0.00, 0.00
115, 97618.85, 124840.32, 22148.59, 19191.79, 9374.21, 29304.88, 104514.38, 73385.24, 0.00, 0.00, 0.00
116, 97630.54, 124855.90, 22153.44, 19193.64, 9370.88, 29310.15, 104491.14, 73388.38, 0.00, 0.00, 0.00
117, 97631.03, 124916.16, 22150.15, 19190.71, 9373.02, 29315.99, 104501.04, 73389.13, 0.00, 0.00, 0.00
118, 97635.45, 124905.66, 22156.12, 19196.50, 9389.16, 29327.63, 104522.99, 73398.05, 0.00, 0.00, 0.00
119, 97624.48, 124783.91, 22141.84, 19186.20, 9368.33, 29313.37, 104518.14, 73387.73, 0.00, 0.00, 0.00
120, 97630.16, 124780.91, 22148.75, 19196.21, 9386.59, 29320.12, 104529.34, 73390.72, 0.00, 0.00, 0.00
121, 97622.76, 124812.43, 22147.94, 19195.34, 9392.09, 29316.19, 104512.02, 73385.80, 0.00, 0.00, 0.00
122, 97622.09, 124854.96, 22149.68, 19196.73, 9392.05, 29313.71, 104504.28, 73385.65, 0.08, -0.19, 0.98
123, 97632.30, 124873.63, 22160.28, 19200.68, 9394.50, 29317.11, 104521.96, 73396.94, 0.00, 0.00, 0.00
124, 97629.73, 124865.49, 22155.92, 19190.45, 9381.43, 29308.34, 104530.70, 73394.38, 0.00, 0.00, 0.00
125, 97628.33, 124869.27, 22153.62, 19188.19, 9368.91, 29308.14, 104531.53, 73393.91, 0.00, 0.00, 0.00
126, 97627.05, 124810.44, 22146.11, 19181.69, 9371.46, 29302.87, 104521.98, 73393.05, 0.00, 0.00, 0.00
127, 97629.69, 124822.04, 22147.74, 19187.16, 9384.45, 29306.20, 104534.55, 73399.55, 0.00, 0.00, 0.00
128, 97628.20, 124873.13, 22154.58, 19187.61, 9392.09, 29315.52, 104531.70, 73401.14, 0.00, 0.00, 0.00
129, 97631.52, 124909.16, 22157.24, 19190.34, 9388.87, 29317.24, 104549.39, 73400.04, 0.00, 0.00, 0.00
130, 97639.21, 124986.48, 22173.27, 19198.56, 9389.83, 29319.83, 104570.55, 73406.50, 0.00, 0.00, 0.00
131, 97624.57, 124868.10, 22146.46, 19180.10, 9367.77, 29305.15, 104541.56, 73396.71, 0.00, 0.00, 0.00
132, 97619.25, 124784.06, 22123.91, 19164.52, 9353.33, 29290.24, 104500.57, 73391.75, 0.08, -0.19, 0.98
133, 97627.52, 124748.45, 22126.51, 19167.02, 9362.14, 29295.51, 104514.65, 73397.12, 0.00, 0.00, 0.00
134, 97638.56, 124822.77, 22145.62, 19182.58, 9379.28, 29312.81, 104547.11, 73407.75, 0.00, 0.00, 0.00
135, 97639.13, 124899.40, 22153.64, 19183.67, 9367.93, 29316.61, 104564.67, 73408.94, 0.00, 0.00, 0.00
136, 97624.84, 124887.04, 22145.19, 19178.02, 9362.88, 29309.91, 104553.61, 73400.91, 0.00, 0.00, 0.00
137, 97622.60, 124834.87, 22142.98, 19176.86, 9365.60, 29305.44, 104535.40, 73398.63, 0.00, 0.00, 0.00
138, 97641.85, 124852.62, 22158.13, 19195.43, 9391.73, 29316.97, 104555.47, 73412.94, 0.00, 0.00, 0.00
139, 97634.54, 124837.70, 22147.72, 19187.47, 9382.23, 29316.64, 104560.09, 73407.69, 0.00, 0.00, 0.00
140, 97627.99, 124824.30, 22141.93, 19183.52, 9383.62, 29322.74, 104546.37, 73402.86, 0.00, 0.00, 0.00
141, 97629.48, 124870.12, 22149.30, 19192.12, 9392.45, 29326.78, 104545.25, 73403.87, 0.00, 0.00, 0.00
142, 97633.11, 124900.88, 22156.54, 19195.32, 9397.25, 29330.43, 104553.25, 73406.50, 0.09, -0.19, 0.98
143, 97630.38, 124825.28, 22144.70, 19186.78, 9370.37, 29322.60, 104546.21, 73402.66, 0.00, 0.00, 0.00
144, 97624.21, 124824.74, 22136.45, 19176.54, 9368.42, 29311.96, 104539.35, 73395.52, 0.00, 0.00, 0.00
145, 97619.61, 124885.14, 22149.30, 19174.24, 9395.20, 29313.78, 104542.15, 73395.21, 0.00, 0.00, 0.00
146, 97616.70, 124892.00, 22154.54, 19174.69, 9389.54, 29316.44, 104548.13, 73397.16, 0.00, 0.00, 0.00
147, 97627.32, 124840.50, 22155.67, 19184.88, 9392.54, 29321.98, 104578.13, 73405.27, 0.00, 0.00, 0.00
148, 97629.42, 124814.53, 22148.12, 19184.43, 9392.09, 29323.30, 104578.40, 73406.45, 0.00, 0.00, 0.00
149, 97627.74, 124834.78, 22145.06, 19183.36, 9386.91, 29318.69, 104546.73, 73408.11, 0.00, 0.00, 0.00
150, 97622.20, 124833.88, 22144.79, 19177.06, 9378.70, 29313.28, 104542.37, 73404.34, 0.00, 0.00, 0.00
151, 97619.48, 124916.84, 22152.43, 19181.57, 9383.44, 29311.96, 104555.06, 73399.55, 0.00, 0.00, 0.00
152, 97628.13, 124909.01, 22163.18, 19184.48, 9383.53, 29314.00, 104565.93, 73401.74, 0.09, -0.19, 0.98
153, 97620.77, 124802.73, 22142.46, 19169.41, 9374.95, 29303.14, 104549.23, 73392.20, 0.00, 0.00, 0.00
154, 97622.20, 124804.41, 22135.11, 19170.49, 9372.22, 29303.83, 104553.70, 73398.08, 0.00, 0.00, 0.00
155, 97625.45, 124869.78, 22144.39, 19183.03, 9371.21, 29308.37, 104552.80, 73402.27, 0.00, 0.00, 0.00
156, 97622.41, 124852.37, 22139.98, 19171.38, 9355.41, 29299.38, 104544.34, 73395.88, 0.00, 0.00, 0.00
157, 97625.95, 124821.39, 22136.45, 19170.93, 9351.30, 29295.07, 104550.20, 73399.41, 0.00, 0.00, 0.00
158, 97627.77, 124816.14, 22133.35, 19166.15, 9361.29, 29293.75, 104541.63, 73395.39, 0.00, 0.00, 0.00
159, 97627.23, 124831.23, 22127.64, 19162.13, 9359.88, 29291.51, 104533.56, 73391.80, 0.00, 0.00, 0.00
160, 97634.05, 124851.50, 22143.74, 19182.06, 9372.44, 29312.43, 104562.53, 73412.07, 0.00, 0.00, 0.00
161, 97631.57, 124879.82, 22138.75, 19176.30, 9361.60, 29310.89, 104563.94, 73415.77, 0.00, 0.00, 0.00
162, 97633.83, 124903.58, 22143.49, 19181.66, 9385.45, 29315.65, 104569.95, 73411.80, 0.09, -0.19, 0.99
163, 97633.29, 124898.08, 22149.37, 19192.23, 9392.29, 29318.65, 104583.65, 73406.55, 0.00, 0.00, 0.00
164, 97630.70, 124920.03, 22153.08, 19190.16, 9376.96, 29311.03, 104566.77, 73404.20, 0.00, 0.00, 0.00
165, 97626.45, 124883.69, 22144.30, 19180.23, 9372.71, 29301.84, 104546.21, 73400.96, 0.00, 0.00, 0.00
166, 97625.80, 124842.06, 22131.65, 19174.42, 9368.53, 29296.45, 104556.38, 73399.41, 0.00, 0.00, 0.00
167, 97629.13, 124816.41, 22135.29, 19178.13, 9371.46, 29309.13, 104569.91, 73399.28, 0.00, 0.00, 0.00
168, 97629.16, 124842.18, 22139.76, 19185.69, 9395.35, 29314.49, 104568.68, 73396.58, 0.00, 0.00, 0.00
169, 97626.56, 124876.35, 22136.56, 19180.84, 9390.33, 29311.88, 104582.11, 73400.58, 0.00, 0.00, 0.00
170, 97624.34, 124825.97, 22128.09, 19168.59, 9374.05, 29306.02, 104554.73, 73398.79, 0.00, 0.00, 0.00
171, 97629.89, 124795.51, 22128.43, 19172.28, 9388.87, 29309.24, 104549.74, 73404.11, 0.00, 0.00, 0.00
172, 97623.92, 124874.92, 22134.51, 19172.07, 9380.58, 29303.49, 104563.63, 73399.15, 0.08, -0.20, 0.98
173, 97611.59, 124887.73, 22132.47, 19164.43, 9366.45, 29290.15, 104545.45, 73385.87, 0.00, 0.00, 0.00
174, 97602.09, 124784.47, 22112.85, 19154.24, 9357.13, 29279.85, 104530.66, 73377.29, 0.00, 0.00, 0.00
175, 97605.93, 124791.15, 22115.46, 19157.70, 9369.47, 29289.90, 104549.92, 73381.47, 0.00, 0.00, 0.00
176, 97607.12, 124854.09, 22117.81, 19159.47, 9358.76, 29288.03, 104557.95, 73381.63, 0.00, 0.00, 0.00
177, 97620.37, 124876.89, 22132.70, 19172.39, 9364.06, 29296.68, 104558.35, 73393.88, 0.00, 0.00, 0.00
178, 97614.94, 124834.13, 22127.96, 19168.68, 9367.62, 29292.59, 104547.42, 73385.27, 0.00, 0.00, 0.00
179, 97606.17, 124829.37, 22118.46, 19159.31, 9346.34, 29285.05, 104528.80, 73375.55, 0.00, 0.00, 0.00
180, 97604.23, 124859.03, 22114.12, 19155.96, 9336.12, 29278.73, 104540.63, 73375.97, 0.00, 0.00, 0.00
181, 97607.00, 124825.03, 22121.83, 19161.50, 9356.17, 29282.30, 104555.51, 73380.35, 0.00, 0.00, 0.00
182, 97605.28, 124808.52, 22114.70, 19154.08, 9362.12, 29281.19, 104548.49, 73373.13, 0.08, -0.19, 0.98
183, 97615.88, 124876.29, 22121.77, 19163.22, 9371.82, 29289.61, 104553.50, 73380.28, 0.00, 0.00, 0.00
184, 97617.53, 124918.11, 22134.80, 19173.08, 9378.57, 29301.35, 104559.04, 73386.30, 0.00, 0.00, 0.00
185, 97601.80, 124814.84, 22119.38, 19156.76, 9357.09, 29291.04, 104541.48, 73371.59, 0.00, 0.00, 0.00
186, 97606.89, 124890.37, 22124.25, 19160.23, 9353.36, 29289.19, 104541.48, 73377.78, 0.00, 0.00, 0.00
187, 97598.51, 124798.97, 22116.58, 19160.00, 9358.90, 29282.42, 104528.78, 73369.51, 0.00, 0.00, 0.00
188, 97597.93, 124754.91, 22111.42, 19160.29, 9361.22, 29286.24, 104539.73, 73375.01, 0.00, 0.00, 0.00
189, 97597.95, 124796.24, 22105.32, 19155.98, 9357.87, 29288.29, 104531.41, 73377.00, 0.00, 0.00, 0.00
190, 97605.55, 124809.55, 22103.66, 19156.99, 9359.70, 29290.08, 104538.41, 73378.36, 0.00, 0.00, 0.00
191, 97605.55, 124838.16, 22110.81, 19164.41, 9345.13, 29286.75, 104546.55, 73377.20, 0.00, 0.00, 0.00
192, 97595.34, 124844.41, 22105.90, 19143.06, 9327.34, 29267.84, 104532.18, 73364.79, 0.08, -0.19, 0.98
193, 97598.69, 124951.30, 22117.23, 19149.07, 9357.31, 29283.04, 104545.74, 73367.27, 0.00, 0.00, 0.00
194, 97612.44, 124969.72, 22131.89, 19170.00, 9375.28, 29300.81, 104573.77, 73383.08, 0.00, 0.00, 0.00
195, 97599.56, 124751.98, 22109.43, 19151.38, 9363.66, 29285.50, 104529.47, 73371.19, 0.00, 0.00, 0.00
196, 97604.45, 124715.76, 22101.09, 19153.90, 9363.84, 29286.51, 104530.23, 73370.34, 0.00, 0.00, 0.00
197, 97608.12, 124773.38, 22107.62, 19158.71, 9369.85, 29293.79, 104551.71, 73370.29, 0.00, 0.00, 0.00
198, 97602.42, 124819.87, 22112.78, 19161.37, 9372.18, 29293.59, 104550.98, 73367.25, 0.00, 0.00, 0.00
199, 97601.55, 124847.84, 22113.54, 19159.60, 9369.16, 29292.79, 104542.63, 73369.22, 0.00, 0.00, 0.00
200, 97601.86, 124851.41, 22115.06, 19158.64, 9361.89, 29293.77, 104552.70, 73372.03, 0.00, 0.00, 0.00
201, 97601.15, 124902.23, 22116.78, 19159.45, 9349.15, 29288.88, 104557.61, 73371.74, 0.00, 0.00, 0.00
202, 97593.88, 124946.67, 22115.24, 19155.58, 9351.21, 29281.41, 104534.61, 73364.93, 0.08, -0.19, 0.98
203, 97600.72, 124808.59, 22115.66, 19159.09, 9369.58, 29291.42, 104529.85, 73372.84, 0.00, 0.00, 0.00
204, 97604.66, 124743.88, 22108.94, 19161.44, 9366.65, 29293.73, 104553.21, 73376.04, 0.00, 0.00, 0.00
205, 97606.87, 124809.90, 22111.69, 19161.44, 9358.29, 29294.22, 104547.91, 73380.23, 0.00, 0.00, 0.00
206, 97597.68, 124807.53, 22105.18, 19147.13, 9339.81, 29284.00, 104534.05, 73372.15, 0.00, 0.00, 0.00
207, 97612.14, 124856.75, 22120.89, 19161.17, 9357.80, 29302.13, 104560.41, 73387.68, 0.00, 0.00, 0.00
208, 97612.88, 124857.22, 22108.62, 19153.46, 9363.77, 29297.41, 104556.02, 73387.55, 0.00, 0.00, 0.00
209, 97617.58, 124869.09, 22106.39, 19144.96, 9358.09, 29295.78, 104556.63, 73389.07, 0.00, 0.00, 0.00
210, 97610.31, 124917.32, 22112.29, 19144.56, 9347.45, 29292.34, 104572.97, 73385.98, 0.00, 0.00, 0.00
211, 97610.47, 124925.41, 22125.75, 19147.91, 9356.37, 29292.25, 104558.95, 73384.66, 0.00, 0.00, 0.00
212, 97606.22, 124745.48, 22100.04, 19138.52, 9352.06, 29286.89, 104537.95, 73375.59, 0.08, -0.19, 0.98
213, 97603.41, 124726.09, 22101.87, 19138.99, 9353.56, 29287.45, 104543.22, 73378.07, 0.00, 0.00, 0.00
214, 97599.83, 124800.98, 22103.57, 19140.27, 9355.43, 29286.44, 104540.31, 73379.91, 0.00, 0.00, 0.00
215, 97604.99, 124852.02, 22108.06, 19139.80, 9355.90, 29290.69, 104541.63, 73383.70, 0.00, 0.00, 0.00
216, 97611.92, 124852.93, 22116.40, 19145.97, 9356.04, 29294.49, 104554.38, 73389.23, 0.00, 0.00, 0.00
217, 97610.45, 124806.59, 22106.05, 19137.96, 9344.21, 29290.55, 104552.16, 73386.45, 0.00, 0.00, 0.00
218, 97614.63, 124852.50, 22113.23, 19141.72, 9329.91, 29290.31, 104565.39, 73389.13, 0.00, 0.00, 0.00
219, 97618.18, 124901.52, 22119.64, 19147.02, 9357.96, 29297.12, 104564.56, 73391.91, 0.00, 0.00, 0.00
220, 97615.83, 124877.90, 22116.29, 19147.60, 9349.04, 29298.29, 104550.35, 73387.57, 0.00, 0.00, 0.00
221, 97606.22, 124819.65, 22109.99, 19142.70, 9362.32, 29288.25, 104542.97, 73379.79, 0.00, 0.00, 0.00
222, 97600.32, 124794.95, 22102.14, 19137.81, 9370.39, 29286.33, 104539.38, 73377.80, 0.08, -0.19, 0.98
223, 97610.83, 124825.99, 22111.84, 19147.46, 9383.73, 29302.82, 104551.16, 73390.37, 0.00, 0.00, 0.00
224, 97615.63, 124833.98, 22116.49, 19151.18, 9381.56, 29305.57, 104542.81, 73394.45, 0.00, 0.00, 0.00
225, 97609.77, 124823.78, 22110.99, 19145.12, 9365.94, 29299.47, 104541.74, 73386.36, 0.00, 0.00, 0.00
226, 97610.67, 124826.13, 22107.66, 19140.31, 9356.62, 29294.40, 104549.92, 73383.44, 0.00, 0.00, 0.00
227, 97610.55, 124831.09, 22105.67, 19144.87, 9351.99, 29289.68, 104563.78, 73386.09, 0.00, 0.00, 0.00
228, 97606.35, 124829.80, 22107.17, 19144.60, 9357.69, 29292.83, 104562.15, 73386.72, 0.00, 0.00, 0.00
229, 97617.40, 124900.52, 22122.28, 19153.28, 9369.87, 29306.56, 104560.25, 73396.82, 0.00, 0.00, 0.00
230, 97614.29, 124893.30, 22113.05, 19141.56, 9351.25, 29296.63, 104543.76, 73393.65, 0.00, 0.00, 0.00
231, 97616.05, 124871.84, 22112.04, 19140.78, 9348.55, 29297.99, 104539.98, 73396.04, 0.00, 0.00, 0.00
232, 97606.11, 124797.30, 22102.03, 19133.63, 9340.46, 29290.15, 104542.66, 73387.41, 0.08, -0.19, 0.99
233, 97610.91, 124794.39, 22099.71, 19133.90, 9342.00, 29295.78, 104556.23, 73393.78, 0.00, 0.00, 0.00
234, 97608.30, 124806.66, 22096.13, 19125.58, 9336.23, 29290.24, 104549.68, 73391.84, 0.00, 0.00, 0.00
235, 97619.66, 124831.72, 22107.95, 19134.97, 9351.32, 29300.63, 104567.67, 73404.87, 0.00, 0.00, 0.00
236, 97617.84, 124890.88, 22107.51, 19136.89, 9342.85, 29298.69, 104561.39, 73402.01, 0.00, 0.00, 0.00
237, 97606.78, 124824.32, 22099.79, 19131.08, 9331.23, 29287.47, 104541.19, 73393.18, 0.00, 0.00, 0.00
238, 97606.22, 124809.32, 22099.86, 19130.88, 9352.66, 29290.19, 104544.65, 73393.88, 0.00, 0.00, 0.00
239, 97608.48, 124834.11, 22104.80, 19143.08, 9365.00, 29294.29, 104556.00, 73395.37, 0.00, 0.00, 0.00
240, 97611.72, 124867.46, 22102.21, 19144.58, 9364.73, 29301.68, 104560.90, 73396.87, 0.00, 0.00, 0.00
241, 97607.25, 124886.39, 22100.13, 19136.18, 9347.01, 29293.48, 104542.21, 73394.27, 0.00, 0.00, 0.00
242, 97606.40, 124851.90, 22106.93, 19134.75, 9341.75, 29291.87, 104548.29, 73392.22, 0.08, -0.19, 0.98
243, 97609.98, 124798.59, 22103.44, 19134.08, 9353.27, 29292.97, 104563.11, 73394.45, 0.00, 0.00, 0.00
244, 97609.80, 124797.41, 22101.20, 19134.90, 9345.40, 29288.85, 104558.88, 73395.73, 0.00, 0.00, 0.00
245, 97607.65, 124801.84, 22096.91, 19133.61, 9349.80, 29289.86, 104537.74, 73390.41, 0.00, 0.00, 0.00
246, 97600.12, 124799.66, 22094.16, 19131.68, 9358.76, 29286.86, 104530.39, 73384.59, 0.00, 0.00, 0.00
247, 97595.63, 124834.80, 22094.70, 19131.33, 9350.87, 29283.06, 104530.59, 73382.92, 0.00, 0.00, 0.00
248, 97589.91, 124853.11, 22097.29, 19135.73, 9347.75, 29278.59, 104526.55, 73381.49, 0.00, 0.00, 0.00
249, 97601.84, 124852.52, 22105.29, 19143.96, 9360.11, 29294.40, 104535.15, 73392.33, 0.00, 0.00, 0.00
250, 97600.37, 124838.71, 22106.95, 19135.30, 9374.95, 29297.28, 104539.98, 73387.48, 0.00, 0.00, 0.00
251, 97608.74, 124859.84, 22110.26, 19141.83, 9375.10, 29293.81, 104544.16, 73391.59, 0.00, 0.00, 0.00
252, 97608.19, 124851.61, 22107.48, 19134.28, 9365.04, 29287.69, 104530.37, 73389.38, 0.08, -0.20, 0.98
253, 97605.23, 124837.20, 22099.01, 19136.13, 9364.84, 29289.41, 104538.45, 73388.06, 0.00, 0.00, 0.00
254, 97601.59, 124773.20, 22089.04, 19132.36, 9355.79, 29285.57, 104538.30, 73388.15, 0.00, 0.00, 0.00
255, 97601.44, 124779.86, 22091.81, 19126.97, 9341.89, 29282.44, 104536.16, 73387.97, 0.00, 0.00, 0.00
0, 97601.59, 124836.12, 22099.82, 19127.44, 9342.49, 29283.58, 104563.94, 73385.20, 0.00, 0.00, 0.00
1, 97596.48, 124862.30, 22089.47, 19122.99, 9337.46, 29276.54, 104563.98, 73379.27, 0.00, 0.00, 0.00
2, 97616.39, 124935.77, 22111.89, 19144.29, 9355.43, 29294.33, 104545.23, 73399.02, 0.00, 0.00, 0.00
3, 97597.08, 124842.31, 22096.49, 19124.49, 9328.75, 29276.18, 104517.52, 73380.75, 0.00, 0.00, 0.00
4, 97603.52, 124752.81, 22092.64, 19122.36, 9349.58, 29278.30, 104525.29, 73387.59, 0.00, 0.00, 0.00
5, 97608.48, 124766.88, 22088.51, 19119.06, 9342.60, 29275.71, 104537.05, 73389.76, 0.00, 0.00, 0.00
6, 97593.97, 124801.70, 22087.01, 19114.90, 9335.67, 29265.54, 104519.88, 73374.80, 0.08, -0.20, 0.98
7, 97600.81, 124826.02, 22098.63, 19126.83, 9340.82, 29272.38, 104530.81, 73383.73, 0.00, 0.00, 0.00
8, 97600.92, 124847.45, 22098.23, 19128.53, 9347.41, 29280.74, 104545.38, 73385.54, 0.00, 0.00, 0.00
9, 97596.77, 124864.84, 22096.31, 19121.20, 9347.75, 29274.71, 104546.86, 73383.99, 0.00, 0.00, 0.00
10, 97601.86, 124873.88, 22096.26, 19117.98, 9340.41, 29273.39, 104538.93, 73387.28, 0.00, 0.00, 0.00
11, 97610.04, 124889.38, 22105.81, 19124.06, 9346.38, 29275.84, 104539.35, 73388.62, 0.00, 0.00, 0.00
12, 97608.74, 124853.76, 22097.27, 19114.79, 9348.71, 29273.21, 104545.48, 73386.74, 0.00, 0.00, 0.00
13, 97608.08, 124754.98, 22079.41, 19104.39, 9341.53, 29266.43, 104545.12, 73384.10, 0.00, 0.00, 0.00
14, 97618.24, 124829.80, 22082.23, 19113.71, 9358.36, 29272.36, 104531.93, 73387.26, 0.00, 0.00, 0.00
15, 97619.92, 124885.30, 22097.56, 19128.31, 9359.26, 29279.18, 104532.40, 73399.80, 0.00, 0.00, 0.00
16, 97589.05, 124795.89, 22081.73, 19115.52, 9344.19, 29270.01, 104512.75, 73382.85, 0.08, -0.19, 0.98
17, 97592.45, 124805.59, 22077.71, 19113.22, 9341.15, 29267.13, 104504.10, 73383.52, 0.00, 0.00, 0.00
18, 97607.96, 124856.02, 22096.46, 19128.58, 9371.06, 29280.74, 104533.65, 73397.92, 0.00, 0.00, 0.00
19, 97601.55, 124869.18, 22095.08, 19123.19, 9353.60, 29274.59, 104556.00, 73395.30, 0.00, 0.00, 0.00
20, 97589.23, 124808.34, 22087.37, 19116.44, 9342.16, 29268.07, 104554.53, 73381.29, 0.00, 0.00, 0.00
21, 97583.51, 124823.98, 22089.65, 19116.04, 9361.56, 29273.99, 104562.89, 73374.78, 0.00, 0.00, 0.00
22, 97584.25, 124839.59, 22092.57, 19112.37, 9362.94, 29277.34, 104582.18, 73379.50, 0.00, 0.00, 0.00
23, 97589.23, 124877.98, 22102.72, 19120.38, 9361.00, 29274.48, 104547.69, 73384.48, 0.00, 0.00, 0.00
24, 97582.91, 124798.01, 22087.05, 19108.08, 9348.08, 29266.23, 104539.06, 73375.27, 0.00, 0.00, 0.00
25, 97590.26, 124796.52, 22086.52, 19109.98, 9343.01, 29268.71, 104555.89, 73381.98, 0.00, 0.00, 0.00
26, 97599.96, 124871.28, 22093.51, 19114.12, 9346.92, 29273.54, 104572.14, 73391.46, 0.08, -0.19, 0.97
27, 97582.10, 124789.80, 22077.02, 19096.62, 9333.46, 29254.65, 104574.11, 73373.78, 0.00, 0.00, 0.00
28, 97591.13, 124782.14, 22088.91, 19106.18, 9340.48, 29262.66, 104582.78, 73386.18, 0.00, 0.00, 0.00
29, 97593.63, 124825.28, 22090.83, 19105.38, 9348.06, 29269.03, 104579.25, 73389.23, 0.00, 0.00, 0.00
30, 97595.09, 124836.41, 22088.71, 19103.83, 9337.42, 29265.12, 104580.14, 73389.73, 0.00, 0.00, 0.00
31, 97598.45, 124887.91, 22094.50, 19107.14, 9346.65, 29270.17, 104598.13, 73391.81, 0.00, 0.00, 0.00
32, 97592.32, 124818.71, 22084.33, 19100.77, 9346.54, 29265.00, 104618.32, 73381.55, 0.00, 0.00, 0.00
33, 97588.98, 124762.31, 22077.06, 19098.96, 9347.63, 29264.56, 104575.90, 73376.33, 0.00, 0.00, 0.00
34, 97584.56, 124805.34, 22075.05, 19092.57, 9337.78, 29256.76, 104554.86, 73371.07, 0.00, 0.00, 0.00
35, 97586.84, 124852.23, 22082.38, 19097.60, 9332.77, 29254.10, 104569.15, 73374.13, 0.00, 0.00, 0.00
36, 97588.14, 124897.77, 22090.74, 19102.87, 9322.15, 29257.74, 104590.42, 73379.77, 0.08, -0.19, 0.98
37, 97588.02, 124860.77, 22078.38, 19097.98, 9332.21, 29263.44, 104589.69, 73379.05, 0.00, 0.00, 0.00
38, 97596.52, 124838.65, 22077.80, 19099.79, 9364.38, 29276.67, 104590.54, 73381.96, 0.00, 0.00, 0.00
39, 97598.40, 124829.93, 22081.49, 19102.45, 9356.02, 29277.34, 104599.70, 73383.41, 0.00, 0.00, 0.00
40, 97588.79, 124802.95, 22077.40, 19102.16, 9343.72, 29272.94, 104604.66, 73379.08, 0.00, 0.00, 0.00
41, 97594.55, 124834.33, 22083.32, 19113.47, 9357.69, 29281.12, 104604.22, 73383.44, 0.00, 0.00, 0.00
42, 97594.40, 124765.06, 22085.80, 19111.68, 9368.82, 29278.75, 104597.02, 73380.39, 0.00, 0.00, 0.00
43, 97589.45, 124784.89, 22077.46, 19105.67, 9362.52, 29271.87, 104587.43, 73375.25, 0.00, 0.00, 0.00
44, 97585.26, 124796.52, 22070.94, 19097.78, 9353.80, 29269.12, 104578.49, 73370.72, 0.00, 0.00, 0.00
45, 97588.30, 124829.82, 22085.60, 19099.36, 9340.24, 29270.35, 104589.48, 73375.52, 0.00, 0.00, 0.00
46, 97582.93, 124838.04, 22086.21, 19097.89, 9346.54, 29267.13, 104587.88, 73369.53, 0.08, -0.19, 0.98
47, 97588.18, 124857.24, 22084.46, 19103.21, 9363.41, 29276.31, 104600.08, 73372.02, 0.00, 0.00, 0.00
48, 97591.24, 124806.30, 22075.63, 19099.77, 9353.53, 29274.91, 104594.11, 73374.38, 0.00, 0.00, 0.00
49, 97577.95, 124812.05, 22064.88, 19087.90, 9329.28, 29259.84, 104578.02, 73362.40, 0.00, 0.00, 0.00
50, 97584.90, 124896.98, 22080.39, 19094.92, 9339.14, 29268.47, 104602.79, 73371.63, 0.00, 0.00, 0.00
51, 97592.16, 124913.91, 22099.71, 19105.18, 9353.24, 29282.42, 104611.62, 73381.69, 0.00, 0.00, 0.00
52, 97581.21, 124833.84, 22081.87, 19091.61, 9344.19, 29273.95, 104604.91, 73370.29, 0.00, 0.00, 0.00
53, 97583.16, 124774.61, 22073.20, 19092.55, 9342.49, 29271.08, 104589.48, 73370.13, 0.00, 0.00, 0.00
54, 97584.61, 124814.35, 22077.20, 19095.81, 9338.22, 29271.35, 104592.95, 73371.61, 0.00, 0.00, 0.00
55, 97588.14, 124823.29, 22082.92, 19099.86, 9347.90, 29279.18, 104593.45, 73377.16, 0.00, 0.00, 0.00
56, 97581.48, 124802.05, 22080.15, 19095.03, 9346.61, 29277.52, 104590.94, 73374.80, 0.08, -0.19, 0.99
57, 97574.03, 124866.88, 22078.67, 19089.57, 9342.89, 29271.31, 104585.55, 73365.55, 0.00, 0.00, 0.00
58, 97589.37, 124922.53, 22096.22, 19104.37, 9353.15, 29285.66, 104608.46, 73379.48, 0.00, 0.00, 0.00
59, 97582.33, 124785.60, 22079.81, 19098.02, 9342.76, 29276.25, 104603.75, 73370.96, 0.00, 0.00, 0.00
60, 97577.05, 124775.37, 22074.98, 19093.60, 9333.71, 29271.46, 104613.40, 73366.70, 0.00, 0.00, 0.00
61, 97578.77, 124776.89, 22077.91, 19094.85, 9335.07, 29274.35, 104604.38, 73370.16, 0.00, 0.00, 0.00
62, 97579.35, 124804.90, 22078.67, 19098.63, 9343.77, 29273.23, 104593.55, 73370.45, 0.00, 0.00, 0.00
63, 97577.37, 124811.31, 22078.16, 19097.08, 9367.48, 29279.51, 104583.61, 73368.10, 0.00, 0.00, 0.00
64, 97575.60, 124819.00, 22073.38, 19092.72, 9366.05, 29275.38, 104583.05, 73369.84, 0.00, 0.00, 0.00
65, 97573.66, 124832.68, 22080.48, 19097.31, 9360.08, 29275.33, 104594.67, 73370.91, 0.00, 0.00, 0.00
66, 97577.79, 124858.78, 22090.70, 19101.33, 9365.63, 29281.28, 104609.09, 73375.43, 0.08, -0.19, 0.99
67, 97585.73, 124915.76, 22092.98, 19099.03, 9366.52, 29285.75, 104602.34, 73375.77, 0.00, 0.00, 0.00
68, 97580.72, 124868.91, 22075.54, 19086.82, 9352.19, 29276.11, 104600.57, 73370.02, 0.00, 0.00, 0.00
69, 97592.88, 124911.38, 22084.55, 19098.20, 9356.24, 29284.76, 104629.14, 73390.79, 0.00, 0.00, 0.00
70, 97588.07, 124800.80, 22071.36, 19085.30, 9337.84, 29272.89, 104607.26, 73394.55, 0.00, 0.00, 0.00
71, 97588.18, 124743.16, 22061.28, 19075.04, 9322.15, 29260.58, 104589.27, 73391.68, 0.00, 0.00, 0.00
72, 97566.50, 124800.78, 22065.04, 19075.20, 9330.38, 29262.28, 104585.17, 73357.33, 0.00, 0.00, 0.00
73, 97573.01, 124855.59, 22085.04, 19090.65, 9337.82, 29280.45, 104594.11, 73369.13, 0.00, 0.00, 0.00
74, 97571.75, 124830.24, 22076.84, 19082.94, 9349.80, 29276.87, 104587.85, 73371.27, 0.00, 0.00, 0.00
75, 97586.28, 124809.19, 22063.32, 19073.50, 9341.29, 29270.66, 104593.89, 73377.29, 0.00, 0.00, 0.00
76, 97591.80, 124874.88, 22078.02, 19085.57, 9340.88, 29279.71, 104592.93, 73379.45, 0.08, -0.19, 0.98
77, 97577.23, 124844.75, 22069.82, 19081.44, 9344.68, 29276.80, 104595.19, 73370.13, 0.00, 0.00, 0.00
78, 97583.76, 124834.00, 22072.82, 19083.14, 9356.35, 29278.06, 104590.70, 73378.47, 0.00, 0.00, 0.00
79, 97583.76, 124832.12, 22074.20, 19083.99, 9345.46, 29275.71, 104589.51, 73378.41, 0.00, 0.00, 0.00
80, 97586.80, 124806.02, 22063.29, 19072.88, 9333.60, 29271.20, 104589.46, 73374.20, 0.00, 0.00, 0.00
81, 97594.22, 124844.52, 22078.20, 19089.42, 9347.99, 29284.90, 104603.84, 73381.02, 0.00, 0.00, 0.00
82, 97581.25, 124838.13, 22075.77, 19087.43, 9340.55, 29280.92, 104615.70, 73374.54, 0.00, 0.00, 0.00
83, 97575.80, 124837.08, 22068.75, 19076.61, 9316.63, 29266.77, 104575.74, 73370.13, 0.00, 0.00, 0.00
84, 97569.74, 124809.99, 22064.23, 19071.94, 9329.44, 29264.54, 104551.51, 73360.68, 0.00, 0.00, 0.00
85, 97581.88, 124862.52, 22082.63, 19089.28, 9349.09, 29280.90, 104582.29, 73376.33, 0.00, 0.00, 0.00
86, 97593.21, 124926.29, 22085.94, 19094.94, 9354.07, 29290.80, 104611.01, 73391.80, 0.08, -0.19, 0.99
87, 97584.05, 124848.84, 22074.09, 19081.13, 9340.97, 29281.30, 104605.18, 73381.94, 0.00, 0.00, 0.00
88, 97579.76, 124795.13, 22068.95, 19075.56, 9338.36, 29280.31, 104596.48, 73379.79, 0.00, 0.00, 0.00
89, 97579.09, 124807.84, 22067.83, 19080.14, 9336.86, 29281.30, 104581.02, 73382.63, 0.00, 0.00, 0.00
90, 97582.59, 124789.09, 22067.50, 19079.96, 9341.78, 29284.54, 104591.90, 73383.70, 0.00, 0.00, 0.00
91, 97584.45, 124829.26, 22073.08, 19084.54, 9345.55, 29283.71, 104591.54, 73381.02, 0.00, 0.00, 0.00
92, 97585.05, 124847.30, 22074.54, 19085.77, 9346.29, 29282.26, 104577.59, 73382.54, 0.00, 0.00, 0.00
93, 97582.84, 124829.08, 22071.12, 19077.59, 9332.79, 29274.95, 104580.97, 73381.53, 0.00, 0.00, 0.00
94, 97583.53, 124806.57, 22066.20, 19073.21, 9335.45, 29278.82, 104581.75, 73379.84, 0.00, 0.00, 0.00
95, 97578.68, 124828.25, 22063.92, 19068.07, 9333.19, 29278.97, 104580.19, 73376.44, 0.00, 0.00, 0.00
96, 97576.67, 124873.98, 22067.54, 19069.14, 9336.19, 29279.00, 104583.56, 73375.97, 0.09, -0.19, 0.98
97, 97577.88, 124835.80, 22065.93, 19074.96, 9342.13, 29281.63, 104594.16, 73379.16, 0.00, 0.00, 0.00
98, 97587.53, 124810.15, 22063.50, 19078.71, 9338.27, 29284.56, 104603.39, 73383.41, 0.00, 0.00, 0.00
99, 97596.63, 124878.05, 22069.46, 19075.25, 9336.10, 29286.57, 104607.19, 73391.17, 0.00, 0.00, 0.00
100, 97597.34, 124880.94, 22062.00, 19068.41, 9333.84, 29280.31, 104592.68, 73390.41, 0.00, 0.00, 0.00
101, 97587.73, 124801.09, 22052.41, 19062.82, 9324.43, 29269.68, 104578.51, 73380.93, 0.00, 0.00, 0.00
102, 97582.70, 124822.04, 22063.36, 19062.35, 9333.66, 29269.34, 104568.68, 73379.99, 0.00, 0.00, 0.00
103, 97581.14, 124839.72, 22067.56, 19062.48, 9333.26, 29268.40, 104571.83, 73379.61, 0.00, 0.00, 0.00
104, 97583.55, 124898.26, 22072.86, 19068.34, 9329.06, 29273.10, 104582.06, 73383.39, 0.00, 0.00, 0.00
105, 97580.90, 124956.73, 22066.11, 19062.86, 9316.90, 29268.63, 104596.30, 73375.50, 0.00, 0.00, 0.00
106, 97575.29, 124826.29, 22059.67, 19060.07, 9319.20, 29262.70, 104598.94, 73367.01, 0.08, -0.19, 0.98
107, 97578.34, 124794.03, 22064.05, 19063.40, 9322.64, 29264.31, 104584.45, 73373.66, 0.00, 0.00, 0.00
108, 97581.39, 124819.76, 22066.16, 19064.49, 9334.67, 29273.77, 104589.89, 73379.61, 0.00, 0.00, 0.00
109, 97568.34, 124762.07, 22049.88, 19057.74, 9327.85, 29262.41, 104566.28, 73364.30, 0.00, 0.00, 0.00
110, 97581.50, 124825.01, 22067.32, 19072.94, 9337.22, 29274.06, 104571.88, 73380.91, 0.00, 0.00, 0.00
111, 97588.38, 124897.27, 22075.03, 19075.94, 9344.04, 29275.62, 104588.23, 73387.28, 0.00, 0.00, 0.00
112, 97588.54, 124922.91, 22074.67, 19074.62, 9342.51, 29272.60, 104594.34, 73387.99, 0.00, 0.00, 0.00
113, 97577.61, 124864.02, 22064.88, 19064.29, 9327.23, 29262.03, 104583.41, 73376.53, 0.00, 0.00, 0.00
114, 97567.41, 124743.85, 22046.71, 19052.71, 9315.38, 29251.23, 104580.19, 73362.13, 0.00, 0.00, 0.00
115, 97569.79, 124818.69, 22058.71, 19065.26, 9334.54, 29255.84, 104571.27, 73364.63, 0.00, 0.00, 0.00
116, 97579.63, 124832.27, 22065.39, 19075.58, 9350.00, 29266.95, 104573.95, 73375.21, 0.08, -0.19, 0.98
117, 97572.24, 124807.55, 22055.52, 19066.30, 9338.47, 29262.12, 104580.48, 73366.31, 0.00, 0.00, 0.00
118, 97575.42, 124821.14, 22058.24, 19070.48, 9339.52, 29270.44, 104593.35, 73371.01, 0.00, 0.00, 0.00
119, 97577.16, 124884.40, 22067.00, 19077.57, 9336.75, 29272.58, 104596.28, 73374.92, 0.00, 0.00, 0.00
120, 97591.98, 124955.97, 22092.26, 19091.63, 9360.33, 29287.74, 104597.02, 73389.34, 0.00, 0.00, 0.00
121, 97580.74, 124932.14, 22086.29, 19079.52, 9361.47, 29277.30, 104573.68, 73380.02, 0.00, 0.00, 0.00
122, 97576.78, 124753.51, 22064.88, 19074.20, 9350.09, 29271.49, 104577.86, 73372.68, 0.00, 0.00, 0.00
123, 97586.08, 124780.64, 22052.90, 19062.88, 9341.20, 29271.42, 104581.23, 73373.94, 0.00, 0.00, 0.00
124, 97584.02, 124810.86, 22053.77, 19058.13, 9331.52, 29267.28, 104580.77, 73376.04, 0.00, 0.00, 0.00
125, 97567.75, 124821.10, 22047.18, 19045.32, 9303.33, 29245.76, 104562.87, 73362.98, 0.00, 0.00, 0.00
126, 97571.28, 124858.80, 22049.35, 19041.09, 9302.71, 29239.68, 104572.74, 73366.05, 0.08, -0.19, 0.99
127, 97582.48, 124891.27, 22063.61, 19060.43, 9339.39, 29262.08, 104595.16, 73380.39, 0.00, 0.00, 0.00
128, 97573.43, 124823.36, 22050.44, 19050.93, 9333.04, 29255.08, 104577.64, 73375.57, 0.00, 0.00, 0.00
129, 97570.46, 124774.30, 22035.71, 19044.27, 9323.87, 29247.77, 104556.23, 73370.18, 0.00, 0.00, 0.00
130, 97578.08, 124835.12, 22055.52, 19062.60, 9330.65, 29257.58, 104575.12, 73374.83, 0.00, 0.00, 0.00
131, 97577.07, 124829.88, 22065.60, 19072.47, 9326.82, 29261.99, 104593.55, 73377.34, 0.00, 0.00, 0.00
132, 97574.84, 124841.02, 22066.87, 19067.02, 9340.37, 29259.80, 104582.04, 73373.38, 0.00, 0.00, 0.00
133, 97575.45, 124816.52, 22058.62, 19063.00, 9353.06, 29258.61, 104568.19, 73365.80, 0.00, 0.00, 0.00
134, 97575.98, 124842.67, 22064.88, 19073.84, 9347.59, 29260.53, 104586.91, 73370.07, 0.00, 0.00, 0.00
135, 97579.13, 124842.40, 22060.32, 19071.74, 9339.21, 29258.79, 104584.45, 73372.66, 0.09, -0.19, 0.99
136, 97581.03, 124826.82, 22053.82, 19063.56, 9342.78, 29259.26, 104582.11, 73372.05, 0.00, 0.00, 0.00
137, 97582.37, 124857.40, 22055.65, 19068.36, 9339.94, 29261.20, 104576.66, 73376.82, 0.00, 0.00, 0.00
138, 97579.13, 124922.73, 22057.55, 19070.37, 9322.98, 29257.31, 104567.52, 73378.30, 0.00, 0.00, 0.00
139, 97571.69, 124858.72, 22055.45, 19060.07, 9339.07, 29258.21, 104578.71, 73369.55, 0.00, 0.00, 0.00
140, 97579.17, 124823.45, 22059.54, 19062.60, 9346.96, 29264.76, 104593.06, 73372.41, 0.00, 0.00, 0.00
141, 97573.14, 124846.70, 22054.55, 19059.71, 9343.65, 29252.73, 104570.38, 73368.39, 0.00, 0.00, 0.00
142, 97579.40, 124917.75, 22061.82, 19068.47, 9359.55, 29263.80, 104575.27, 73374.94, 0.00, 0.00, 0.00
143, 97571.13, 124828.99, 22054.76, 19061.63, 9350.32, 29256.33, 104577.59, 73366.09, 0.00, 0.00, 0.00
144, 97574.62, 124801.19, 22049.88, 19063.06, 9344.44, 29257.56, 104581.08, 73372.21, 0.00, 0.00, 0.00
145, 97570.19, 124819.31, 22041.79, 19058.39, 9341.00, 29253.67, 104567.52, 73365.44, 0.08, -0.19, 0.99
146, 97577.72, 124852.80, 22058.73, 19064.76, 9342.07, 29254.05, 104570.84, 73369.89, 0.00, 0.00, 0.00
147, 97579.94, 124884.40, 22063.47, 19064.96, 9349.38, 29259.06, 104579.70, 73374.72, 0.00, 0.00, 0.00
148, 97570.13, 124782.90, 22049.68, 19054.48, 9340.15, 29250.05, 104564.48, 73361.20, 0.00, 0.00, 0.00
149, 97578.86, 124824.43, 22053.93, 19059.78, 9335.83, 29253.36, 104567.67, 73364.59, 0.00, 0.00, 0.00
150, 97580.18, 124852.28, 22052.63, 19056.65, 9327.52, 29252.96, 104580.77, 73367.77, 0.00, 0.00, 0.00
151, 97574.95, 124852.88, 22051.09, 19052.80, 9320.10, 29247.30, 104574.06, 73366.54, 0.00, 0.00, 0.00
152, 97577.81, 124877.76, 22052.88, 19050.86, 9331.61, 29252.91, 104570.46, 73368.98, 0.00, 0.00, 0.00
153, 97580.59, 124863.59, 22052.01, 19040.22, 9336.77, 29254.25, 104578.40, 73369.30, 0.00, 0.00, 0.00
154, 97581.63, 124846.09, 22062.20, 19048.65, 9327.85, 29250.81, 104576.90, 73369.35, 0.00, 0.00, 0.00
155, 97569.23, 124845.73, 22044.45, 19047.75, 9308.63, 29235.57, 104561.93, 73359.97, 0.08, -0.19, 0.98
156, 97586.39, 124890.46, 22057.64, 19061.79, 9323.61, 29251.41, 104586.55, 73379.05, 0.00, 0.00, 0.00
157, 97582.86, 124802.50, 22058.04, 19061.66, 9348.59, 29258.50, 104569.50, 73378.72, 0.00, 0.00, 0.00
158, 97582.46, 124822.82, 22062.65, 19059.24, 9349.13, 29258.50, 104553.48, 73377.00, 0.00, 0.00, 0.00
159, 97576.96, 124848.52, 22057.88, 19056.63, 9340.59, 29256.46, 104551.24, 73368.99, 0.00, 0.00, 0.00
160, 97575.17, 124862.92, 22065.73, 19066.39, 9341.31, 29256.04, 104551.80, 73364.68, 0.00, 0.00, 0.00
161, 97573.48, 124839.83, 22064.26, 19065.68, 9332.93, 29250.90, 104558.40, 73361.30, 0.00, 0.00, 0.00
162, 97573.14, 124809.81, 22052.28, 19055.09, 9338.31, 29244.84, 104564.77, 73361.75, 0.00, 0.00, 0.00
163, 97571.20, 124859.79, 22050.53, 19051.55, 9340.82, 29253.76, 104562.73, 73362.55, 0.00, 0.00, 0.00
164, 97587.98, 124933.75, 22069.46, 19065.01, 9349.91, 29268.29, 104561.79, 73380.08, 0.00, 0.00, 0.00
165, 97582.95, 124908.34, 22062.18, 19059.87, 9345.78, 29263.04, 104561.37, 73376.33, 0.07, -0.19, 0.98
166, 97581.03, 124829.33, 22059.96, 19061.86, 9342.92, 29264.60, 104569.81, 73376.44, 0.00, 0.00, 0.00
167, 97571.28, 124801.32, 22047.42, 19049.59, 9341.22, 29257.58, 104550.59, 73367.88, 0.00, 0.00, 0.00
168, 97578.66, 124829.73, 22059.70, 19061.84, 9350.79, 29265.09, 104569.52, 73377.82, 0.00, 0.00, 0.00
169, 97583.24, 124830.40, 22056.28, 19062.42, 9332.05, 29258.34, 104560.92, 73379.14, 0.00, 0.00, 0.00
170, 97583.40, 124811.20, 22046.64, 19052.25, 9328.95, 29255.44, 104554.02, 73377.51, 0.00, 0.00, 0.00
171, 97585.27, 124856.30, 22048.88, 19051.73, 9343.23, 29262.66, 104594.00, 73380.73, 0.00, 0.00, 0.00
172, 97590.10, 124928.21, 22065.48, 19063.33, 9353.00, 29270.99, 104630.05, 73386.79, 0.00, 0.00, 0.00
173, 97585.32, 124927.13, 22055.43, 19049.90, 9334.98, 29264.89, 104636.42, 73381.04, 0.00, 0.00, 0.00
174, 97578.73, 124822.62, 22040.61, 19039.39, 9317.26, 29254.61, 104628.42, 73373.35, 0.00, 0.00, 0.00
175, 97593.26, 124867.44, 22059.14, 19057.57, 9338.02, 29268.45, 104669.59, 73386.12, 0.07, -0.19, 0.98
176, 97588.96, 124787.05, 22061.24, 19061.68, 9337.51, 29258.92, 104691.14, 73378.27, 0.00, 0.00, 0.00
177, 97589.48, 124829.66, 22066.33, 19061.77, 9344.50, 29260.06, 104707.37, 73379.34, 0.00, 0.00, 0.00
178, 97583.89, 124836.12, 22060.39, 19055.51, 9336.70, 29256.69, 104717.74, 73380.80, 0.00, 0.00, 0.00
179, 97590.04, 124854.52, 22059.74, 19055.40, 9337.24, 29260.09, 104728.07, 73386.79, 0.00, 0.00, 0.00
180, 97583.96, 124889.23, 22062.69, 19054.04, 9300.81, 29244.75, 104741.27, 73380.17, 0.00, 0.00, 0.00
181, 97582.55, 124811.16, 22055.09, 19050.64, 9288.76, 29237.69, 104755.67, 73376.86, 0.00, 0.00, 0.00
182, 97589.55, 124787.98, 22054.20, 19048.76, 9350.25, 29243.77, 104753.52, 73378.20, 0.00, 0.00, 0.00
183, 97598.91, 124839.92, 22059.20, 19051.24, 9350.38, 29247.64, 104757.30, 73387.08, 0.00, 0.00, 0.00
184, 97597.64, 124864.71, 22061.24, 19059.04, 9352.04, 29255.97, 104762.65, 73392.55, 0.00, 0.00, 0.00
185, 97592.05, 124896.91, 22058.78, 19058.08, 9345.91, 29254.88, 104775.77, 73391.66, 0.08, -0.19, 0.98
186, 97589.21, 124881.45, 22060.05, 19053.83, 9336.55, 29245.20, 104796.55, 73388.24, 0.00, 0.00, 0.00
187, 97586.35, 124860.38, 22058.58, 19045.90, 9330.27, 29237.06, 104801.05, 73381.29, 0.00, 0.00, 0.00
188, 97597.30, 124935.95, 22073.24, 19059.13, 9342.13, 29250.63, 104809.77, 73392.76, 0.00, 0.00, 0.00
189, 97590.53, 124861.47, 22063.83, 19052.94, 9331.92, 29242.54, 104821.61, 73386.45, 0.00, 0.00, 0.00
190, 97588.18, 124768.88, 22053.04, 19045.32, 9325.35, 29234.79, 104819.35, 73383.14, 0.00, 0.00, 0.00
191, 97590.53, 124818.02, 22049.53, 19042.54, 9323.78, 29235.12, 104807.64, 73385.42, 0.00, 0.00, 0.00
192, 97585.43, 124848.93, 22044.14, 19035.35, 9326.26, 29235.79, 104813.34, 73381.38, 0.00, 0.00, 0.00
193, 97599.25, 124845.69, 22052.70, 19047.98, 9332.28, 29251.57, 104841.73, 73397.78, 0.00, 0.00, 0.00
194, 97596.16, 124887.15, 22056.70, 19051.24, 9335.23, 29252.98, 104841.99, 73394.45, 0.00, 0.00, 0.00
195, 97591.71, 124863.95, 22051.87, 19050.59, 9329.57, 29253.27, 104841.63, 73390.59, 0.08, -0.19, 0.98
196, 97593.77, 124831.45, 22053.44, 19051.69, 9345.44, 29261.47, 104854.60, 73391.88, 0.00, 0.00, 0.00
197, 97593.79, 124920.77, 22063.23, 19057.10, 9348.21, 29264.60, 104868.21, 73393.36, 0.00, 0.00, 0.00
198, 97589.95, 124905.52, 22056.12, 19042.93, 9326.47, 29259.04, 104884.95, 73389.54, 0.00, 0.00, 0.00
199, 97573.16, 124737.84, 22029.43, 19029.29, 9324.19, 29245.56, 104886.36, 73370.78, 0.00, 0.00, 0.00
200, 97588.14, 124822.66, 22051.43, 19055.11, 9341.98, 29260.44, 104866.65, 73386.67, 0.00, 0.00, 0.00
201, 97584.23, 124881.43, 22050.53, 19051.26, 9326.87, 29251.66, 104851.18, 73385.18, 0.00, 0.00, 0.00
202, 97593.14, 124850.60, 22055.74, 19054.62, 9335.18, 29258.30, 104866.78, 73393.05, 0.00, 0.00, 0.00
203, 97590.20, 124837.80, 22058.04, 19051.84, 9339.99, 29261.74, 104874.80, 73392.76, 0.00, 0.00, 0.00
204, 97591.58, 124866.02, 22064.88, 19053.14, 9336.95, 29261.03, 104891.66, 73395.57, 0.00, 0.00, 0.00
205, 97591.87, 124912.81, 22070.36, 19057.61, 9329.68, 29256.26, 104892.73, 73394.50, 0.09, -0.19, 0.98
206, 97588.00, 124876.78, 22065.84, 19058.30, 9329.77, 29258.03, 104894.19, 73391.75, 0.00, 0.00, 0.00
207, 97582.04, 124811.02, 22058.20, 19060.25, 9343.03, 29252.17, 104897.38, 73383.91, 0.00, 0.00, 0.00
208, 97586.98, 124797.36, 22057.51, 19060.76, 9358.83, 29262.63, 104889.47, 73391.08, 0.00, 0.00, 0.00
209, 97589.41, 124882.50, 22066.22, 19061.54, 9347.86, 29262.86, 104896.29, 73399.08, 0.00, 0.00, 0.00
210, 97586.35, 124852.84, 22060.25, 19055.87, 9330.49, 29254.37, 104910.66, 73394.14, 0.00, 0.00, 0.00
211, 97577.34, 124814.46, 22051.43, 19046.86, 9331.00, 29247.55, 104887.63, 73386.88, 0.00, 0.00, 0.00
212, 97587.58, 124909.19, 22068.86, 19061.28, 9359.01, 29260.18, 104897.94, 73400.20, 0.00, 0.00, 0.00
213, 97581.81, 124895.95, 22064.57, 19054.88, 9355.93, 29253.00, 104888.71, 73390.56, 0.00, 0.00, 0.00
214, 97581.21, 124795.28, 22053.71, 19052.27, 9346.52, 29253.04, 104900.27, 73390.70, 0.00, 0.00, 0.00
215, 97583.35, 124816.38, 22052.74, 19055.67, 9340.88, 29254.43, 104905.23, 73394.72, 0.08, -0.19, 0.98
216, 97580.45, 124849.24, 22052.41, 19046.14, 9330.49, 29246.12, 104897.54, 73389.78, 0.00, 0.00, 0.00
217, 97591.13, 124871.84, 22059.96, 19051.69, 9337.44, 29251.95, 104926.77, 73398.30, 0.00, 0.00, 0.00
218, 97590.98, 124848.21, 22060.50, 19053.30, 9346.63, 29258.01, 104924.78, 73396.66, 0.00, 0.00, 0.00
219, 97587.02, 124844.26, 22058.22, 19051.58, 9338.47, 29254.72, 104895.70, 73395.91, 0.00, 0.00, 0.00
220, 97588.74, 124870.27, 22062.80, 19052.25, 9332.37, 29255.84, 104903.86, 73400.55, 0.00, 0.00, 0.00
221, 97582.20, 124887.15, 22059.00, 19049.72, 9336.59, 29251.62, 104919.82, 73393.76, 0.00, 0.00, 0.00
222, 97585.61, 124921.73, 22057.44, 19050.01, 9334.60, 29250.01, 104930.35, 73392.09, 0.00, 0.00, 0.00
223, 97593.57, 124884.69, 22059.45, 19051.02, 9340.15, 29260.53, 104927.22, 73396.89, 0.00, 0.00, 0.00
224, 97585.52, 124823.38, 22046.84, 19039.82, 9314.24, 29241.33, 104907.30, 73389.91, 0.00, 0.00, 0.00
225, 97585.05, 124814.88, 22044.03, 19035.93, 9314.08, 29238.07, 104907.73, 73389.91, 0.08, -0.20, 0.98
226, 97592.95, 124849.09, 22056.72, 19045.47, 9329.33, 29243.30, 104906.26, 73398.52, 0.00, 0.00, 0.00
227, 97598.58, 124839.70, 22059.23, 19050.35, 9342.16, 29251.57, 104911.35, 73404.09, 0.00, 0.00, 0.00
228, 97607.92, 124870.63, 22046.71, 19037.79, 9318.75, 29239.41, 104912.89, 73399.35, 0.00, 0.00, 0.00
229, 97612.37, 124933.04, 22055.63, 19042.34, 9305.59, 29233.98, 104928.77, 73410.30, 0.00, 0.00, 0.00
230, 97587.45, 124961.96, 22071.36, 19057.61, 9313.59, 29245.74, 104954.80, 73405.79, 0.00, 0.00, 0.00
231, 97579.95, 124842.29, 22054.42, 19045.45, 9334.58, 29244.53, 104917.30, 73398.16, 0.00, 0.00, 0.00
232, 97592.81, 124821.26, 22050.22, 19046.10, 9350.72, 29248.15, 104908.94, 73410.77, 0.00, 0.00, 0.00
233, 97586.93, 124808.09, 22044.05, 19041.72, 9343.57, 29249.47, 104913.09, 73407.06, 0.00, 0.00, 0.00
234, 97584.49, 124787.64, 22045.01, 19044.89, 9348.82, 29254.88, 104923.55, 73405.59, 0.00, 0.00, 0.00
235, 97583.76, 124798.99, 22042.91, 19042.28, 9332.59, 29249.38, 104937.70, 73404.87, 0.08, -0.19, 0.98
236, 97591.85, 124843.97, 22056.57, 19055.51, 9342.27, 29263.82, 104957.77, 73418.62, 0.00, 0.00, 0.00
237, 97587.00, 124862.61, 22057.66, 19054.66, 9348.46, 29266.28, 104961.04, 73415.20, 0.00, 0.00, 0.00
238, 97583.04, 124878.66, 22055.20, 19052.98, 9346.40, 29265.94, 104932.02, 73403.75, 0.00, 0.00, 0.00
239, 97584.90, 124956.40, 22059.18, 19051.55, 9349.98, 29264.87, 104931.91, 73400.65, 0.00, 0.00, 0.00
240, 97590.87, 124962.30, 22066.22, 19061.46, 9349.04, 29265.03, 104941.84, 73404.69, 0.00, 0.00, 0.00
241, 97586.02, 124813.91, 22048.70, 19052.96, 9326.56, 29258.07, 104935.70, 73400.35, 0.00, 0.00, 0.00
242, 97588.07, 124791.26, 22044.83, 19048.20, 9354.74, 29265.67, 104951.27, 73402.81, 0.00, 0.00, 0.00
243, 97590.02, 124802.97, 22048.61, 19046.37, 9364.22, 29267.33, 104949.64, 73401.92, 0.00, 0.00, 0.00
244, 97590.62, 124827.58, 22050.69, 19043.48, 9345.06, 29263.04, 104937.50, 73402.12, 0.00, 0.00, 0.00
245, 97589.59, 124847.20, 22050.58, 19043.53, 9323.92, 29256.29, 104937.26, 73401.74, 0.08, -0.20, 0.98
246, 97594.15, 124875.08, 22057.71, 19051.73, 9349.06, 29260.09, 104938.55, 73404.40, 0.00, 0.00, 0.00
247, 97592.43, 124929.53, 22062.18, 19055.11, 9359.14, 29262.59, 104932.14, 73401.70, 0.00, 0.00, 0.00
248, 97578.19, 124876.15, 22042.78, 19039.44, 9335.56, 29249.38, 104921.55, 73386.41, 0.00, 0.00, 0.00
249, 97596.20, 124867.52, 22058.56, 19050.59, 9339.47, 29262.08, 104946.48, 73405.67, 0.00, 0.00, 0.00
250, 97589.75, 124806.08, 22045.88, 19039.06, 9326.20, 29248.73, 104936.50, 73399.23, 0.00, 0.00, 0.00
251, 97585.16, 124855.30, 22043.89, 19033.76, 9320.10, 29243.95, 104944.21, 73397.34, 0.00, 0.00, 0.00
252, 97598.06, 124886.12, 22056.41, 19044.96, 9340.15, 29263.06, 104966.98, 73412.13, 0.00, 0.00, 0.00
253, 97598.35, 124840.81, 22048.23, 19033.94, 9331.32, 29259.71, 104958.06, 73415.06, 0.00, 0.00, 0.00
254, 97591.55, 124818.41, 22043.92, 19037.00, 9313.17, 29246.65, 104925.95, 73408.29, 0.00, 0.00, 0.00
255, 97595.27, 124866.85, 22049.41, 19037.00, 9299.38, 29239.01, 104928.63, 73407.35, 0.08, -0.19, 0.98
0, 97601.15, 124949.04, 22061.82, 19053.63, 9348.57, 29273.21, 104954.53, 73414.70, 0.00, 0.00, 0.00
1, 97593.99, 124894.97, 22055.31, 19054.15, 9357.92, 29268.74, 104958.09, 73405.05, 0.00, 0.00, 0.00
2, 97599.02, 124806.68, 22047.40, 19048.02, 9361.11, 29266.17, 104948.50, 73406.50, 0.00, 0.00, 0.00
3, 97605.70, 124835.85, 22048.95, 19047.73, 9349.71, 29266.32, 104958.73, 73415.51, 0.00, 0.00, 0.00
4, 97608.57, 124880.66, 22051.25, 19045.00, 9341.67, 29264.67, 104949.73, 73422.55, 0.00, 0.00, 0.00
5, 97601.86, 124864.88, 22041.12, 19031.93, 9332.93, 29257.05, 104944.32, 73416.11, 0.00, 0.00, 0.00
6, 97615.27, 124939.16, 22060.39, 19049.97, 9354.52, 29276.45, 104973.22, 73431.54, 0.00, 0.00, 0.00
7, 97614.45, 124939.72, 22064.50, 19051.53, 9350.90, 29275.44, 104977.49, 73430.40, 0.00, 0.00, 0.00
8, 97603.34, 124843.52, 22046.84, 19039.42, 9341.58, 29266.97, 104955.01, 73418.08, 0.00, 0.00, 0.00
9, 97585.77, 124851.05, 22029.59, 19024.75, 9326.22, 29251.46, 104934.28, 73404.02, 0.08, -0.19, 0.99
10, 97608.37, 124886.92, 22052.99, 19041.85, 9342.67, 29269.79, 104973.40, 73425.63, 0.00, 0.00, 0.00
11, 97608.26, 124837.30, 22044.03, 19037.65, 9338.47, 29267.51, 104978.25, 73427.69, 0.00, 0.00, 0.00
12, 97605.10, 124852.66, 22048.01, 19041.07, 9342.67, 29267.66, 104946.60, 73427.34, 0.00, 0.00, 0.00
13, 97594.33, 124883.20, 22046.58, 19030.48, 9341.22, 29257.22, 104933.34, 73412.94, 0.00, 0.00, 0.00
14, 97591.45, 124840.81, 22034.04, 19025.09, 9332.23, 29250.14, 104936.54, 73410.46, 0.00, 0.00, 0.00
15, 97611.90, 124897.70, 22047.63, 19041.00, 9343.97, 29266.72, 104968.66, 73430.53, 0.00, 0.00, 0.00
16, 97613.33, 124904.12, 22045.93, 19039.62, 9350.79, 29270.41, 104976.69, 73429.61, 0.00, 0.00, 0.00
17, 97603.91, 124800.65, 22033.19, 19033.18, 9345.98, 29272.85, 104943.20, 73419.69, 0.00, 0.00, 0.00
18, 97604.72, 124828.54, 22037.99, 19032.00, 9329.57, 29268.42, 104953.15, 73418.23, 0.00, 0.00, 0.00
19, 97600.63, 124865.58, 22043.92, 19027.77, 9327.16, 29267.24, 104953.38, 73414.37, 0.09, -0.19, 0.98
20, 97596.84, 124874.03, 22038.04, 19022.90, 9334.27, 29265.41, 104940.97, 73415.22, 0.00, 0.00, 0.00
21, 97588.25, 124833.26, 22032.09, 19014.20, 9331.81, 29261.83, 104930.95, 73408.24, 0.00, 0.00, 0.00
22, 97598.66, 124850.42, 22034.64, 19013.58, 9326.98, 29262.25, 104939.05, 73412.34, 0.00, 0.00, 0.00
23, 97602.63, 124887.82, 22041.12, 19023.84, 9325.91, 29265.38, 104947.94, 73417.30, 0.00, 0.00, 0.00
24, 97601.75, 124962.09, 22046.17, 19028.11, 9327.92, 29266.50, 104957.71, 73423.02, 0.00, 0.00, 0.00
25, 97587.34, 124849.06, 22032.79, 19017.29, 9315.78, 29250.77, 104959.36, 73410.37, 0.00, 0.00, 0.00
26, 97583.17, 124836.45, 22029.32, 19017.13, 9324.34, 29254.16, 104948.84, 73401.02, 0.00, 0.00, 0.00
