%OpenBCI Raw EEG Data
%Sample Rate = 250.0 Hz
%First Column = SampleIndex
%Other Columns = EEG data in microvolts followed by Accel Data (in G) interleaved with Aux Data
237, 102477.89, 114112.76, 29324.35, 23161.77, 19773.31, 34900.04, 92639.80, 77139.84, 0.00, 0.00, 0.00
238, 102485.29, 114126.95, 29350.86, 23173.55, 19777.74, 34917.31, 92631.15, 77146.84, 0.00, 0.00, 0.00
239, 102489.52, 114265.11, 29373.86, 23187.27, 19810.31, 34928.24, 92623.08, 77149.34, 0.00, 0.00, 0.00
240, 102487.28, 114262.63, 29355.28, 23185.08, 19816.65, 34945.66, 92628.55, 77148.48, 0.00, 0.00, 0.00
241, 102481.80, 114146.24, 29322.16, 23173.53, 19788.76, 34968.48, 92650.21, 77143.67, 0.08, -0.20, 0.98
242, 102480.78, 114183.52, 29323.48, 23164.05, 19782.84, 34897.42, 92654.08, 77142.55, 0.00, 0.00, 0.00
243, 102490.44, 114224.48, 29344.84, 23175.07, 19794.10, 34890.91, 92644.24, 77156.12, 0.00, 0.00, 0.00
244, 102487.95, 114156.95, 29338.16, 23173.97, 19804.16, 34904.57, 92623.68, 77153.30, 0.00, 0.00, 0.00
245, 102485.09, 114198.12, 29344.17, 23175.90, 19796.11, 34914.07, 92628.77, 77150.69, 0.00, 0.00, 0.00
246, 102488.06, 114262.41, 29338.29, 23175.67, 19791.26, 34919.86, 92650.73, 77155.05, 0.00, 0.00, 0.00
247, 102491.08, 114317.30, 29352.38, 23187.90, 19793.79, 34914.16, 92654.33, 77158.51, 0.00, 0.00, 0.00
248, 102479.05, 114233.48, 29342.23, 23172.63, 19786.17, 34904.26, 92627.13, 77145.12, 0.00, 0.00, 0.00
249, 102480.87, 114107.10, 29340.06, 23167.72, 19821.17, 34913.67, 92621.96, 77147.40, 0.00, 0.00, 0.00
250, 102483.93, 114126.17, 29349.92, 23175.83, 19819.04, 34917.65, 92622.92, 77148.63, 0.00, 0.00, 0.00
251, 102488.69, 114231.65, 29337.16, 23179.23, 19813.88, 34926.63, 92638.10, 77155.09, 0.08, -0.20, 0.98
252, 102485.18, 114257.82, 29339.48, 23171.85, 19802.48, 34949.66, 92642.75, 77154.71, 0.00, 0.00, 0.00
253, 102484.84, 114199.06, 29339.14, 23168.48, 19793.36, 34943.60, 92629.11, 77152.59, 0.00, 0.00, 0.00
254, 102490.30, 114189.31, 29338.68, 23177.51, 19800.43, 34911.48, 92633.27, 77158.29, 0.00, 0.00, 0.00
255, 102489.52, 114218.51, 29324.21, 23167.85, 19794.68, 34905.51, 92633.88, 77157.34, 0.00, 0.00, 0.00
0, 102490.10, 114190.21, 29325.35, 23164.41, 19787.57, 34901.87, 92632.22, 77158.69, 0.00, 0.00, 0.00
1, 102488.31, 114203.89, 29327.57, 23160.61, 19780.47, 34905.22, 92621.11, 77158.95, 0.00, 0.00, 0.00
2, 102474.32, 114236.19, 29327.48, 23157.52, 19777.47, 34904.13, 92617.16, 77144.70, 0.00, 0.00, 0.00
3, 102492.63, 114274.38, 29347.08, 23173.08, 19782.97, 34923.55, 92637.36, 77162.11, 0.00, 0.00, 0.00
4, 102493.49, 114282.48, 29371.11, 23181.28, 19771.10, 34926.39, 92652.63, 77166.58, 0.00, 0.00, 0.00
5, 102481.60, 114233.93, 29358.39, 23171.54, 19788.38, 34946.30, 92633.07, 77157.30, 0.07, -0.20, 0.98
6, 102492.69, 114238.60, 29329.82, 23167.29, 19812.61, 34949.48, 92622.74, 77168.68, 0.00, 0.00, 0.00
7, 102487.17, 114130.53, 29306.00, 23156.47, 19791.26, 34912.73, 92627.15, 77164.16, 0.00, 0.00, 0.00
8, 102492.73, 114167.99, 29310.13, 23160.09, 19790.68, 34897.55, 92631.52, 77167.00, 0.00, 0.00, 0.00
9, 102495.73, 114229.10, 29329.82, 23175.23, 19786.52, 34919.57, 92627.66, 77170.65, 0.00, 0.00, 0.00
10, 102486.32, 114227.38, 29325.98, 23171.70, 19767.79, 34923.19, 92621.22, 77161.93, 0.00, 0.00, 0.00
11, 102483.28, 114203.66, 29318.92, 23158.57, 19778.43, 34909.31, 92638.99, 77161.98, 0.00, 0.00, 0.00
12, 102487.46, 114171.61, 29323.41, 23156.50, 19805.39, 34918.07, 92629.13, 77166.42, 0.00, 0.00, 0.00
13, 102493.45, 114194.57, 29334.38, 23159.69, 19817.86, 34950.93, 92600.66, 77174.23, 0.00, 0.00, 0.00
14, 102501.52, 114329.95, 29371.64, 23182.58, 19819.94, 34970.13, 92624.35, 77182.49, 0.00, 0.00, 0.00
15, 102482.55, 114233.99, 29317.42, 23156.29, 19784.38, 34881.86, 92644.65, 77164.45, 0.07, -0.19, 0.98
16, 102496.58, 114200.49, 29322.98, 23167.81, 19784.73, 34910.61, 92646.19, 77177.06, 0.00, 0.00, 0.00
17, 102491.82, 114205.77, 29343.82, 23168.95, 19781.25, 34910.65, 92629.25, 77170.49, 0.00, 0.00, 0.00
18, 102479.26, 114166.76, 29317.80, 23154.75, 19780.69, 34891.50, 92601.40, 77156.52, 0.00, 0.00, 0.00
19, 102497.14, 114175.48, 29320.15, 23159.47, 19786.70, 34902.67, 92610.96, 77165.06, 0.00, 0.00, 0.00
20, 102501.99, 114178.98, 29324.55, 23169.44, 19786.12, 34918.03, 92622.61, 77170.38, 0.00, 0.00, 0.00
21, 102493.01, 114225.01, 29318.47, 23156.61, 19767.48, 34914.86, 92607.66, 77163.38, 0.00, 0.00, 0.00
22, 102498.23, 114274.83, 29331.50, 23165.32, 19783.77, 34918.27, 92614.30, 77166.55, 0.00, 0.00, 0.00
23, 102495.17, 114199.51, 29329.94, 23163.69, 19786.79, 34914.54, 92631.51, 77163.88, 0.00, 0.00, 0.00
24, 102489.27, 114181.55, 29331.05, 23156.85, 19780.55, 34912.11, 92609.16, 77160.74, 0.00, 0.00, 0.00
25, 102497.30, 114240.90, 29353.25, 23165.77, 19782.57, 34914.07, 92603.70, 77164.90, 0.08, -0.19, 0.98
26, 102497.14, 114289.78, 29362.84, 23175.85, 19772.44, 34911.66, 92601.89, 77164.37, 0.00, 0.00, 0.00
27, 102501.14, 114376.29, 29319.45, 23162.64, 19772.08, 34915.08, 92607.99, 77172.88, 0.00, 0.00, 0.00
28, 102505.23, 114254.29, 29315.18, 23159.69, 19773.85, 34903.43, 92621.06, 77176.73, 0.00, 0.00, 0.00
29, 102504.02, 114109.48, 29320.10, 23162.29, 19784.45, 34909.24, 92627.44, 77172.37, 0.00, 0.00, 0.00
30, 102505.07, 114129.70, 29323.79, 23160.52, 19772.15, 34903.10, 92626.09, 77167.43, 0.00, 0.00, 0.00
31, 102494.97, 114171.27, 29328.15, 23155.09, 19759.05, 34900.82, 92617.27, 77158.60, 0.00, 0.00, 0.00
32, 102496.11, 114277.16, 29331.66, 23157.81, 19741.39, 34911.86, 92616.55, 77161.13, 0.00, 0.00, 0.00
33, 102500.20, 114309.52, 29322.45, 23153.41, 19770.70, 34908.48, 92612.69, 77164.68, 0.00, 0.00, 0.00
34, 102489.95, 114174.16, 29306.53, 23138.23, 19782.95, 34904.53, 92586.84, 77153.84, 0.00, 0.00, 0.00
35, 102490.77, 114131.18, 29302.44, 23140.16, 19778.19, 34937.92, 92621.31, 77157.34, 0.07, -0.20, 0.98
36, 102500.18, 114198.73, 29315.25, 23148.47, 19779.46, 34910.90, 92648.05, 77167.72, 0.00, 0.00, 0.00
37, 102505.52, 114305.14, 29331.03, 23157.01, 19764.64, 34895.52, 92619.63, 77171.79, 0.00, 0.00, 0.00
38, 102497.27, 114236.52, 29333.00, 23158.20, 19750.56, 34887.79, 92615.01, 77164.63, 0.00, 0.00, 0.00
39, 102494.73, 114188.15, 29329.87, 23158.62, 19783.08, 34889.93, 92621.67, 77165.13, 0.00, 0.00, 0.00
40, 102493.72, 114189.13, 29319.45, 23159.40, 19787.53, 34894.11, 92624.51, 77167.07, 0.00, 0.00, 0.00
41, 102496.89, 114218.51, 29327.81, 23161.03, 19784.45, 34903.54, 92644.09, 77164.73, 0.00, 0.00, 0.00
42, 102496.06, 114270.30, 29329.00, 23158.26, 19773.89, 34903.12, 92657.81, 77161.69, 0.00, 0.00, 0.00
43, 102495.84, 114349.93, 29336.87, 23167.43, 19789.32, 34911.37, 92659.84, 77164.92, 0.00, 0.00, 0.00
44, 102482.55, 114217.23, 29325.55, 23158.40, 19779.97, 34906.65, 92631.19, 77152.74, 0.00, 0.00, 0.00
45, 102485.52, 114102.68, 29313.26, 23153.86, 19763.43, 34914.12, 92622.36, 77156.99, 0.08, -0.20, 0.98
46, 102492.83, 114157.15, 29310.91, 23149.61, 19770.18, 34910.25, 92635.23, 77162.94, 0.00, 0.00, 0.00
47, 102492.20, 114194.34, 29326.74, 23154.04, 19781.54, 34904.55, 92659.17, 77161.80, 0.00, 0.00, 0.00
48, 102492.65, 114219.45, 29315.18, 23149.84, 19778.10, 34906.79, 92669.10, 77161.10, 0.00, 0.00, 0.00
49, 102494.16, 114251.25, 29321.35, 23155.47, 19773.43, 34906.58, 92661.08, 77164.84, 0.00, 0.00, 0.00
50, 102498.28, 114256.03, 29316.30, 23152.76, 19770.23, 34895.65, 92638.32, 77170.71, 0.00, 0.00, 0.00
51, 102484.17, 114219.16, 29303.54, 23138.66, 19758.14, 34890.51, 92623.63, 77158.53, 0.00, 0.00, 0.00
52, 102489.70, 114211.95, 29314.83, 23146.24, 19762.09, 34925.07, 92623.44, 77158.27, 0.00, 0.00, 0.00
53, 102501.25, 114275.48, 29328.04, 23157.28, 19772.04, 34914.88, 92646.95, 77169.26, 0.00, 0.00, 0.00
54, 102496.85, 114243.14, 29345.65, 23163.36, 19778.34, 34908.17, 92647.69, 77165.57, 0.00, 0.00, 0.00
55, 102486.68, 114158.94, 29329.20, 23145.99, 19741.19, 34887.43, 92637.41, 77153.41, 0.08, -0.20, 0.98
56, 102486.39, 114152.97, 29342.79, 23158.35, 19769.25, 34898.00, 92651.62, 77154.40, 0.00, 0.00, 0.00
57, 102492.16, 114227.36, 29314.40, 23148.76, 19773.49, 34901.93, 92652.47, 77159.47, 0.00, 0.00, 0.00
58, 102490.03, 114292.55, 29318.02, 23149.32, 19763.79, 34909.98, 92634.52, 77157.80, 0.00, 0.00, 0.00
59, 102500.29, 114313.59, 29315.27, 23154.42, 19803.60, 34909.18, 92646.15, 77165.06, 0.00, 0.00, 0.00
60, 102494.75, 114235.72, 29313.06, 23154.53, 19789.14, 34886.22, 92654.52, 77157.30, 0.00, 0.00, 0.00
61, 102489.74, 114169.09, 29313.53, 23148.79, 19770.74, 34886.80, 92641.36, 77152.88, 0.00, 0.00, 0.00
62, 102493.25, 114211.55, 29326.74, 23152.07, 19787.51, 34924.20, 92651.20, 77160.21, 0.00, 0.00, 0.00
63, 102485.16, 114206.99, 29316.55, 23139.96, 19774.16, 34915.95, 92640.84, 77152.59, 0.00, 0.00, 0.00
64, 102491.04, 114253.24, 29315.05, 23136.94, 19764.66, 34879.14, 92645.14, 77154.82, 0.00, 0.00, 0.00
65, 102483.10, 114157.89, 29303.81, 23128.22, 19767.23, 34877.55, 92632.47, 77146.91, 0.08, -0.20, 0.98
66, 102500.09, 114215.02, 29324.71, 23152.14, 19778.81, 34913.27, 92635.23, 77164.01, 0.00, 0.00, 0.00
67, 102501.95, 114289.67, 29333.49, 23149.68, 19774.72, 34919.50, 92648.67, 77166.20, 0.00, 0.00, 0.00
68, 102494.99, 114271.57, 29323.95, 23133.96, 19762.83, 34883.38, 92650.26, 77157.13, 0.00, 0.00, 0.00
69, 102495.33, 114217.74, 29314.94, 23132.27, 19771.19, 34883.20, 92639.88, 77157.28, 0.00, 0.00, 0.00
70, 102496.42, 114258.60, 29329.13, 23140.63, 19777.98, 34900.26, 92656.72, 77159.43, 0.00, 0.00, 0.00
71, 102503.48, 114382.03, 29340.33, 23146.53, 19775.79, 34942.91, 92676.32, 77168.23, 0.00, 0.00, 0.00
72, 102488.29, 114248.50, 29311.81, 23128.67, 19760.93, 34900.97, 92626.14, 77153.73, 0.00, 0.00, 0.00
73, 102487.62, 114147.65, 29301.88, 23126.90, 19760.30, 34864.18, 92625.16, 77152.99, 0.00, 0.00, 0.00
74, 102499.76, 114196.65, 29301.46, 23137.61, 19766.34, 34896.39, 92633.25, 77165.13, 0.00, 0.00, 0.00
75, 102496.20, 114197.02, 29295.94, 23127.19, 19763.95, 34889.55, 92620.80, 77163.78, 0.08, -0.20, 0.98
76, 102491.57, 114235.42, 29307.27, 23124.29, 19765.07, 34886.31, 92614.72, 77160.25, 0.00, 0.00, 0.00
77, 102485.31, 114249.35, 29308.34, 23127.24, 19760.82, 34885.71, 92618.92, 77153.26, 0.00, 0.00, 0.00
78, 102480.53, 114239.60, 29295.94, 23118.74, 19759.97, 34886.78, 92624.48, 77145.88, 0.00, 0.00, 0.00
79, 102487.02, 114276.27, 29304.25, 23124.40, 19763.70, 34899.39, 92622.92, 77150.09, 0.00, 0.00, 0.00
80, 102486.08, 114235.16, 29302.71, 23122.50, 19739.41, 34902.47, 92610.12, 77147.87, 0.00, 0.00, 0.00
81, 102484.40, 114287.62, 29302.33, 23119.88, 19756.10, 34889.86, 92608.55, 77144.23, 0.00, 0.00, 0.00
82, 102485.29, 114315.60, 29320.91, 23126.54, 19776.33, 34893.11, 92616.53, 77149.13, 0.00, 0.00, 0.00
83, 102479.93, 114210.88, 29309.48, 23125.23, 19777.49, 34912.13, 92625.00, 77147.73, 0.00, 0.00, 0.00
84, 102481.52, 114232.48, 29304.03, 23125.34, 19777.94, 34931.11, 92620.89, 77145.95, 0.00, 0.00, 0.00
85, 102475.44, 114170.88, 29308.43, 23117.29, 19766.96, 34900.93, 92602.56, 77140.09, 0.08, -0.20, 0.98
86, 102478.30, 114183.68, 29334.00, 23135.20, 19761.40, 34888.19, 92591.27, 77145.23, 0.00, 0.00, 0.00
87, 102485.12, 114304.23, 29305.21, 23126.01, 19754.67, 34887.00, 92604.52, 77149.13, 0.00, 0.00, 0.00
88, 102482.16, 114320.90, 29289.17, 23110.83, 19746.96, 34871.58, 92616.38, 77147.83, 0.00, 0.00, 0.00
89, 102486.97, 114286.12, 29296.30, 23124.02, 19767.01, 34886.38, 92630.41, 77152.52, 0.00, 0.00, 0.00
90, 102487.55, 114254.40, 29307.03, 23127.86, 19765.96, 34902.00, 92609.13, 77154.13, 0.00, 0.00, 0.00
91, 102478.56, 114260.98, 29298.29, 23115.46, 19736.81, 34892.43, 92583.34, 77145.70, 0.00, 0.00, 0.00
92, 102472.15, 114155.41, 29283.00, 23104.46, 19746.11, 34879.25, 92579.23, 77135.51, 0.00, 0.00, 0.00
93, 102478.72, 114134.69, 29300.07, 23117.71, 19773.78, 34902.61, 92581.57, 77138.28, 0.00, 0.00, 0.00
94, 102481.52, 114201.05, 29310.24, 23132.40, 19788.00, 34910.99, 92583.70, 77142.26, 0.00, 0.00, 0.00
95, 102479.19, 114253.40, 29289.17, 23115.88, 19765.45, 34878.73, 92583.27, 77142.35, 0.08, -0.20, 0.98
96, 102477.63, 114236.19, 29292.00, 23117.31, 19751.77, 34877.32, 92600.13, 77141.12, 0.00, 0.00, 0.00
97, 102478.37, 114259.74, 29295.58, 23115.97, 19749.31, 34882.45, 92608.66, 77143.31, 0.00, 0.00, 0.00
98, 102479.23, 114321.39, 29306.64, 23119.79, 19755.68, 34883.38, 92575.06, 77144.77, 0.00, 0.00, 0.00
99, 102480.78, 114306.82, 29314.16, 23119.30, 19748.23, 34875.05, 92558.19, 77145.63, 0.00, 0.00, 0.00
100, 102473.98, 114244.84, 29321.91, 23114.45, 19736.23, 34873.84, 92569.03, 77138.02, 0.00, 0.00, 0.00
101, 102476.73, 114213.59, 29335.03, 23126.16, 19767.12, 34924.91, 92589.15, 77142.13, 0.00, 0.00, 0.00
102, 102480.87, 114257.06, 29315.50, 23130.79, 19742.31, 34894.20, 92584.37, 77151.20, 0.00, 0.00, 0.00
103, 102476.98, 114187.86, 29288.65, 23109.58, 19724.16, 34868.45, 92581.05, 77141.81, 0.00, 0.00, 0.00
104, 102477.29, 114194.97, 29279.35, 23111.10, 19760.42, 34868.90, 92588.09, 77138.28, 0.00, 0.00, 0.00
105, 102476.66, 114302.48, 29271.78, 23104.95, 19759.99, 34884.16, 92566.93, 77138.33, 0.08, -0.20, 0.99
106, 102490.66, 114280.91, 29293.61, 23123.68, 19763.12, 34880.88, 92572.00, 77152.36, 0.00, 0.00, 0.00
107, 102481.83, 114281.34, 29303.72, 23122.34, 19753.04, 34871.27, 92557.66, 77143.24, 0.00, 0.00, 0.00
108, 102466.90, 114209.70, 29294.73, 23114.41, 19751.01, 34875.20, 92569.27, 77130.75, 0.00, 0.00, 0.00
109, 102474.95, 114209.38, 29306.00, 23121.27, 19776.00, 34898.94, 92580.54, 77138.20, 0.00, 0.00, 0.00
110, 102478.23, 114194.50, 29309.28, 23126.25, 19776.13, 34899.86, 92573.68, 77139.66, 0.00, 0.00, 0.00
111, 102478.70, 114224.90, 29301.13, 23118.30, 19758.25, 34882.00, 92579.49, 77138.26, 0.00, 0.00, 0.00
112, 102480.69, 114353.11, 29301.79, 23122.88, 19755.86, 34884.21, 92585.05, 77141.97, 0.00, 0.00, 0.00
113, 102468.87, 114269.53, 29294.06, 23114.59, 19744.46, 34878.78, 92575.87, 77135.04, 0.00, 0.00, 0.00
114, 102470.88, 114162.63, 29288.50, 23109.94, 19752.26, 34879.74, 92572.95, 77132.80, 0.00, 0.00, 0.00
115, 102471.34, 114187.19, 29295.94, 23114.34, 19761.20, 34886.89, 92561.48, 77135.73, 0.09, -0.19, 0.99
116, 102468.64, 114236.38, 29293.55, 23113.54, 19754.09, 34885.73, 92561.34, 77135.87, 0.00, 0.00, 0.00
117, 102466.56, 114256.52, 29292.50, 23110.70, 19743.50, 34879.96, 92552.34, 77131.69, 0.00, 0.00, 0.00
118, 102465.27, 114238.04, 29298.96, 23113.65, 19756.93, 34890.65, 92559.11, 77130.73, 0.00, 0.00, 0.00
119, 102471.21, 114310.20, 29303.49, 23120.17, 19779.33, 34897.55, 92557.19, 77133.59, 0.00, 0.00, 0.00
120, 102468.22, 114273.36, 29300.10, 23117.74, 19767.26, 34880.48, 92553.16, 77129.34, 0.00, 0.00, 0.00
121, 102469.13, 114269.91, 29299.76, 23116.22, 19755.12, 34889.57, 92558.52, 77129.68, 0.00, 0.00, 0.00
122, 102462.59, 114253.95, 29289.57, 23107.08, 19728.50, 34859.24, 92574.06, 77124.20, 0.00, 0.00, 0.00
123, 102463.05, 114253.48, 29289.57, 23099.95, 19744.37, 34859.06, 92570.62, 77126.88, 0.00, 0.00, 0.00
124, 102459.95, 114172.44, 29283.31, 23102.83, 19748.17, 34867.85, 92554.52, 77126.34, 0.00, 0.00, 0.00
125, 102462.49, 114188.22, 29283.04, 23104.66, 19737.46, 34871.02, 92551.91, 77129.20, 0.09, -0.20, 0.98
126, 102469.40, 114246.69, 29286.08, 23102.18, 19760.06, 34866.35, 92534.14, 77129.48, 0.00, 0.00, 0.00
127, 102470.97, 114238.09, 29287.11, 23104.46, 19762.70, 34870.02, 92536.98, 77132.52, 0.00, 0.00, 0.00
128, 102478.16, 114273.89, 29305.37, 23116.66, 19767.95, 34881.21, 92565.23, 77141.16, 0.00, 0.00, 0.00
129, 102460.68, 114211.17, 29308.14, 23104.35, 19749.80, 34884.86, 92545.74, 77123.04, 0.00, 0.00, 0.00
130, 102452.91, 114199.59, 29289.46, 23095.72, 19740.84, 34881.19, 92567.51, 77115.57, 0.00, 0.00, 0.00
131, 102467.05, 114264.64, 29300.14, 23103.30, 19757.51, 34906.79, 92564.80, 77130.01, 0.00, 0.00, 0.00
132, 102466.30, 114291.80, 29303.94, 23101.96, 19747.77, 34881.59, 92523.61, 77132.05, 0.00, 0.00, 0.00
133, 102464.77, 114336.95, 29303.94, 23110.16, 19741.69, 34839.35, 92540.87, 77130.01, 0.00, 0.00, 0.00
134, 102458.41, 114230.44, 29257.96, 23093.38, 19728.16, 34845.12, 92539.82, 77124.49, 0.00, 0.00, 0.00
135, 102460.73, 114212.34, 29247.37, 23086.15, 19730.76, 34858.50, 92525.02, 77128.11, 0.08, -0.19, 0.98
136, 102460.23, 114198.39, 29258.50, 23089.28, 19733.55, 34845.50, 92526.56, 77123.35, 0.00, 0.00, 0.00
137, 102462.13, 114190.32, 29267.46, 23088.64, 19729.95, 34839.62, 92532.91, 77124.42, 0.00, 0.00, 0.00
138, 102468.80, 114288.45, 29275.40, 23093.87, 19745.24, 34859.36, 92553.36, 77131.71, 0.00, 0.00, 0.00
139, 102468.30, 114332.14, 29286.84, 23094.83, 19749.84, 34868.61, 92569.10, 77132.85, 0.00, 0.00, 0.00
140, 102466.34, 114278.88, 29281.75, 23088.17, 19742.74, 34855.71, 92560.83, 77131.48, 0.00, 0.00, 0.00
141, 102465.47, 114177.60, 29265.23, 23074.35, 19724.88, 34852.92, 92550.93, 77130.93, 0.00, 0.00, 0.00
142, 102468.66, 114245.98, 29279.94, 23085.69, 19743.34, 34858.35, 92536.91, 77134.55, 0.00, 0.00, 0.00
143, 102464.73, 114269.36, 29295.16, 23089.93, 19744.61, 34853.54, 92522.00, 77130.95, 0.00, 0.00, 0.00
144, 102460.64, 114196.58, 29279.62, 23086.40, 19723.47, 34875.67, 92526.43, 77129.07, 0.00, 0.00, 0.00
145, 102466.31, 114247.52, 29272.36, 23085.51, 19724.92, 34874.62, 92551.87, 77136.45, 0.08, -0.19, 0.98
146, 102455.63, 114220.70, 29248.42, 23073.73, 19727.18, 34844.09, 92535.10, 77127.46, 0.00, 0.00, 0.00
147, 102459.19, 114305.45, 29252.08, 23078.18, 19763.03, 34865.01, 92530.54, 77134.73, 0.00, 0.00, 0.00
148, 102466.16, 114244.37, 29268.22, 23090.11, 19764.69, 34879.23, 92562.23, 77141.66, 0.00, 0.00, 0.00
149, 102469.09, 114206.70, 29264.22, 23082.06, 19764.55, 34868.52, 92562.17, 77138.35, 0.00, 0.00, 0.00
150, 102472.62, 114268.48, 29265.45, 23071.71, 19754.90, 34881.26, 92553.38, 77144.36, 0.00, 0.00, 0.00
151, 102470.95, 114231.29, 29256.71, 23063.27, 19727.56, 34862.55, 92544.78, 77146.71, 0.00, 0.00, 0.00
152, 102466.45, 114194.70, 29252.24, 23059.71, 19721.86, 34852.47, 92548.58, 77140.52, 0.00, 0.00, 0.00
153, 102468.28, 114252.34, 29248.29, 23060.12, 19720.74, 34841.34, 92550.37, 77139.71, 0.00, 0.00, 0.00
154, 102474.66, 114277.58, 29252.64, 23068.43, 19733.37, 34853.12, 92552.02, 77145.12, 0.00, 0.00, 0.00
155, 102469.83, 114201.80, 29251.71, 23070.22, 19730.51, 34863.71, 92547.82, 77140.70, 0.08, -0.19, 0.98
156, 102461.48, 114223.63, 29257.27, 23064.56, 19719.51, 34860.16, 92532.62, 77133.63, 0.00, 0.00, 0.00
157, 102468.69, 114244.92, 29261.88, 23062.10, 19712.79, 34895.45, 92527.08, 77136.27, 0.00, 0.00, 0.00
158, 102470.54, 114287.95, 29275.17, 23071.16, 19726.38, 34857.90, 92566.69, 77136.85, 0.00, 0.00, 0.00
159, 102474.07, 114318.41, 29272.20, 23079.05, 19734.27, 34825.02, 92570.98, 77142.70, 0.00, 0.00, 0.00
160, 102468.04, 114241.95, 29238.38, 23065.23, 19733.21, 34831.50, 92515.07, 77134.95, 0.00, 0.00, 0.00
161, 102472.64, 114261.02, 29234.27, 23057.79, 19725.03, 34842.84, 92518.96, 77138.28, 0.00, 0.00, 0.00
162, 102468.62, 114209.43, 29239.08, 23054.57, 19714.89, 34826.34, 92532.82, 77134.84, 0.00, 0.00, 0.00
163, 102471.48, 114151.05, 29238.32, 23053.39, 19707.13, 34825.43, 92543.10, 77138.55, 0.00, 0.00, 0.00
164, 102472.77, 114218.70, 29239.46, 23057.01, 19699.84, 34835.53, 92555.33, 77141.81, 0.00, 0.00, 0.00
165, 102470.27, 114274.38, 29247.35, 23064.32, 19734.94, 34852.20, 92543.41, 77143.16, 0.11, -0.19, 0.97
166, 102466.79, 114298.50, 29254.74, 23062.84, 19724.23, 34853.54, 92517.40, 77140.92, 0.00, 0.00, 0.00
167, 102460.64, 114245.73, 29254.43, 23055.15, 19697.94, 34824.84, 92514.41, 77135.64, 0.00, 0.00, 0.00
168, 102461.65, 114281.58, 29255.37, 23062.19, 19704.92, 34809.46, 92525.04, 77137.16, 0.00, 0.00, 0.00
169, 102457.78, 114274.43, 29240.39, 23057.75, 19725.99, 34816.91, 92529.98, 77130.52, 0.00, 0.00, 0.00
170, 102469.65, 114243.96, 29244.91, 23065.10, 19729.73, 34830.63, 92546.08, 77145.16, 0.00, 0.00, 0.00
171, 102475.21, 114254.63, 29248.40, 23066.53, 19730.20, 34845.83, 92559.48, 77149.68, 0.00, 0.00, 0.00
172, 102473.71, 114248.91, 29260.11, 23062.62, 19724.97, 34863.96, 92550.01, 77148.30, 0.00, 0.00, 0.00
173, 102464.93, 114223.24, 29273.16, 23061.72, 19717.57, 34862.51, 92528.02, 77138.30, 0.00, 0.00, 0.00
174, 102463.16, 114170.05, 29294.20, 23073.06, 19720.81, 34828.33, 92520.22, 77138.86, 0.00, 0.00, 0.00
175, 102461.33, 114210.99, 29267.08, 23076.10, 19730.06, 34834.59, 92535.37, 77139.78, 0.10, -0.20, 0.97
176, 102464.33, 114261.91, 29222.42, 23058.06, 19720.96, 34822.95, 92549.83, 77142.93, 0.00, 0.00, 0.00
177, 102468.13, 114329.15, 29228.28, 23055.15, 19717.39, 34819.08, 92530.81, 77141.77, 0.00, 0.00, 0.00
178, 102456.75, 114245.55, 29239.61, 23058.71, 19715.38, 34819.34, 92506.49, 77132.29, 0.00, 0.00, 0.00
179, 102458.38, 114182.05, 29239.28, 23061.95, 19720.88, 34833.23, 92535.23, 77133.43, 0.00, 0.00, 0.00
180, 102468.80, 114214.35, 29245.42, 23060.36, 19718.24, 34837.07, 92562.77, 77138.02, 0.00, 0.00, 0.00
181, 102464.70, 114228.34, 29253.25, 23063.56, 19715.02, 34834.99, 92538.70, 77136.00, 0.00, 0.00, 0.00
182, 102468.24, 114309.01, 29257.45, 23067.20, 19717.21, 34834.54, 92533.78, 77141.32, 0.00, 0.00, 0.00
183, 102473.98, 114443.07, 29275.93, 23072.32, 19725.59, 34837.16, 92538.55, 77148.79, 0.00, 0.00, 0.00
184, 102457.89, 114252.05, 29243.12, 23053.41, 19707.73, 34832.49, 92523.34, 77131.24, 0.00, 0.00, 0.00
185, 102459.92, 114148.30, 29248.80, 23065.30, 19714.55, 34867.47, 92522.67, 77132.60, 0.09, -0.20, 0.98
186, 102462.88, 114197.27, 29259.91, 23064.23, 19718.39, 34859.46, 92556.24, 77137.59, 0.00, 0.00, 0.00
187, 102463.26, 114211.20, 29234.83, 23055.44, 19713.03, 34806.96, 92563.29, 77138.48, 0.00, 0.00, 0.00
188, 102459.37, 114223.27, 29223.27, 23044.87, 19707.15, 34809.29, 92523.92, 77135.95, 0.00, 0.00, 0.00
189, 102456.19, 114270.56, 29234.00, 23042.12, 19704.18, 34813.85, 92501.06, 77132.16, 0.00, 0.00, 0.00
190, 102457.38, 114241.80, 29242.14, 23042.61, 19694.81, 34816.02, 92502.67, 77130.26, 0.00, 0.00, 0.00
191, 102470.81, 114266.65, 29242.36, 23048.69, 19700.87, 34827.79, 92537.23, 77144.90, 0.00, 0.00, 0.00
192, 102470.02, 114322.58, 29251.12, 23054.88, 19711.20, 34823.77, 92553.16, 77147.89, 0.00, 0.00, 0.00
193, 102464.62, 114307.33, 29240.78, 23055.02, 19712.65, 34833.16, 92531.39, 77141.32, 0.00, 0.00, 0.00
194, 102463.59, 114308.60, 29247.19, 23054.75, 19708.83, 34831.01, 92532.30, 77140.20, 0.00, 0.00, 0.00
195, 102466.12, 114200.22, 29248.89, 23057.77, 19691.62, 34833.72, 92537.52, 77144.70, 0.08, -0.20, 0.98
196, 102468.08, 114170.67, 29236.48, 23045.36, 19711.13, 34832.49, 92529.76, 77144.92, 0.00, 0.00, 0.00
197, 102471.97, 114220.41, 29241.13, 23042.99, 19707.49, 34840.00, 92530.16, 77149.84, 0.00, 0.00, 0.00
198, 102470.67, 114216.85, 29231.30, 23041.00, 19712.40, 34823.64, 92521.78, 77149.16, 0.00, 0.00, 0.00
199, 102473.91, 114248.99, 29228.59, 23038.99, 19718.15, 34832.24, 92506.63, 77151.70, 0.00, 0.00, 0.00
200, 102480.24, 114259.90, 29242.70, 23041.70, 19708.29, 34813.76, 92514.27, 77154.84, 0.00, 0.00, 0.00
201, 102475.15, 114297.25, 29242.63, 23040.45, 19682.41, 34788.45, 92514.72, 77151.67, 0.00, 0.00, 0.00
202, 102479.52, 114336.88, 29244.44, 23039.98, 19698.64, 34823.79, 92538.37, 77156.38, 0.00, 0.00, 0.00
203, 102473.67, 114348.34, 29251.97, 23047.64, 19716.18, 34831.19, 92549.01, 77149.28, 0.00, 0.00, 0.00
204, 102464.88, 114239.34, 29215.54, 23032.27, 19705.28, 34815.79, 92538.61, 77140.13, 0.00, 0.00, 0.00
205, 102485.96, 114162.63, 29223.12, 23034.23, 19707.67, 34812.82, 92517.13, 77163.70, 0.08, -0.20, 0.98
206, 102498.59, 114173.91, 29202.33, 23019.81, 19688.96, 34798.02, 92496.05, 77175.66, 0.00, 0.00, 0.00
207, 102487.44, 114170.94, 29216.84, 23030.59, 19689.61, 34808.06, 92512.28, 77158.73, 0.00, 0.00, 0.00
208, 102466.52, 114213.68, 29228.57, 23040.15, 19697.79, 34816.08, 92510.80, 77142.51, 0.00, 0.00, 0.00
209, 102480.02, 114244.10, 29229.00, 23038.50, 19698.95, 34815.16, 92506.45, 77159.31, 0.00, 0.00, 0.00
210, 102493.92, 114261.09, 29231.72, 23036.85, 19684.20, 34830.48, 92509.04, 77174.60, 0.00, 0.00, 0.00
211, 102499.42, 114268.71, 29238.05, 23039.95, 19685.11, 34841.18, 92523.91, 77180.82, 0.00, 0.00, 0.00
212, 102512.45, 114337.95, 29284.90, 23048.58, 19712.83, 34840.76, 92567.16, 77189.69, 0.00, 0.00, 0.00
213, 102518.24, 114475.82, 29322.09, 23085.75, 19723.76, 34842.23, 92561.79, 77198.20, 0.00, 0.00, 0.00
214, 102512.72, 114363.48, 29213.44, 23035.69, 19691.13, 34810.34, 92519.37, 77188.41, 0.00, 0.00, 0.00
215, 102510.59, 114162.05, 29188.20, 23017.98, 19702.19, 34808.80, 92506.40, 77188.38, 0.08, -0.20, 0.98
216, 102513.84, 114107.73, 29201.62, 23030.57, 19700.78, 34816.60, 92502.09, 77192.02, 0.00, 0.00, 0.00
217, 102512.98, 114173.65, 29217.89, 23037.70, 19710.35, 34827.21, 92512.05, 77194.67, 0.00, 0.00, 0.00
218, 102508.02, 114217.05, 29232.48, 23040.65, 19707.62, 34831.68, 92525.91, 77192.73, 0.00, 0.00, 0.00
219, 102513.12, 114261.91, 29246.56, 23047.38, 19701.86, 34838.30, 92536.73, 77195.48, 0.00, 0.00, 0.00
220, 102512.49, 114304.80, 29235.28, 23044.49, 19705.32, 34848.07, 92537.72, 77194.90, 0.00, 0.00, 0.00
221, 102511.71, 114315.78, 29231.81, 23037.96, 19693.74, 34809.69, 92535.88, 77195.01, 0.00, 0.00, 0.00
222, 102509.97, 114307.11, 29246.79, 23043.73, 19686.21, 34801.44, 92527.84, 77194.07, 0.00, 0.00, 0.00
223, 102512.61, 114398.28, 29241.98, 23045.30, 19688.98, 34817.07, 92527.86, 77194.95, 0.00, 0.00, 0.00
224, 102508.52, 114279.08, 29223.41, 23031.93, 19702.15, 34818.38, 92537.25, 77185.51, 0.00, 0.00, 0.00
225, 102505.59, 114154.22, 29232.08, 23034.12, 19692.24, 34824.06, 92520.08, 77182.88, 0.08, -0.20, 0.98
226, 102497.03, 114160.26, 29229.78, 23029.22, 19691.30, 34853.50, 92492.03, 77172.44, 0.00, 0.00, 0.00
227, 102507.02, 114234.11, 29209.79, 23028.31, 19684.60, 34815.55, 92503.81, 77181.38, 0.00, 0.00, 0.00
228, 102520.74, 114300.38, 29229.31, 23044.89, 19684.53, 34820.73, 92526.59, 77196.58, 0.00, 0.00, 0.00
229, 102514.33, 114268.57, 29236.73, 23046.19, 19693.74, 34829.74, 92537.16, 77189.94, 0.00, 0.00, 0.00
230, 102507.84, 114243.98, 29218.27, 23034.37, 19697.88, 34827.84, 92535.46, 77185.60, 0.00, 0.00, 0.00
231, 102508.20, 114300.88, 29220.01, 23032.71, 19674.23, 34830.39, 92524.84, 77186.70, 0.00, 0.00, 0.00
232, 102506.23, 114275.55, 29219.67, 23035.77, 19650.11, 34845.45, 92532.89, 77184.62, 0.00, 0.00, 0.00
233, 102510.22, 114303.27, 29217.06, 23028.31, 19666.65, 34798.07, 92526.74, 77191.92, 0.00, 0.00, 0.00
234, 102507.91, 114362.59, 29222.80, 23025.76, 19694.55, 34791.18, 92496.92, 77187.92, 0.00, 0.00, 0.00
235, 102510.04, 114230.77, 29225.80, 23032.67, 19703.26, 34804.19, 92503.92, 77190.31, 0.09, -0.20, 0.98
236, 102507.00, 114173.63, 29217.57, 23026.52, 19688.62, 34812.19, 92508.91, 77184.82, 0.00, 0.00, 0.00
237, 102512.63, 114228.32, 29222.65, 23031.33, 19684.02, 34815.52, 92535.73, 77191.16, 0.00, 0.00, 0.00
238, 102510.39, 114272.69, 29235.72, 23036.98, 19690.86, 34815.28, 92550.26, 77192.35, 0.00, 0.00, 0.00
239, 102514.64, 114337.15, 29253.09, 23045.90, 19688.15, 34815.14, 92527.45, 77194.72, 0.00, 0.00, 0.00
240, 102509.43, 114288.17, 29240.10, 23034.75, 19678.36, 34812.30, 92532.06, 77186.96, 0.00, 0.00, 0.00
241, 102516.45, 114306.35, 29226.27, 23041.90, 19690.28, 34830.36, 92552.02, 77192.75, 0.00, 0.00, 0.00
242, 102512.25, 114289.65, 29212.46, 23029.18, 19682.59, 34831.97, 92522.83, 77188.64, 0.00, 0.00, 0.00
243, 102506.73, 114224.79, 29210.31, 23026.52, 19692.47, 34838.79, 92505.62, 77186.67, 0.00, 0.00, 0.00
244, 102507.91, 114258.31, 29216.86, 23031.06, 19693.88, 34829.02, 92500.59, 77187.08, 0.00, 0.00, 0.00
245, 102508.36, 114230.73, 29225.55, 23034.57, 19683.75, 34792.25, 92514.49, 77184.35, 0.08, -0.19, 0.98
246, 102502.99, 114219.82, 29229.69, 23023.82, 19673.71, 34793.26, 92509.55, 77177.13, 0.00, 0.00, 0.00
247, 102517.68, 114327.63, 29248.11, 23039.08, 19687.24, 34815.19, 92538.59, 77193.00, 0.00, 0.00, 0.00
248, 102508.80, 114321.46, 29207.61, 23025.22, 19687.48, 34805.89, 92526.34, 77182.98, 0.00, 0.00, 0.00
249, 102506.84, 114286.97, 29207.83, 23029.20, 19688.18, 34805.31, 92521.51, 77181.98, 0.00, 0.00, 0.00
250, 102506.41, 114272.69, 29233.04, 23033.88, 19691.06, 34816.26, 92521.66, 77184.98, 0.00, 0.00, 0.00
251, 102508.18, 114260.05, 29228.41, 23034.88, 19669.67, 34814.63, 92528.30, 77185.73, 0.00, 0.00, 0.00
252, 102505.37, 114248.93, 29200.36, 23020.49, 19654.85, 34808.95, 92550.91, 77182.34, 0.00, 0.00, 0.00
253, 102510.17, 114295.28, 29212.30, 23031.88, 19706.50, 34828.96, 92539.88, 77187.45, 0.00, 0.00, 0.00
254, 102503.51, 114241.35, 29216.90, 23028.89, 19721.53, 34834.23, 92510.60, 77177.40, 0.00, 0.00, 0.00
255, 102499.60, 114237.77, 29224.81, 23031.15, 19707.42, 34846.35, 92489.02, 77172.13, 0.08, -0.20, 0.98
0, 102506.95, 114280.53, 29231.81, 23035.73, 19693.14, 34857.45, 92496.61, 77183.99, 0.00, 0.00, 0.00
1, 102508.54, 114295.28, 29231.68, 23039.82, 19684.82, 34827.32, 92511.14, 77190.05, 0.00, 0.00, 0.00
2, 102500.05, 114252.46, 29224.81, 23032.44, 19675.41, 34799.21, 92523.61, 77182.72, 0.00, 0.00, 0.00
3, 102510.04, 114270.02, 29231.28, 23042.61, 19698.90, 34813.15, 92531.16, 77192.17, 0.00, 0.00, 0.00
4, 102513.05, 114304.11, 29220.50, 23039.71, 19690.86, 34819.61, 92537.98, 77196.42, 0.00, 0.00, 0.00
5, 102507.00, 114275.37, 29221.73, 23035.44, 19670.92, 34816.20, 92527.75, 77189.69, 0.00, 0.00, 0.00
6, 102497.48, 114254.24, 29218.96, 23035.71, 19682.74, 34809.51, 92536.42, 77180.19, 0.00, 0.00, 0.00
7, 102489.09, 114293.85, 29206.76, 23025.09, 19697.88, 34818.68, 92545.70, 77173.55, 0.00, 0.00, 0.00
8, 102489.41, 114268.51, 29219.63, 23029.31, 19697.27, 34826.45, 92519.23, 77171.98, 0.00, 0.00, 0.00
9, 102503.84, 114234.94, 29227.65, 23045.97, 19694.93, 34823.55, 92508.03, 77180.55, 0.08, -0.20, 0.98
10, 102504.41, 114241.17, 29231.83, 23042.17, 19682.86, 34841.88, 92502.80, 77183.88, 0.00, 0.00, 0.00
11, 102507.42, 114322.09, 29230.65, 23040.60, 19700.45, 34825.31, 92518.80, 77186.88, 0.00, 0.00, 0.00
12, 102502.62, 114377.20, 29210.09, 23033.67, 19684.71, 34806.23, 92528.87, 77181.17, 0.00, 0.00, 0.00
13, 102500.85, 114271.93, 29199.04, 23027.17, 19688.38, 34811.63, 92532.17, 77178.41, 0.00, 0.00, 0.00
14, 102498.80, 114237.21, 29210.33, 23029.56, 19687.08, 34825.27, 92544.47, 77176.70, 0.00, 0.00, 0.00
15, 102491.22, 114204.18, 29203.54, 23025.71, 19667.59, 34800.14, 92539.17, 77171.97, 0.00, 0.00, 0.00
16, 102494.45, 114207.02, 29196.59, 23020.62, 19655.21, 34795.96, 92540.94, 77176.80, 0.00, 0.00, 0.00
17, 102497.74, 114256.86, 29212.77, 23032.49, 19678.70, 34811.07, 92507.41, 77176.73, 0.00, 0.00, 0.00
18, 102497.27, 114305.81, 29224.08, 23038.12, 19681.18, 34818.56, 92508.86, 77175.88, 0.00, 0.00, 0.00
19, 102496.83, 114287.98, 29226.09, 23035.17, 19690.90, 34822.25, 92508.48, 77178.09, 0.08, -0.20, 0.98
20, 102501.77, 114339.80, 29224.21, 23033.94, 19681.56, 34820.98, 92513.40, 77177.53, 0.00, 0.00, 0.00
21, 102497.90, 114352.21, 29216.05, 23028.58, 19660.39, 34803.14, 92516.35, 77169.46, 0.00, 0.00, 0.00
22, 102493.16, 114247.67, 29191.33, 23020.22, 19657.20, 34791.61, 92525.63, 77168.28, 0.00, 0.00, 0.00
23, 102483.26, 114188.17, 29181.83, 23011.37, 19664.53, 34790.45, 92522.61, 77157.73, 0.00, 0.00, 0.00
24, 102496.89, 114194.23, 29195.51, 23027.84, 19664.04, 34810.11, 92532.51, 77169.91, 0.00, 0.00, 0.00
25, 102507.24, 114250.96, 29212.79, 23038.26, 19660.77, 34827.44, 92528.22, 77182.67, 0.00, 0.00, 0.00
26, 102498.46, 114263.66, 29211.94, 23031.59, 19682.25, 34838.46, 92500.34, 77174.38, 0.00, 0.00, 0.00
27, 102503.04, 114326.76, 29222.22, 23033.07, 19690.21, 34801.71, 92496.97, 77178.88, 0.00, 0.00, 0.00
28, 102502.26, 114362.23, 29219.99, 23032.98, 19668.80, 34792.01, 92504.44, 77178.13, 0.00, 0.00, 0.00
29, 102497.88, 114251.97, 29216.37, 23032.76, 19647.47, 34800.95, 92519.63, 77174.29, 0.08, -0.20, 0.98
30, 102491.57, 114250.58, 29208.72, 23034.05, 19674.09, 34813.49, 92526.48, 77167.95, 0.00, 0.00, 0.00
31, 102498.30, 114322.30, 29210.96, 23039.17, 19692.36, 34828.31, 92515.32, 77174.11, 0.00, 0.00, 0.00
32, 102490.21, 114349.30, 29224.53, 23043.15, 19685.98, 34827.39, 92516.86, 77170.00, 0.00, 0.00, 0.00
33, 102491.22, 114234.09, 29200.70, 23033.92, 19663.46, 34810.07, 92510.67, 77170.22, 0.00, 0.00, 0.00
34, 102497.88, 114200.38, 29198.35, 23030.54, 19676.44, 34817.94, 92510.67, 77175.56, 0.00, 0.00, 0.00
35, 102503.51, 114264.86, 29230.92, 23038.57, 19671.55, 34807.32, 92512.19, 77181.82, 0.00, 0.00, 0.00
36, 102513.08, 114372.66, 29211.96, 23044.96, 19675.14, 34800.17, 92527.13, 77190.88, 0.00, 0.00, 0.00
37, 102499.98, 114281.25, 29178.82, 23027.46, 19663.25, 34794.02, 92553.66, 77180.30, 0.00, 0.00, 0.00
38, 102486.01, 114211.17, 29178.55, 23019.48, 19660.10, 34797.22, 92534.41, 77165.30, 0.00, 0.00, 0.00
39, 102486.43, 114224.14, 29186.59, 23022.36, 19662.34, 34802.87, 92500.10, 77160.50, 0.08, -0.21, 0.98
40, 102499.53, 114344.26, 29212.59, 23038.79, 19677.09, 34814.85, 92523.99, 77176.41, 0.00, 0.00, 0.00
41, 102501.52, 114335.12, 29209.35, 23037.45, 19659.90, 34805.80, 92538.19, 77177.35, 0.00, 0.00, 0.00
42, 102495.24, 114229.10, 29198.93, 23032.38, 19661.80, 34808.97, 92521.55, 77171.36, 0.00, 0.00, 0.00
43, 102496.91, 114279.55, 29207.72, 23034.70, 19684.82, 34818.79, 92531.28, 77176.86, 0.00, 0.00, 0.00
44, 102494.66, 114251.74, 29214.51, 23029.70, 19675.37, 34802.58, 92523.91, 77173.33, 0.00, 0.00, 0.00
45, 102492.80, 114225.77, 29196.83, 23028.64, 19659.61, 34808.84, 92514.63, 77167.31, 0.00, 0.00, 0.00
46, 102495.69, 114276.38, 29184.69, 23023.44, 19657.24, 34811.59, 92526.02, 77168.75, 0.00, 0.00, 0.00
47, 102490.44, 114267.75, 29186.44, 23022.59, 19666.96, 34814.02, 92539.23, 77167.02, 0.00, 0.00, 0.00
48, 102486.34, 114292.87, 29193.63, 23019.93, 19663.14, 34798.67, 92560.72, 77162.76, 0.00, 0.00, 0.00
49, 102500.07, 114337.10, 29221.93, 23040.15, 19670.65, 34822.81, 92571.80, 77177.98, 0.08, -0.20, 0.98
50, 102496.49, 114339.45, 29215.16, 23047.98, 19654.40, 34815.61, 92556.38, 77174.60, 0.00, 0.00, 0.00
51, 102506.55, 114292.71, 29196.61, 23037.90, 19657.76, 34807.77, 92536.40, 77180.23, 0.00, 0.00, 0.00
52, 102505.84, 114268.62, 29193.61, 23029.40, 19668.80, 34792.28, 92510.20, 77181.78, 0.00, 0.00, 0.00
53, 102494.23, 114314.82, 29190.24, 23024.38, 19656.88, 34796.97, 92531.75, 77171.67, 0.00, 0.00, 0.00
54, 102491.26, 114229.16, 29197.03, 23025.56, 19635.58, 34809.29, 92562.77, 77168.61, 0.00, 0.00, 0.00
55, 102487.80, 114207.91, 29250.65, 23031.24, 19656.59, 34800.41, 92527.08, 77168.45, 0.00, 0.00, 0.00
56, 102491.04, 114256.64, 29224.55, 23042.55, 19677.16, 34823.73, 92533.96, 77168.75, 0.00, 0.00, 0.00
57, 102499.20, 114351.68, 29181.50, 23033.34, 19681.36, 34813.60, 92559.30, 77173.58, 0.00, 0.00, 0.00
58, 102484.82, 114277.34, 29163.79, 23017.58, 19648.46, 34788.01, 92542.88, 77162.47, 0.00, 0.00, 0.00
59, 102480.91, 114253.69, 29170.79, 23022.03, 19652.59, 34803.45, 92532.98, 77160.86, 0.08, -0.20, 0.98
60, 102493.79, 114270.49, 29183.62, 23031.93, 19679.50, 34823.21, 92543.13, 77169.69, 0.00, 0.00, 0.00
61, 102493.43, 114263.70, 29188.61, 23029.76, 19668.82, 34809.60, 92550.61, 77166.91, 0.00, 0.00, 0.00
62, 102481.20, 114298.05, 29192.07, 23020.53, 19653.29, 34780.01, 92545.36, 77159.96, 0.00, 0.00, 0.00
63, 102470.38, 114281.02, 29180.20, 23013.94, 19647.25, 34774.30, 92539.48, 77152.63, 0.00, 0.00, 0.00
64, 102493.27, 114311.47, 29198.89, 23034.32, 19677.20, 34806.58, 92568.34, 77174.55, 0.00, 0.00, 0.00
65, 102491.80, 114318.69, 29197.10, 23027.62, 19651.63, 34795.09, 92580.16, 77172.28, 0.00, 0.00, 0.00
66, 102485.02, 114289.77, 29198.55, 23026.70, 19642.38, 34802.22, 92551.04, 77167.80, 0.00, 0.00, 0.00
67, 102478.45, 114274.50, 29195.04, 23023.99, 19649.46, 34798.87, 92536.82, 77161.82, 0.00, 0.00, 0.00
68, 102486.08, 114260.30, 29189.86, 23027.71, 19668.55, 34821.38, 92562.10, 77167.43, 0.00, 0.00, 0.00
69, 102496.00, 114319.91, 29202.31, 23033.67, 19683.68, 34824.57, 92587.05, 77172.52, 0.09, -0.20, 0.98
70, 102484.65, 114318.80, 29202.73, 23022.45, 19653.91, 34792.90, 92575.54, 77161.46, 0.00, 0.00, 0.00
71, 102487.13, 114374.61, 29212.41, 23024.98, 19650.00, 34788.48, 92559.09, 77164.05, 0.00, 0.00, 0.00
72, 102480.48, 114282.66, 29180.49, 23006.29, 19640.39, 34792.19, 92529.31, 77155.83, 0.00, 0.00, 0.00
73, 102482.23, 114200.49, 29166.41, 23000.30, 19641.10, 34810.32, 92539.10, 77157.03, 0.00, 0.00, 0.00
74, 102484.13, 114238.94, 29186.06, 23015.01, 19644.93, 34804.08, 92565.59, 77159.02, 0.00, 0.00, 0.00
75, 102485.05, 114275.77, 29184.18, 23022.38, 19633.32, 34802.71, 92577.81, 77161.52, 0.00, 0.00, 0.00
76, 102487.95, 114312.88, 29181.70, 23008.42, 19618.42, 34790.54, 92545.52, 77166.78, 0.00, 0.00, 0.00
77, 102483.84, 114334.80, 29193.25, 23015.84, 19650.27, 34784.48, 92543.55, 77163.41, 0.00, 0.00, 0.00
78, 102481.34, 114278.23, 29174.52, 23012.60, 19663.01, 34786.09, 92554.30, 77155.56, 0.00, 0.00, 0.00
79, 102481.54, 114229.77, 29158.63, 23002.83, 19657.53, 34782.40, 92570.95, 77154.13, 0.07, -0.20, 0.95
80, 102478.12, 114224.74, 29163.55, 23010.20, 19651.54, 34790.67, 92572.45, 77154.04, 0.00, 0.00, 0.00
81, 102476.69, 114266.47, 29171.84, 23013.91, 19646.94, 34795.90, 92568.54, 77156.07, 0.00, 0.00, 0.00
82, 102469.52, 114330.94, 29173.74, 23006.85, 19639.67, 34789.91, 92542.30, 77153.88, 0.00, 0.00, 0.00
83, 102469.69, 114384.29, 29181.12, 23011.97, 19653.20, 34786.98, 92540.00, 77157.21, 0.00, 0.00, 0.00
84, 102463.09, 114336.97, 29192.12, 23019.57, 19652.93, 34783.58, 92552.20, 77152.20, 0.00, 0.00, 0.00
85, 102463.23, 114293.48, 29197.70, 23020.87, 19646.24, 34793.75, 92548.53, 77151.54, 0.00, 0.00, 0.00
86, 102462.13, 114195.26, 29177.07, 23013.89, 19635.47, 34794.47, 92543.38, 77148.85, 0.00, 0.00, 0.00
87, 102465.24, 114208.70, 29160.49, 23005.06, 19633.55, 34785.75, 92544.91, 77148.97, 0.00, 0.00, 0.00
88, 102470.36, 114321.14, 29174.10, 23015.23, 19661.80, 34801.91, 92555.13, 77155.89, 0.00, 0.00, 0.00
89, 102469.06, 114379.98, 29193.57, 23017.63, 19657.26, 34796.43, 92581.62, 77154.84, 0.07, -0.20, 0.96
90, 102466.12, 114278.61, 29183.29, 23013.22, 19644.03, 34793.37, 92589.15, 77148.61, 0.00, 0.00, 0.00
91, 102463.92, 114286.23, 29174.97, 23014.38, 19639.99, 34804.53, 92573.30, 77149.30, 0.00, 0.00, 0.00
92, 102457.15, 114216.70, 29161.78, 23004.55, 19638.89, 34816.15, 92563.33, 77145.68, 0.00, 0.00, 0.00
93, 102465.63, 114236.95, 29166.48, 23009.13, 19648.70, 34798.87, 92556.49, 77153.08, 0.00, 0.00, 0.00
94, 102465.96, 114293.74, 29179.26, 23012.93, 19646.54, 34795.54, 92539.37, 77152.72, 0.00, 0.00, 0.00
95, 102460.77, 114286.55, 29189.97, 23011.88, 19640.86, 34787.16, 92547.20, 77148.01, 0.00, 0.00, 0.00
96, 102465.53, 114289.59, 29197.14, 23020.98, 19639.63, 34794.58, 92563.02, 77152.43, 0.00, 0.00, 0.00
97, 102451.20, 114313.61, 29170.95, 23001.44, 19624.88, 34776.09, 92553.25, 77135.73, 0.00, 0.00, 0.00
98, 102469.11, 114434.24, 29171.89, 23013.00, 19649.31, 34783.79, 92566.51, 77148.77, 0.00, 0.00, 0.00
99, 102466.61, 114267.10, 29159.59, 23007.74, 19653.04, 34786.42, 92569.92, 77145.05, 0.07, -0.20, 0.97
100, 102461.13, 114198.66, 29173.70, 23004.41, 19644.30, 34790.11, 92580.54, 77140.52, 0.00, 0.00, 0.00
101, 102468.75, 114283.02, 29189.66, 23013.94, 19631.34, 34785.13, 92574.35, 77146.51, 0.00, 0.00, 0.00
102, 102463.99, 114275.88, 29154.92, 22997.96, 19605.79, 34777.82, 92551.04, 77142.59, 0.00, 0.00, 0.00
103, 102464.15, 114238.98, 29149.13, 22994.56, 19645.26, 34783.52, 92549.77, 77145.57, 0.00, 0.00, 0.00
104, 102466.63, 114283.59, 29160.93, 23004.95, 19653.38, 34783.94, 92568.05, 77151.31, 0.00, 0.00, 0.00
105, 102470.90, 114334.40, 29172.47, 23006.56, 19643.14, 34785.15, 92558.81, 77151.67, 0.00, 0.00, 0.00
106, 102469.53, 114313.21, 29169.70, 23004.48, 19629.12, 34783.74, 92565.52, 77150.55, 0.00, 0.00, 0.00
107, 102475.91, 114329.41, 29180.27, 23011.75, 19655.27, 34804.41, 92583.59, 77159.31, 0.00, 0.00, 0.00
108, 102469.02, 114401.34, 29191.47, 23006.29, 19651.05, 34798.16, 92590.11, 77153.08, 0.00, 0.00, 0.00
109, 102466.92, 114279.95, 29162.50, 23003.59, 19644.05, 34802.34, 92574.69, 77150.24, 0.07, -0.20, 0.97
110, 102462.94, 114200.24, 29147.17, 22991.92, 19631.18, 34792.55, 92570.66, 77149.48, 0.00, 0.00, 0.00
111, 102473.29, 114289.27, 29158.83, 23001.71, 19639.79, 34807.77, 92595.88, 77159.88, 0.00, 0.00, 0.00
112, 102472.44, 114281.42, 29163.64, 23003.61, 19638.04, 34785.91, 92590.63, 77157.17, 0.00, 0.00, 0.00
113, 102467.45, 114295.15, 29163.73, 23000.93, 19635.65, 34793.15, 92579.85, 77151.60, 0.00, 0.00, 0.00
114, 102464.35, 114309.34, 29166.37, 22998.92, 19637.01, 34796.25, 92572.79, 77148.97, 0.00, 0.00, 0.00
115, 102450.42, 114299.53, 29167.53, 22992.79, 19621.57, 34784.43, 92560.52, 77132.38, 0.00, 0.00, 0.00
116, 102452.62, 114373.49, 29175.15, 23003.32, 19627.02, 34779.54, 92567.80, 77139.40, 0.00, 0.00, 0.00
117, 102470.01, 114357.49, 29162.52, 23006.05, 19637.86, 34779.63, 92587.13, 77156.56, 0.00, 0.00, 0.00
118, 102466.30, 114298.05, 29160.60, 23003.92, 19637.77, 34784.07, 92618.49, 77145.14, 0.00, 0.00, 0.00
119, 102462.45, 114206.52, 29154.16, 22997.11, 19625.52, 34777.14, 92594.53, 77140.20, 0.07, -0.20, 0.96
120, 102468.66, 114220.38, 29155.12, 23000.99, 19628.36, 34790.02, 92571.45, 77148.01, 0.00, 0.00, 0.00
121, 102469.52, 114317.16, 29167.97, 23008.21, 19637.77, 34797.51, 92566.75, 77149.30, 0.00, 0.00, 0.00
122, 102463.81, 114374.90, 29171.93, 23002.67, 19633.41, 34786.60, 92567.02, 77145.30, 0.00, 0.00, 0.00
123, 102459.95, 114348.64, 29172.29, 23003.05, 19636.65, 34797.71, 92574.41, 77141.99, 0.00, 0.00, 0.00
124, 102464.80, 114297.70, 29163.50, 23001.02, 19636.95, 34802.63, 92597.98, 77145.55, 0.00, 0.00, 0.00
125, 102471.08, 114302.86, 29166.10, 23005.71, 19615.20, 34791.50, 92606.25, 77152.07, 0.00, 0.00, 0.00
126, 102464.73, 114310.20, 29161.07, 23005.98, 19606.95, 34789.39, 92591.07, 77149.30, 0.00, 0.00, 0.00
127, 102463.55, 114315.98, 29143.48, 22993.42, 19630.53, 34781.68, 92577.88, 77150.53, 0.00, 0.00, 0.00
128, 102462.05, 114258.85, 29141.24, 22985.39, 19641.46, 34779.96, 92576.70, 77149.93, 0.08, -0.20, 0.97
129, 102468.66, 114285.88, 29152.80, 22994.15, 19639.85, 34803.21, 92583.29, 77154.38, 0.00, 0.00, 0.00
130, 102469.89, 114324.05, 29156.35, 22992.57, 19613.34, 34794.20, 92586.82, 77153.10, 0.00, 0.00, 0.00
131, 102463.81, 114338.76, 29158.95, 22994.22, 19626.98, 34785.21, 92584.84, 77146.93, 0.00, 0.00, 0.00
132, 102461.65, 114336.16, 29154.43, 22997.64, 19648.39, 34816.68, 92595.48, 77146.15, 0.00, 0.00, 0.00
133, 102462.05, 114328.07, 29151.46, 22995.81, 19646.62, 34800.64, 92613.65, 77143.20, 0.00, 0.00, 0.00
134, 102456.80, 114349.38, 29158.10, 22991.99, 19631.94, 34773.50, 92597.64, 77135.95, 0.00, 0.00, 0.00
135, 102468.46, 114399.20, 29215.23, 23018.59, 19643.52, 34797.60, 92592.39, 77150.95, 0.00, 0.00, 0.00
136, 102466.16, 114456.55, 29194.80, 23010.40, 19635.85, 34781.53, 92580.20, 77148.88, 0.00, 0.00, 0.00
137, 102475.91, 114477.45, 29166.77, 23006.34, 19631.54, 34786.67, 92589.04, 77152.79, 0.00, 0.00, 0.00
138, 102464.05, 114295.84, 29137.55, 22995.72, 19625.30, 34776.09, 92600.68, 77139.69, 0.08, -0.20, 0.97
139, 102459.39, 114225.84, 29126.71, 22981.59, 19612.54, 34775.80, 92603.54, 77135.91, 0.00, 0.00, 0.00
140, 102453.42, 114223.02, 29143.77, 22982.53, 19600.56, 34772.23, 92575.54, 77129.41, 0.00, 0.00, 0.00
141, 102453.91, 114258.49, 29161.63, 22998.74, 19638.55, 34803.74, 92567.96, 77131.27, 0.00, 0.00, 0.00
142, 102459.43, 114318.51, 29141.89, 22993.22, 19636.63, 34807.39, 92574.95, 77137.14, 0.00, 0.00, 0.00
143, 102457.51, 114339.95, 29143.10, 22995.90, 19644.30, 34774.57, 92589.70, 77137.19, 0.00, 0.00, 0.00
144, 102450.34, 114335.30, 29142.61, 22993.35, 19640.79, 34773.88, 92592.16, 77128.63, 0.00, 0.00, 0.00
145, 102470.67, 114420.30, 29151.55, 22989.91, 19628.43, 34776.30, 92605.80, 77144.07, 0.00, 0.00, 0.00
146, 102475.39, 114465.02, 29161.34, 22987.05, 19618.08, 34785.95, 92606.96, 77154.29, 0.00, 0.00, 0.00
147, 102435.54, 114319.47, 29158.39, 22992.39, 19620.38, 34822.88, 92614.20, 77114.01, 0.00, 0.00, 0.00
148, 102438.80, 114246.63, 29159.32, 22995.45, 19608.60, 34816.35, 92599.72, 77110.34, 0.08, -0.20, 0.98
149, 102439.12, 114235.36, 29132.90, 22979.22, 19600.56, 34753.45, 92582.84, 77118.79, 0.00, 0.00, 0.00
150, 102423.89, 114274.83, 29130.00, 22975.38, 19603.26, 34746.16, 92580.19, 77103.88, 0.00, 0.00, 0.00
151, 102412.07, 114324.81, 29131.52, 22972.92, 19609.30, 34756.76, 92581.62, 77094.00, 0.00, 0.00, 0.00
152, 102420.92, 114380.98, 29159.97, 22993.78, 19638.53, 34779.40, 92591.67, 77106.81, 0.00, 0.00, 0.00
153, 102411.66, 114348.97, 29174.41, 23000.93, 19635.27, 34786.53, 92599.43, 77095.55, 0.00, 0.00, 0.00
154, 102417.34, 114383.46, 29171.53, 22995.00, 19620.56, 34776.47, 92626.07, 77098.90, 0.00, 0.00, 0.00
155, 102406.15, 114298.34, 29116.41, 22968.45, 19602.48, 34761.57, 92608.46, 77089.17, 0.00, 0.00, 0.00
156, 102412.63, 114282.86, 29115.78, 22976.38, 19623.40, 34783.58, 92600.75, 77097.78, 0.00, 0.00, 0.00
157, 102422.51, 114347.97, 29134.67, 22984.32, 19615.31, 34789.44, 92614.74, 77107.99, 0.00, 0.00, 0.00
158, 102410.75, 114342.38, 29131.05, 22976.03, 19620.61, 34796.10, 92624.38, 77098.14, 0.09, -0.20, 0.98
159, 102423.16, 114296.36, 29144.39, 22981.93, 19627.83, 34792.39, 92637.88, 77108.17, 0.00, 0.00, 0.00
160, 102425.73, 114258.65, 29135.83, 22977.12, 19609.61, 34765.37, 92616.22, 77108.91, 0.00, 0.00, 0.00
161, 102424.30, 114271.16, 29133.29, 22973.59, 19594.54, 34761.01, 92605.69, 77107.08, 0.00, 0.00, 0.00
162, 102427.91, 114395.82, 29147.03, 22985.71, 19625.86, 34805.82, 92625.83, 77112.20, 0.00, 0.00, 0.00
163, 102419.58, 114420.48, 29157.13, 22991.52, 19627.38, 34843.53, 92641.07, 77109.13, 0.00, 0.00, 0.00
164, 102418.75, 114301.88, 29146.99, 22980.54, 19601.32, 34782.26, 92648.49, 77105.45, 0.00, 0.00, 0.00
165, 102425.99, 114306.23, 29142.81, 22979.89, 19593.92, 34742.30, 92655.60, 77110.77, 0.00, 0.00, 0.00
166, 102423.91, 114286.55, 29149.71, 22986.67, 19614.53, 34767.89, 92665.84, 77110.07, 0.00, 0.00, 0.00
167, 102419.31, 114288.98, 29122.51, 22973.23, 19609.16, 34765.99, 92642.19, 77104.82, 0.00, 0.00, 0.00
168, 102419.58, 114317.19, 29123.52, 22976.18, 19611.55, 34768.92, 92623.13, 77103.34, 0.09, -0.19, 0.98
169, 102427.13, 114335.52, 29152.48, 22987.47, 19607.78, 34767.22, 92638.23, 77112.27, 0.00, 0.00, 0.00
170, 102430.69, 114321.70, 29139.48, 22985.93, 19585.60, 34762.13, 92646.59, 77116.04, 0.00, 0.00, 0.00
171, 102426.89, 114270.74, 29134.69, 22982.06, 19576.24, 34767.98, 92652.05, 77114.88, 0.00, 0.00, 0.00
172, 102423.05, 114307.91, 29136.46, 22975.36, 19615.46, 34794.18, 92646.37, 77110.19, 0.00, 0.00, 0.00
173, 102422.15, 114311.38, 29131.54, 22971.92, 19618.19, 34778.20, 92654.52, 77109.56, 0.00, 0.00, 0.00
174, 102427.73, 114302.68, 29121.17, 22970.13, 19608.11, 34769.19, 92662.98, 77118.19, 0.00, 0.00, 0.00
175, 102430.80, 114342.53, 29128.93, 22972.47, 19601.85, 34774.60, 92649.05, 77121.56, 0.00, 0.00, 0.00
176, 102430.38, 114343.27, 29133.93, 22972.59, 19602.50, 34779.83, 92654.30, 77118.23, 0.00, 0.00, 0.00
177, 102427.29, 114362.65, 29133.35, 22968.92, 19599.15, 34775.00, 92649.52, 77112.45, 0.00, 0.00, 0.00
178, 102422.77, 114415.98, 29145.20, 22972.92, 19595.64, 34780.57, 92655.35, 77107.64, 0.08, -0.19, 0.98
179, 102425.75, 114383.13, 29144.62, 22976.25, 19594.01, 34798.29, 92659.80, 77109.36, 0.00, 0.00, 0.00
180, 102425.14, 114321.01, 29153.13, 22977.14, 19611.08, 34794.82, 92641.90, 77109.83, 0.00, 0.00, 0.00
181, 102422.48, 114292.58, 29150.50, 22982.53, 19609.03, 34801.44, 92642.48, 77110.12, 0.00, 0.00, 0.00
182, 102422.55, 114353.11, 29130.89, 22977.95, 19609.81, 34786.62, 92653.92, 77109.31, 0.00, 0.00, 0.00
183, 102420.12, 114298.84, 29129.60, 22969.34, 19599.82, 34750.77, 92651.69, 77106.77, 0.00, 0.00, 0.00
184, 102417.59, 114227.31, 29118.53, 22969.23, 19607.24, 34768.05, 92639.28, 77104.44, 0.00, 0.00, 0.00
185, 102428.14, 114271.86, 29126.91, 22974.78, 19610.15, 34773.70, 92645.66, 77117.41, 0.00, 0.00, 0.00
186, 102425.14, 114349.66, 29135.81, 22976.07, 19605.92, 34773.14, 92645.18, 77115.80, 0.00, 0.00, 0.00
187, 102429.50, 114426.24, 29143.84, 22974.62, 19606.66, 34775.91, 92659.24, 77118.05, 0.00, 0.00, 0.00
188, 102426.48, 114400.72, 29153.00, 22974.62, 19603.37, 34775.16, 92657.95, 77112.87, 0.08, -0.20, 0.99
189, 102426.35, 114348.57, 29153.13, 22982.09, 19600.87, 34772.85, 92644.27, 77113.49, 0.00, 0.00, 0.00
190, 102414.51, 114258.23, 29128.55, 22967.00, 19575.28, 34754.44, 92627.68, 77100.87, 0.00, 0.00, 0.00
191, 102394.88, 114221.32, 29104.65, 22945.29, 19570.81, 34749.54, 92626.16, 77080.19, 0.00, 0.00, 0.00
192, 102429.34, 114305.41, 29137.96, 22984.63, 19637.28, 34832.20, 92659.42, 77118.23, 0.00, 0.00, 0.00
193, 102425.79, 114336.95, 29135.68, 22981.24, 19636.05, 34801.80, 92658.13, 77114.39, 0.00, 0.00, 0.00
194, 102432.72, 114408.20, 29151.44, 22987.52, 19622.33, 34785.08, 92649.85, 77121.41, 0.00, 0.00, 0.00
195, 102424.27, 114382.21, 29159.66, 22982.64, 19588.02, 34783.58, 92641.18, 77113.59, 0.00, 0.00, 0.00
196, 102421.86, 114314.13, 29127.43, 22975.69, 19601.05, 34794.31, 92644.54, 77111.46, 0.00, 0.00, 0.00
197, 102417.45, 114214.82, 29105.48, 22950.08, 19594.63, 34748.78, 92620.48, 77106.27, 0.00, 0.00, 0.00
198, 102433.15, 114274.61, 29128.05, 22962.24, 19597.14, 34749.68, 92626.56, 77124.31, 0.08, -0.20, 0.98
199, 102430.28, 114337.22, 29124.08, 22963.31, 19591.46, 34755.31, 92632.47, 77119.55, 0.00, 0.00, 0.00
200, 102419.09, 114359.86, 29126.04, 22969.72, 19599.60, 34768.20, 92651.29, 77107.80, 0.00, 0.00, 0.00
201, 102426.89, 114365.24, 29144.01, 22974.40, 19620.03, 34799.52, 92663.76, 77117.31, 0.00, 0.00, 0.00
202, 102433.41, 114428.37, 29153.00, 22986.62, 19624.70, 34783.29, 92658.46, 77124.05, 0.00, 0.00, 0.00
203, 102421.19, 114316.72, 29120.86, 22968.18, 19605.97, 34767.11, 92647.11, 77113.63, 0.00, 0.00, 0.00
204, 102417.08, 114289.90, 29113.17, 22956.54, 19584.22, 34765.70, 92628.04, 77108.17, 0.00, 0.00, 0.00
205, 102432.68, 114344.13, 29136.39, 22976.63, 19597.09, 34784.97, 92633.52, 77126.01, 0.00, 0.00, 0.00
206, 102422.02, 114268.95, 29124.81, 22970.22, 19598.19, 34787.98, 92655.16, 77115.51, 0.00, 0.00, 0.00
207, 102416.72, 114262.59, 29121.53, 22962.55, 19597.09, 34782.40, 92653.86, 77110.59, 0.00, 0.00, 0.00
208, 102421.79, 114296.40, 29123.88, 22959.15, 19598.81, 34758.08, 92638.91, 77114.01, 0.08, -0.20, 0.98
209, 102426.75, 114307.95, 29140.44, 22971.76, 19602.43, 34770.44, 92630.61, 77116.49, 0.00, 0.00, 0.00
210, 102431.42, 114396.42, 29145.24, 22967.80, 19597.12, 34772.74, 92630.30, 77120.63, 0.00, 0.00, 0.00
211, 102420.36, 114385.14, 29128.10, 22959.35, 19587.75, 34767.64, 92623.01, 77107.32, 0.00, 0.00, 0.00
212, 102413.72, 114312.92, 29108.14, 22952.54, 19583.95, 34767.60, 92627.03, 77099.52, 0.00, 0.00, 0.00
213, 102419.34, 114312.43, 29124.28, 22961.12, 19592.51, 34766.95, 92616.20, 77108.35, 0.00, 0.00, 0.00
214, 102425.88, 114361.38, 29132.44, 22963.60, 19598.21, 34771.02, 92619.10, 77114.32, 0.00, 0.00, 0.00
215, 102430.09, 114362.88, 29148.39, 22967.67, 19597.92, 34797.26, 92621.36, 77116.55, 0.00, 0.00, 0.00
216, 102406.62, 114289.41, 29117.86, 22949.00, 19574.99, 34769.32, 92597.15, 77095.01, 0.00, 0.00, 0.00
217, 102416.80, 114304.98, 29123.76, 22957.68, 19576.64, 34744.78, 92619.28, 77105.54, 0.00, 0.00, 0.00
218, 102425.32, 114381.23, 29138.47, 22966.28, 19593.38, 34757.48, 92631.28, 77111.46, 0.08, -0.20, 0.98
219, 102413.32, 114339.63, 29137.24, 22962.53, 19591.21, 34762.39, 92627.34, 77100.62, 0.00, 0.00, 0.00
220, 102406.84, 114209.32, 29131.52, 22959.13, 19570.65, 34754.01, 92628.69, 77094.05, 0.00, 0.00, 0.00
221, 102414.62, 114288.00, 29124.54, 22959.22, 19577.60, 34764.43, 92624.69, 77100.57, 0.00, 0.00, 0.00
222, 102417.99, 114338.52, 29125.51, 22962.53, 19581.18, 34772.45, 92613.66, 77101.71, 0.00, 0.00, 0.00
223, 102421.10, 114364.44, 29137.20, 22964.72, 19579.01, 34760.38, 92624.53, 77105.23, 0.00, 0.00, 0.00
224, 102415.02, 114341.55, 29130.18, 22955.08, 19589.25, 34750.55, 92621.29, 77097.29, 0.00, 0.00, 0.00
225, 102408.45, 114280.48, 29111.98, 22942.05, 19588.17, 34752.00, 92600.39, 77090.23, 0.00, 0.00, 0.00
226, 102414.59, 114338.80, 29125.19, 22952.13, 19582.09, 34761.97, 92612.98, 77100.02, 0.00, 0.00, 0.00
227, 102418.73, 114387.41, 29135.79, 22960.96, 19595.51, 34796.46, 92614.18, 77105.40, 0.00, 0.00, 0.00
228, 102412.88, 114296.83, 29125.37, 22954.41, 19605.63, 34771.78, 92604.57, 77100.17, 0.08, -0.20, 0.99
229, 102420.02, 114301.19, 29105.61, 22951.80, 19588.40, 34745.43, 92622.67, 77106.01, 0.00, 0.00, 0.00
230, 102423.34, 114360.48, 29101.19, 22943.64, 19566.34, 34738.07, 92616.30, 77110.86, 0.00, 0.00, 0.00
231, 102424.25, 114309.27, 29089.92, 22923.66, 19550.38, 34728.82, 92586.16, 77113.65, 0.00, 0.00, 0.00
232, 102426.55, 114267.91, 29108.59, 22941.85, 19558.45, 34746.57, 92602.07, 77117.83, 0.00, 0.00, 0.00
233, 102421.57, 114331.70, 29140.04, 22963.76, 19588.33, 34770.35, 92627.21, 77107.34, 0.00, 0.00, 0.00
234, 102433.15, 114362.20, 29139.16, 22956.45, 19597.21, 34779.67, 92618.23, 77116.49, 0.00, 0.00, 0.00
235, 102439.34, 114344.79, 29109.93, 22937.56, 19594.90, 34759.35, 92615.03, 77119.73, 0.00, 0.00, 0.00
236, 102443.72, 114282.72, 29110.82, 22944.33, 19588.11, 34765.03, 92611.77, 77120.69, 0.00, 0.00, 0.00
237, 102454.00, 114350.54, 29126.91, 22960.18, 19608.89, 34777.17, 92616.30, 77135.15, 0.00, 0.00, 0.00
238, 102452.66, 114327.29, 29113.79, 22950.66, 19594.16, 34764.18, 92605.24, 77133.66, 0.08, -0.20, 0.98
239, 102461.13, 114329.68, 29117.15, 22950.28, 19596.33, 34765.72, 92607.16, 77141.57, 0.00, 0.00, 0.00
240, 102461.51, 114341.10, 29125.91, 22953.68, 19594.72, 34769.10, 92619.79, 77143.89, 0.00, 0.00, 0.00
241, 102462.31, 114331.65, 29141.46, 22955.29, 19570.52, 34778.17, 92619.37, 77143.58, 0.00, 0.00, 0.00
242, 102465.22, 114366.97, 29144.68, 22956.92, 19589.09, 34803.57, 92613.69, 77143.67, 0.00, 0.00, 0.00
243, 102464.75, 114394.13, 29140.44, 22956.78, 19612.34, 34784.63, 92620.75, 77144.67, 0.00, 0.00, 0.00
244, 102462.02, 114344.14, 29115.34, 22949.79, 19594.07, 34743.26, 92623.01, 77139.98, 0.00, 0.00, 0.00
245, 102461.94, 114354.85, 29108.86, 22939.21, 19589.20, 34752.31, 92632.04, 77141.16, 0.00, 0.00, 0.00
246, 102453.95, 114354.18, 29093.57, 22923.77, 19564.73, 34745.65, 92603.25, 77133.14, 0.00, 0.00, 0.00
247, 102470.32, 114360.28, 29116.46, 22942.90, 19575.77, 34771.54, 92616.26, 77151.89, 0.00, 0.00, 0.00
248, 102473.09, 114372.17, 29119.94, 22949.72, 19577.85, 34765.63, 92620.77, 77155.96, 0.08, -0.20, 0.98
249, 102470.85, 114301.07, 29109.66, 22939.04, 19594.16, 34769.81, 92605.87, 77152.77, 0.00, 0.00, 0.00
250, 102468.62, 114279.66, 29108.07, 22931.97, 19582.61, 34766.89, 92606.09, 77149.79, 0.00, 0.00, 0.00
251, 102467.48, 114303.94, 29120.48, 22935.44, 19583.41, 34768.74, 92614.23, 77153.32, 0.00, 0.00, 0.00
252, 102461.45, 114278.56, 29123.52, 22937.00, 19580.37, 34761.03, 92605.60, 77148.63, 0.00, 0.00, 0.00
253, 102467.75, 114315.76, 29121.19, 22941.99, 19585.40, 34762.01, 92605.55, 77151.13, 0.00, 0.00, 0.00
254, 102468.64, 114361.02, 29118.47, 22936.38, 19577.63, 34760.38, 92603.32, 77152.99, 0.00, 0.00, 0.00
255, 102469.34, 114401.66, 29120.14, 22936.89, 19572.46, 34757.41, 92611.79, 77156.74, 0.00, 0.00, 0.00
0, 102459.97, 114384.60, 29119.23, 22936.17, 19568.33, 34760.67, 92603.43, 77146.62, 0.00, 0.00, 0.00
1, 102468.46, 114336.30, 29112.47, 22938.88, 19562.04, 34768.74, 92618.56, 77151.63, 0.00, 0.00, 0.00
2, 102470.27, 114393.84, 29112.07, 22941.65, 19577.54, 34778.96, 92637.45, 77154.11, 0.08, -0.20, 0.98
3, 102465.96, 114489.23, 29121.66, 22935.08, 19584.46, 34758.28, 92633.47, 77153.19, 0.00, 0.00, 0.00
4, 102449.46, 114338.69, 29102.82, 22916.26, 19547.79, 34733.83, 92571.69, 77136.78, 0.00, 0.00, 0.00
5, 102460.80, 114277.18, 29110.84, 22924.02, 19548.61, 34738.59, 92569.66, 77148.88, 0.00, 0.00, 0.00
6, 102462.78, 114289.36, 29121.75, 22925.51, 19556.50, 34748.42, 92592.77, 77151.49, 0.00, 0.00, 0.00
7, 102461.47, 114254.98, 29135.68, 22935.33, 19579.97, 34750.34, 92602.49, 77148.56, 0.00, 0.00, 0.00
8, 102467.70, 114320.38, 29119.23, 22939.44, 19588.04, 34764.25, 92621.40, 77152.61, 0.00, 0.00, 0.00
9, 102458.05, 114367.37, 29108.16, 22924.62, 19568.42, 34758.55, 92617.27, 77143.04, 0.00, 0.00, 0.00
10, 102458.98, 114350.29, 29105.41, 22925.45, 19564.84, 34769.10, 92607.01, 77140.47, 0.00, 0.00, 0.00
11, 102459.70, 114343.38, 29107.78, 22931.12, 19557.46, 34758.70, 92605.89, 77143.06, 0.00, 0.00, 0.00
12, 102456.93, 114408.16, 29110.22, 22929.38, 19556.66, 34768.76, 92619.48, 77143.60, 0.08, -0.20, 0.98
13, 102464.66, 114539.12, 29137.02, 22946.77, 19607.82, 34781.79, 92635.44, 77149.75, 0.00, 0.00, 0.00
14, 102457.60, 114378.08, 29138.38, 22937.78, 19574.90, 34757.25, 92594.22, 77138.26, 0.00, 0.00, 0.00
15, 102449.40, 114268.04, 29109.86, 22922.96, 19563.68, 34758.53, 92570.35, 77132.20, 0.00, 0.00, 0.00
16, 102446.27, 114262.27, 29125.42, 22931.97, 19566.56, 34773.41, 92596.59, 77127.64, 0.00, 0.00, 0.00
17, 102443.05, 114309.99, 29119.74, 22925.60, 19582.56, 34753.63, 92602.34, 77122.75, 0.00, 0.00, 0.00
18, 102438.84, 114358.02, 29095.00, 22915.83, 19562.45, 34733.96, 92605.38, 77121.27, 0.00, 0.00, 0.00
19, 102444.75, 114347.92, 29101.12, 22923.48, 19554.47, 34738.77, 92607.05, 77129.97, 0.00, 0.00, 0.00
20, 102445.35, 114331.63, 29116.59, 22929.18, 19566.16, 34742.50, 92584.92, 77132.18, 0.00, 0.00, 0.00
21, 102440.01, 114345.87, 29109.39, 22926.18, 19575.17, 34749.59, 92573.45, 77125.45, 0.00, 0.00, 0.00
22, 102441.38, 114393.38, 29103.85, 22921.06, 19573.33, 34755.51, 92582.46, 77124.38, 0.08, -0.20, 0.98
23, 102448.28, 114461.40, 29119.31, 22929.31, 19577.29, 34756.65, 92600.37, 77132.60, 0.00, 0.00, 0.00
24, 102444.95, 114383.57, 29119.87, 22928.53, 19569.80, 34755.55, 92594.58, 77130.64, 0.00, 0.00, 0.00
25, 102442.94, 114315.84, 29111.67, 22922.36, 19561.42, 34756.83, 92577.55, 77130.70, 0.00, 0.00, 0.00
26, 102445.82, 114363.77, 29123.74, 22929.11, 19567.05, 34757.72, 92588.95, 77135.11, 0.00, 0.00, 0.00
27, 102444.97, 114324.99, 29124.46, 22927.77, 19570.45, 34762.68, 92598.55, 77129.99, 0.00, 0.00, 0.00
28, 102430.73, 114292.80, 29103.85, 22916.64, 19561.26, 34750.34, 92571.02, 77116.96, 0.00, 0.00, 0.00
29, 102429.99, 114319.89, 29108.43, 22911.12, 19525.72, 34734.57, 92573.61, 77117.45, 0.00, 0.00, 0.00
30, 102449.13, 114412.05, 29161.16, 22943.08, 19584.17, 34772.12, 92611.79, 77133.88, 0.00, 0.00, 0.00
31, 102447.63, 114378.59, 29114.26, 22935.46, 19597.63, 34768.67, 92584.68, 77132.56, 0.00, 0.00, 0.00
32, 102437.51, 114295.77, 29113.66, 22927.70, 19599.37, 34764.63, 92561.39, 77122.48, 0.08, -0.20, 0.98
33, 102442.89, 114371.75, 29118.00, 22940.80, 19609.32, 34818.32, 92584.03, 77128.20, 0.00, 0.00, 0.00
34, 102447.70, 114475.75, 29130.00, 22941.96, 19613.79, 34827.41, 92606.54, 77134.75, 0.00, 0.00, 0.00
35, 102436.50, 114320.67, 29099.91, 22918.49, 19568.04, 34751.44, 92595.54, 77123.04, 0.00, 0.00, 0.00
36, 102436.95, 114262.80, 29091.00, 22912.62, 19537.90, 34715.52, 92565.97, 77120.65, 0.00, 0.00, 0.00
37, 102446.63, 114326.24, 29108.81, 22922.81, 19564.68, 34737.79, 92552.06, 77129.61, 0.00, 0.00, 0.00
38, 102448.52, 114349.76, 29118.38, 22928.91, 19595.73, 34744.94, 92558.33, 77131.82, 0.00, 0.00, 0.00
39, 102434.87, 114299.30, 29108.81, 22917.85, 19578.67, 34733.89, 92559.06, 77121.16, 0.00, 0.00, 0.00
40, 102443.95, 114343.16, 29114.29, 22920.55, 19572.77, 34741.96, 92561.92, 77125.50, 0.00, 0.00, 0.00
41, 102450.05, 114417.81, 29141.31, 22927.68, 19584.22, 34753.63, 92574.30, 77129.23, 0.00, 0.00, 0.00
42, 102439.00, 114360.71, 29121.71, 22919.70, 19571.14, 34743.86, 92567.42, 77118.77, 0.08, -0.19, 0.98
43, 102442.55, 114425.35, 29095.27, 22904.26, 19560.48, 34748.42, 92599.52, 77124.55, 0.00, 0.00, 0.00
44, 102454.18, 114417.16, 29117.71, 22920.44, 19566.25, 34767.67, 92618.32, 77135.51, 0.00, 0.00, 0.00
45, 102450.70, 114347.72, 29101.77, 22917.20, 19562.56, 34775.78, 92585.08, 77130.46, 0.00, 0.00, 0.00
46, 102452.88, 114408.41, 29106.62, 22917.02, 19555.56, 34748.16, 92563.58, 77132.11, 0.00, 0.00, 0.00
47, 102447.88, 114297.79, 29100.72, 22912.62, 19557.17, 34739.50, 92553.74, 77126.95, 0.00, 0.00, 0.00
48, 102439.05, 114239.54, 29089.54, 22901.96, 19547.65, 34741.23, 92545.12, 77118.61, 0.00, 0.00, 0.00
49, 102444.23, 114297.27, 29098.30, 22903.85, 19543.54, 34767.31, 92550.55, 77121.18, 0.00, 0.00, 0.00
50, 102445.38, 114350.67, 29104.38, 22904.73, 19556.86, 34732.89, 92564.25, 77119.20, 0.00, 0.00, 0.00
51, 102452.19, 114407.13, 29115.20, 22916.15, 19571.54, 34737.74, 92597.82, 77127.27, 0.00, 0.00, 0.00
52, 102456.17, 114482.32, 29125.73, 22923.37, 19575.43, 34754.93, 92596.52, 77130.44, 0.08, -0.20, 0.98
53, 102448.68, 114374.03, 29107.27, 22912.21, 19551.14, 34746.43, 92570.59, 77120.83, 0.00, 0.00, 0.00
54, 102449.84, 114309.30, 29097.34, 22905.53, 19559.59, 34747.51, 92557.30, 77120.51, 0.00, 0.00, 0.00
55, 102453.69, 114284.33, 29090.71, 22900.81, 19583.50, 34753.32, 92561.88, 77125.56, 0.00, 0.00, 0.00
56, 102455.61, 114365.09, 29117.57, 22907.95, 19582.45, 34758.50, 92579.09, 77126.46, 0.00, 0.00, 0.00
57, 102455.66, 114371.39, 29128.88, 22923.26, 19582.77, 34768.14, 92568.65, 77129.36, 0.00, 0.00, 0.00
58, 102455.21, 114348.95, 29101.84, 22914.18, 19581.31, 34801.46, 92547.82, 77123.09, 0.00, 0.00, 0.00
59, 102459.14, 114324.95, 29085.03, 22901.96, 19569.06, 34755.20, 92558.98, 77124.40, 0.00, 0.00, 0.00
60, 102463.09, 114377.80, 29099.15, 22910.78, 19567.59, 34737.45, 92561.55, 77132.88, 0.00, 0.00, 0.00
61, 102456.21, 114317.08, 29099.02, 22909.15, 19572.97, 34748.25, 92562.44, 77129.63, 0.00, 0.00, 0.00
62, 102465.78, 114338.58, 29112.90, 22917.73, 19581.56, 34757.14, 92574.15, 77141.73, 0.08, -0.19, 0.98
63, 102462.98, 114388.85, 29103.11, 22909.24, 19581.22, 34759.29, 92579.29, 77138.05, 0.00, 0.00, 0.00
64, 102462.94, 114462.70, 29110.17, 22902.78, 19564.17, 34770.02, 92588.27, 77142.23, 0.00, 0.00, 0.00
65, 102463.86, 114350.96, 29098.48, 22894.20, 19541.10, 34762.06, 92583.00, 77145.61, 0.00, 0.00, 0.00
66, 102466.45, 114324.20, 29103.67, 22900.08, 19556.46, 34751.24, 92569.77, 77145.32, 0.00, 0.00, 0.00
67, 102467.05, 114353.78, 29112.36, 22898.94, 19584.49, 34778.60, 92564.23, 77146.06, 0.00, 0.00, 0.00
68, 102468.44, 114442.88, 29104.18, 22901.37, 19577.29, 34760.52, 92576.88, 77147.80, 0.00, 0.00, 0.00
69, 102468.57, 114437.55, 29100.49, 22903.47, 19578.59, 34752.36, 92578.04, 77146.53, 0.00, 0.00, 0.00
70, 102459.72, 114345.77, 29105.28, 22902.51, 19569.91, 34763.51, 92558.30, 77137.52, 0.00, 0.00, 0.00
71, 102447.34, 114337.04, 29107.76, 22896.72, 19554.85, 34748.11, 92545.67, 77128.02, 0.00, 0.00, 0.00
72, 102451.32, 114414.35, 29106.06, 22907.52, 19568.08, 34752.22, 92567.04, 77130.91, 0.08, -0.19, 0.98
73, 102464.77, 114386.57, 29098.48, 22906.85, 19559.85, 34746.97, 92592.63, 77139.47, 0.00, 0.00, 0.00
74, 102460.66, 114356.57, 29093.34, 22898.87, 19553.22, 34747.64, 92575.05, 77134.59, 0.00, 0.00, 0.00
75, 102459.97, 114362.09, 29094.50, 22896.21, 19555.45, 34753.81, 92552.45, 77137.41, 0.00, 0.00, 0.00
76, 102462.63, 114327.91, 29102.89, 22898.00, 19557.02, 34758.88, 92548.65, 77144.09, 0.00, 0.00, 0.00
77, 102456.05, 114314.30, 29115.69, 22908.66, 19565.82, 34755.71, 92567.02, 77139.35, 0.00, 0.00, 0.00
78, 102453.82, 114342.98, 29113.71, 22916.10, 19568.64, 34760.18, 92570.17, 77134.86, 0.00, 0.00, 0.00
79, 102459.63, 114419.52, 29099.40, 22898.69, 19563.65, 34764.25, 92561.95, 77139.06, 0.00, 0.00, 0.00
80, 102458.11, 114409.26, 29095.76, 22903.63, 19541.82, 34758.82, 92554.70, 77136.83, 0.00, 0.00, 0.00
81, 102455.38, 114353.58, 29098.37, 22903.81, 19576.51, 34765.59, 92558.17, 77133.27, 0.00, 0.00, 0.00
82, 102458.34, 114408.63, 29111.40, 22910.96, 19623.51, 34788.88, 92595.48, 77136.11, 0.08, -0.20, 0.98
83, 102455.54, 114446.18, 29123.52, 22909.40, 19604.36, 34791.47, 92595.49, 77135.20, 0.00, 0.00, 0.00
84, 102446.09, 114355.79, 29119.47, 22904.35, 19588.38, 34771.27, 92551.91, 77128.07, 0.00, 0.00, 0.00
85, 102436.16, 114307.91, 29091.60, 22889.48, 19565.84, 34741.27, 92536.94, 77121.07, 0.00, 0.00, 0.00
86, 102451.14, 114390.81, 29112.47, 22909.73, 19586.97, 34771.11, 92555.93, 77137.19, 0.00, 0.00, 0.00
87, 102457.55, 114352.95, 29094.13, 22903.79, 19589.09, 34775.60, 92570.22, 77139.20, 0.00, 0.00, 0.00
88, 102456.02, 114352.88, 29089.48, 22896.93, 19577.29, 34770.64, 92570.69, 77137.45, 0.00, 0.00, 0.00
89, 102452.05, 114374.14, 29094.79, 22897.19, 19564.55, 34744.51, 92556.98, 77134.17, 0.00, 0.00, 0.00
90, 102456.86, 114426.29, 29101.68, 22897.42, 19559.77, 34745.23, 92560.31, 77139.53, 0.00, 0.00, 0.00
91, 102463.52, 114449.04, 29110.58, 22904.14, 19573.56, 34762.19, 92559.53, 77146.10, 0.00, 0.00, 0.00
92, 102462.02, 114443.70, 29107.87, 22904.97, 19574.45, 34763.80, 92547.64, 77143.27, 0.08, -0.20, 0.98
93, 102452.80, 114386.61, 29101.72, 22899.18, 19559.14, 34754.97, 92544.34, 77133.77, 0.00, 0.00, 0.00
94, 102461.02, 114399.42, 29115.45, 22903.68, 19559.07, 34774.71, 92560.90, 77141.70, 0.00, 0.00, 0.00
95, 102459.05, 114397.81, 29121.73, 22908.10, 19559.03, 34804.41, 92578.44, 77140.85, 0.00, 0.00, 0.00
96, 102452.01, 114306.66, 29085.45, 22892.77, 19553.17, 34773.01, 92559.64, 77133.48, 0.00, 0.00, 0.00
97, 102456.75, 114364.82, 29100.94, 22895.43, 19551.03, 34753.92, 92542.09, 77137.90, 0.00, 0.00, 0.00
98, 102442.94, 114395.27, 29086.64, 22881.28, 19525.79, 34710.54, 92524.91, 77125.20, 0.00, 0.00, 0.00
99, 102455.92, 114405.26, 29092.94, 22894.09, 19540.10, 34736.46, 92540.78, 77137.19, 0.00, 0.00, 0.00
100, 102456.88, 114385.80, 29094.24, 22894.06, 19548.52, 34747.62, 92558.80, 77137.81, 0.00, 0.00, 0.00
101, 102449.64, 114341.13, 29090.04, 22886.46, 19546.73, 34756.98, 92559.95, 77132.54, 0.00, 0.00, 0.00
102, 102452.86, 114422.02, 29103.80, 22889.84, 19538.35, 34763.40, 92557.88, 77136.27, 0.08, -0.20, 0.99
103, 102456.34, 114407.94, 29115.36, 22892.01, 19541.08, 34753.27, 92577.77, 77138.02, 0.00, 0.00, 0.00
104, 102452.10, 114313.84, 29077.45, 22876.27, 19553.19, 34755.53, 92543.48, 77129.25, 0.00, 0.00, 0.00
105, 102455.88, 114388.36, 29093.74, 22887.00, 19552.48, 34758.70, 92528.24, 77134.39, 0.00, 0.00, 0.00
106, 102451.43, 114405.90, 29090.77, 22888.10, 19550.47, 34735.13, 92536.84, 77133.07, 0.00, 0.00, 0.00
107, 102449.46, 114333.91, 29081.88, 22880.23, 19532.59, 34724.17, 92533.67, 77131.98, 0.00, 0.00, 0.00
108, 102447.95, 114329.51, 29097.43, 22885.28, 19547.25, 34736.82, 92536.95, 77131.82, 0.00, 0.00, 0.00
109, 102457.35, 114460.55, 29095.89, 22886.71, 19554.71, 34751.24, 92551.17, 77145.61, 0.00, 0.00, 0.00
110, 102447.05, 114485.25, 29085.77, 22876.34, 19541.41, 34745.74, 92532.71, 77136.70, 0.00, 0.00, 0.00
111, 102437.21, 114339.20, 29073.88, 22875.29, 19535.20, 34733.07, 92527.93, 77122.68, 0.00, 0.00, 0.00
112, 102439.07, 114329.46, 29083.08, 22886.22, 19548.25, 34748.04, 92542.63, 77123.02, 0.08, -0.20, 0.98
113, 102447.83, 114325.21, 29096.70, 22894.94, 19564.66, 34768.00, 92536.95, 77129.50, 0.00, 0.00, 0.00
114, 102451.16, 114383.38, 29107.11, 22898.38, 19555.12, 34779.31, 92537.83, 77130.26, 0.00, 0.00, 0.00
115, 102452.21, 114468.45, 29108.05, 22899.70, 19556.35, 34769.32, 92563.98, 77135.76, 0.00, 0.00, 0.00
116, 102441.55, 114356.48, 29088.87, 22887.92, 19547.34, 34761.10, 92555.40, 77127.22, 0.00, 0.00, 0.00
117, 102448.95, 114362.88, 29079.73, 22883.22, 19545.13, 34750.37, 92549.09, 77135.40, 0.00, 0.00, 0.00
118, 102448.44, 114379.17, 29082.93, 22879.98, 19543.09, 34781.86, 92534.45, 77134.95, 0.00, 0.00, 0.00
119, 102448.73, 114403.29, 29102.78, 22888.10, 19545.28, 34801.20, 92527.81, 77138.62, 0.00, 0.00, 0.00
120, 102451.61, 114411.91, 29088.69, 22886.15, 19536.29, 34745.25, 92543.91, 77143.09, 0.00, 0.00, 0.00
121, 102457.58, 114424.63, 29088.22, 22886.53, 19538.44, 34737.80, 92555.17, 77149.10, 0.00, 0.00, 0.00
122, 102464.02, 114475.33, 29104.52, 22895.85, 19560.62, 34753.00, 92554.50, 77154.17, 0.08, -0.20, 0.99
123, 102453.46, 114390.62, 29092.16, 22879.40, 19530.02, 34722.29, 92525.91, 77140.07, 0.00, 0.00, 0.00
124, 102436.50, 114381.27, 29082.12, 22865.92, 19500.40, 34715.97, 92528.80, 77121.74, 0.00, 0.00, 0.00
125, 102449.40, 114409.28, 29096.14, 22885.97, 19514.37, 34745.47, 92536.87, 77134.08, 0.00, 0.00, 0.00
126, 102448.91, 114317.86, 29075.91, 22874.19, 19541.24, 34747.30, 92516.75, 77134.33, 0.00, 0.00, 0.00
127, 102448.39, 114289.45, 29079.35, 22881.12, 19556.23, 34763.20, 92522.65, 77132.72, 0.00, 0.00, 0.00
128, 102447.07, 114352.84, 29084.60, 22883.71, 19536.81, 34763.06, 92538.99, 77133.03, 0.00, 0.00, 0.00
129, 102454.85, 114405.05, 29108.94, 22894.53, 19543.92, 34759.02, 92536.40, 77142.41, 0.00, 0.00, 0.00
130, 102455.59, 114387.66, 29097.39, 22895.16, 19547.81, 34753.25, 92535.59, 77141.37, 0.00, 0.00, 0.00
131, 102457.94, 114384.47, 29085.50, 22884.90, 19551.76, 34781.13, 92536.09, 77147.49, 0.00, 0.00, 0.00
132, 102453.40, 114410.24, 29093.77, 22888.05, 19550.89, 34766.04, 92533.56, 77146.26, 0.08, -0.19, 0.99
133, 102449.30, 114472.63, 29085.61, 22887.65, 19558.63, 34751.39, 92542.30, 77142.08, 0.00, 0.00, 0.00
134, 102447.59, 114484.36, 29084.85, 22884.18, 19556.01, 34755.69, 92544.63, 77137.66, 0.00, 0.00, 0.00
135, 102457.71, 114411.96, 29100.54, 22897.48, 19550.38, 34759.18, 92563.04, 77148.25, 0.00, 0.00, 0.00
136, 102446.29, 114333.17, 29077.63, 22886.62, 19544.45, 34749.68, 92556.20, 77139.78, 0.00, 0.00, 0.00
137, 102443.23, 114323.78, 29076.73, 22884.47, 19551.14, 34746.10, 92548.20, 77135.15, 0.00, 0.00, 0.00
138, 102444.81, 114351.27, 29096.29, 22893.53, 19550.98, 34752.71, 92559.04, 77136.74, 0.00, 0.00, 0.00
139, 102451.09, 114436.37, 29120.32, 22909.64, 19563.23, 34772.59, 92597.89, 77143.31, 0.00, 0.00, 0.00
140, 102450.06, 114453.91, 29088.36, 22896.66, 19547.27, 34758.46, 92601.33, 77142.39, 0.00, 0.00, 0.00
141, 102445.46, 114359.34, 29076.91, 22888.65, 19539.04, 34742.90, 92565.52, 77137.86, 0.00, 0.00, 0.00
142, 102443.09, 114403.73, 29076.49, 22884.23, 19544.32, 34748.73, 92548.98, 77135.38, 0.08, -0.19, 0.98
143, 102447.07, 114402.62, 29092.89, 22887.02, 19546.55, 34774.98, 92558.93, 77138.95, 0.00, 0.00, 0.00
144, 102450.42, 114401.45, 29118.71, 22898.80, 19536.72, 34765.54, 92586.20, 77143.42, 0.00, 0.00, 0.00
145, 102446.16, 114488.45, 29102.02, 22895.05, 19530.35, 34737.96, 92599.90, 77138.28, 0.00, 0.00, 0.00
146, 102432.30, 114445.15, 29076.40, 22880.59, 19533.95, 34747.08, 92572.85, 77125.61, 0.00, 0.00, 0.00
147, 102432.54, 114294.44, 29081.96, 22873.39, 19525.68, 34741.61, 92571.22, 77127.38, 0.00, 0.00, 0.00
148, 102444.01, 114347.97, 29123.34, 22894.62, 19542.46, 34771.96, 92590.47, 77142.13, 0.00, 0.00, 0.00
149, 102431.67, 114418.20, 29063.73, 22870.53, 19522.35, 34727.86, 92594.52, 77128.73, 0.00, 0.00, 0.00
150, 102438.16, 114402.91, 29059.05, 22880.21, 19531.13, 34730.56, 92585.82, 77136.74, 0.00, 0.00, 0.00
151, 102437.62, 114371.10, 29069.47, 22881.21, 19513.52, 34738.36, 92582.09, 77137.74, 0.00, 0.00, 0.00
152, 102434.78, 114375.80, 29070.54, 22878.11, 19539.69, 34736.71, 92569.01, 77134.48, 0.08, -0.19, 0.98
153, 102438.51, 114380.22, 29081.76, 22885.48, 19550.02, 34743.46, 92567.45, 77138.73, 0.00, 0.00, 0.00
154, 102435.43, 114389.66, 29085.56, 22885.06, 19523.35, 34732.20, 92580.23, 77137.09, 0.00, 0.00, 0.00
155, 102438.55, 114437.64, 29091.87, 22886.02, 19522.33, 34736.18, 92593.17, 77139.78, 0.00, 0.00, 0.00
156, 102438.45, 114481.41, 29100.88, 22887.78, 19539.63, 34746.01, 92586.76, 77140.56, 0.00, 0.00, 0.00
157, 102428.41, 114384.84, 29081.61, 22873.01, 19526.91, 34734.90, 92569.84, 77131.42, 0.00, 0.00, 0.00
158, 102427.78, 114389.70, 29079.69, 22876.61, 19530.44, 34743.71, 92575.83, 77134.80, 0.00, 0.00, 0.00
159, 102429.68, 114399.73, 29088.09, 22881.44, 19534.62, 34747.17, 92586.71, 77137.32, 0.00, 0.00, 0.00
160, 102436.72, 114416.61, 29087.13, 22887.31, 19534.78, 34750.43, 92585.70, 77139.40, 0.00, 0.00, 0.00
161, 102435.00, 114414.09, 29087.75, 22884.81, 19535.45, 34747.30, 92561.45, 77137.41, 0.00, 0.00, 0.00
162, 102425.97, 114408.49, 29084.56, 22882.73, 19522.95, 34722.16, 92555.95, 77131.53, 0.08, -0.20, 0.98
163, 102422.53, 114418.89, 29082.35, 22879.49, 19516.00, 34722.90, 92550.93, 77128.52, 0.00, 0.00, 0.00
164, 102429.62, 114421.33, 29080.96, 22882.02, 19525.68, 34731.12, 92555.48, 77134.37, 0.00, 0.00, 0.00
165, 102418.95, 114421.55, 29076.40, 22872.25, 19507.02, 34722.72, 92548.80, 77124.27, 0.00, 0.00, 0.00
166, 102415.29, 114425.20, 29076.45, 22869.92, 19504.09, 34725.31, 92551.20, 77121.77, 0.00, 0.00, 0.00
167, 102426.59, 114425.48, 29084.02, 22883.49, 19523.44, 34746.79, 92568.88, 77132.02, 0.00, 0.00, 0.00
168, 102411.60, 114462.48, 29082.48, 22878.17, 19509.36, 34739.17, 92566.30, 77116.87, 0.00, 0.00, 0.00
169, 102404.31, 114397.88, 29072.76, 22868.67, 19495.59, 34727.08, 92555.13, 77110.81, 0.00, 0.00, 0.00
170, 102406.80, 114323.60, 29067.35, 22868.74, 19521.99, 34743.62, 92533.96, 77111.98, 0.00, 0.00, 0.00
171, 102416.16, 114349.71, 29086.84, 22886.46, 19526.95, 34746.16, 92531.26, 77121.54, 0.00, 0.00, 0.00
172, 102415.04, 114388.63, 29084.16, 22882.46, 19497.45, 34733.74, 92534.66, 77122.55, 0.08, -0.20, 0.98
173, 102411.76, 114393.19, 29077.92, 22871.80, 19502.61, 34741.81, 92537.59, 77119.02, 0.00, 0.00, 0.00
174, 102413.88, 114461.34, 29077.94, 22878.89, 19543.92, 34757.95, 92551.82, 77120.71, 0.00, 0.00, 0.00
175, 102418.73, 114541.42, 29086.73, 22878.89, 19522.95, 34749.16, 92583.80, 77127.24, 0.00, 0.00, 0.00
176, 102412.34, 114379.88, 29058.70, 22867.58, 19513.47, 34732.29, 92571.18, 77118.57, 0.00, 0.00, 0.00
177, 102413.56, 114381.31, 29060.82, 22874.80, 19517.56, 34719.59, 92515.12, 77121.43, 0.00, 0.00, 0.00
178, 102403.06, 114385.30, 29068.85, 22868.43, 19510.30, 34719.88, 92505.35, 77113.88, 0.00, 0.00, 0.00
179, 102400.22, 114341.04, 29066.95, 22869.39, 19487.55, 34725.54, 92514.60, 77112.98, 0.00, 0.00, 0.00
180, 102409.48, 114362.88, 29063.03, 22879.49, 19521.10, 34778.33, 92527.03, 77126.32, 0.00, 0.00, 0.00
181, 102414.23, 114364.64, 29052.19, 22871.96, 19536.92, 34754.10, 92555.87, 77129.23, 0.00, 0.00, 0.00
182, 102414.30, 114377.76, 29051.81, 22870.95, 19517.12, 34709.42, 92553.67, 77126.34, 0.08, -0.20, 0.98
183, 102426.02, 114488.27, 29072.06, 22882.98, 19513.01, 34726.38, 92543.05, 77138.95, 0.00, 0.00, 0.00
184, 102416.00, 114470.27, 29076.06, 22881.68, 19526.57, 34734.90, 92516.08, 77131.62, 0.00, 0.00, 0.00
185, 102412.07, 114297.88, 29056.22, 22876.14, 19522.93, 34720.64, 92518.36, 77126.10, 0.00, 0.00, 0.00
186, 102412.31, 114320.56, 29064.51, 22872.12, 19518.95, 34726.83, 92525.55, 77125.72, 0.00, 0.00, 0.00
187, 102405.05, 114382.79, 29062.77, 22871.18, 19511.04, 34720.17, 92513.95, 77118.08, 0.00, 0.00, 0.00
188, 102418.55, 114546.90, 29069.54, 22877.77, 19525.77, 34731.73, 92539.64, 77132.76, 0.00, 0.00, 0.00
189, 102412.78, 114532.28, 29062.65, 22874.98, 19517.19, 34724.93, 92527.30, 77129.36, 0.00, 0.00, 0.00
190, 102399.89, 114403.91, 29064.84, 22875.42, 19509.23, 34716.62, 92521.71, 77117.52, 0.00, 0.00, 0.00
191, 102393.74, 114333.37, 29052.08, 22871.38, 19511.69, 34717.46, 92521.45, 77110.84, 0.00, 0.00, 0.00
192, 102397.05, 114295.69, 29039.21, 22868.58, 19517.07, 34735.53, 92524.66, 77115.17, 0.08, -0.20, 0.98
193, 102403.58, 114316.27, 29043.03, 22875.13, 19531.09, 34774.20, 92511.84, 77117.85, 0.00, 0.00, 0.00
194, 102403.15, 114352.99, 29071.10, 22881.39, 19527.29, 34750.08, 92523.59, 77117.56, 0.00, 0.00, 0.00
195, 102398.92, 114403.78, 29085.41, 22888.41, 19518.01, 34727.64, 92537.59, 77115.95, 0.00, 0.00, 0.00
196, 102395.30, 114408.65, 29037.69, 22861.50, 19510.99, 34721.18, 92518.74, 77113.76, 0.00, 0.00, 0.00
197, 102397.12, 114389.77, 29033.53, 22862.79, 19515.29, 34717.89, 92487.45, 77113.49, 0.00, 0.00, 0.00
198, 102395.55, 114377.45, 29032.03, 22859.33, 19487.35, 34700.16, 92482.09, 77109.36, 0.00, 0.00, 0.00
199, 102396.16, 114385.65, 29032.93, 22858.64, 19495.82, 34727.95, 92508.70, 77111.08, 0.00, 0.00, 0.00
200, 102403.04, 114421.05, 29041.02, 22860.34, 19515.04, 34734.09, 92514.09, 77117.94, 0.00, 0.00, 0.00
201, 102401.59, 114403.53, 29040.37, 22857.43, 19505.23, 34736.46, 92504.99, 77115.51, 0.00, 0.00, 0.00
202, 102401.41, 114468.38, 29056.57, 22865.23, 19531.09, 34777.61, 92516.93, 77114.37, 0.08, -0.19, 0.98
203, 102397.20, 114502.91, 29068.35, 22864.29, 19525.37, 34800.35, 92530.48, 77114.39, 0.00, 0.00, 0.00
204, 102393.41, 114444.52, 29054.23, 22862.28, 19506.32, 34711.88, 92520.91, 77114.12, 0.00, 0.00, 0.00
205, 102393.67, 114372.98, 29038.00, 22862.84, 19509.52, 34699.65, 92515.84, 77115.05, 0.00, 0.00, 0.00
206, 102385.80, 114315.58, 29016.01, 22850.41, 19502.59, 34696.63, 92480.59, 77106.72, 0.00, 0.00, 0.00
207, 102384.89, 114341.09, 29022.33, 22850.93, 19502.41, 34702.18, 92481.13, 77107.64, 0.00, 0.00, 0.00
208, 102384.33, 114380.89, 29033.39, 22857.36, 19499.44, 34714.16, 92497.10, 77106.95, 0.00, 0.00, 0.00
209, 102384.17, 114382.34, 29039.61, 22861.45, 19505.38, 34728.20, 92503.43, 77110.50, 0.00, 0.00, 0.00
210, 102378.79, 114426.69, 29040.21, 22856.40, 19503.86, 34718.41, 92501.26, 77110.03, 0.00, 0.00, 0.00
211, 102378.23, 114437.42, 29042.83, 22862.99, 19510.10, 34722.59, 92517.20, 77109.91, 0.00, 0.00, 0.00
212, 102383.39, 114436.10, 29048.62, 22874.08, 19521.92, 34733.98, 92518.63, 77113.60, 0.08, -0.19, 0.98
213, 102376.71, 114359.37, 29034.58, 22860.45, 19495.82, 34722.09, 92499.07, 77105.11, 0.00, 0.00, 0.00
214, 102376.93, 114383.13, 29038.80, 22862.68, 19503.64, 34720.17, 92477.70, 77106.61, 0.00, 0.00, 0.00
215, 102380.95, 114421.10, 29044.53, 22860.27, 19508.49, 34716.48, 92472.25, 77111.34, 0.00, 0.00, 0.00
216, 102372.70, 114345.35, 29029.46, 22852.24, 19502.81, 34717.71, 92472.92, 77101.31, 0.00, 0.00, 0.00
217, 102372.53, 114418.04, 29031.21, 22854.05, 19505.61, 34721.82, 92493.51, 77101.24, 0.00, 0.00, 0.00
218, 102375.41, 114403.69, 29034.87, 22856.98, 19496.69, 34724.55, 92528.35, 77103.68, 0.00, 0.00, 0.00
219, 102377.76, 114350.83, 29017.46, 22849.54, 19493.16, 34726.14, 92502.73, 77104.64, 0.00, 0.00, 0.00
220, 102385.96, 114419.85, 29026.69, 22856.45, 19505.56, 34719.59, 92487.85, 77111.99, 0.00, 0.00, 0.00
221, 102387.98, 114437.69, 29032.01, 22857.43, 19496.89, 34715.59, 92499.63, 77114.45, 0.00, 0.00, 0.00
222, 102383.23, 114392.52, 29033.73, 22863.38, 19502.12, 34730.34, 92489.99, 77110.90, 0.08, -0.20, 0.98
223, 102378.01, 114335.94, 29036.05, 22856.42, 19496.38, 34739.30, 92475.45, 77104.02, 0.00, 0.00, 0.00
224, 102374.25, 114373.67, 29023.94, 22856.20, 19461.53, 34735.21, 92489.33, 77099.97, 0.00, 0.00, 0.00
225, 102374.14, 114388.60, 29001.46, 22844.55, 19484.28, 34691.74, 92494.78, 77105.60, 0.00, 0.00, 0.00
226, 102381.91, 114407.40, 29009.84, 22846.88, 19498.74, 34708.70, 92478.84, 77117.61, 0.00, 0.00, 0.00
227, 102377.49, 114453.94, 29026.80, 22858.48, 19504.65, 34740.11, 92470.84, 77102.36, 0.00, 0.00, 0.00
228, 102377.13, 114443.30, 29033.26, 22869.66, 19524.54, 34734.50, 92505.10, 77097.58, 0.00, 0.00, 0.00
229, 102379.41, 114403.73, 29033.82, 22856.98, 19515.64, 34731.21, 92520.33, 77100.26, 0.00, 0.00, 0.00
230, 102379.95, 114434.31, 29035.34, 22859.22, 19495.32, 34717.15, 92506.70, 77102.09, 0.00, 0.00, 0.00
231, 102376.04, 114454.00, 29020.92, 22860.40, 19472.59, 34703.54, 92473.70, 77094.20, 0.00, 0.00, 0.00
232, 102371.88, 114401.61, 29019.52, 22857.61, 19497.34, 34715.92, 92486.55, 77088.84, 0.08, -0.20, 0.98
233, 102376.10, 114423.29, 29019.25, 22857.14, 19526.10, 34709.93, 92482.82, 77095.19, 0.00, 0.00, 0.00
234, 102376.69, 114439.45, 29028.19, 22863.69, 19514.73, 34710.29, 92468.74, 77096.06, 0.00, 0.00, 0.00
235, 102367.72, 114352.64, 29022.53, 22860.78, 19514.62, 34717.31, 92455.44, 77082.73, 0.00, 0.00, 0.00
236, 102375.57, 114380.00, 29044.59, 22868.76, 19518.66, 34715.57, 92473.61, 77090.67, 0.00, 0.00, 0.00
237, 102371.73, 114411.58, 29033.17, 22866.62, 19521.54, 34729.87, 92484.50, 77087.77, 0.00, 0.00, 0.00
238, 102374.52, 114382.66, 29020.79, 22860.94, 19513.77, 34736.64, 92489.93, 77091.68, 0.00, 0.00, 0.00
239, 102379.10, 114443.27, 29023.09, 22868.61, 19505.45, 34732.44, 92498.09, 77100.06, 0.00, 0.00, 0.00
240, 102372.26, 114423.80, 29021.97, 22855.13, 19499.08, 34732.73, 92487.16, 77095.27, 0.00, 0.00, 0.00
241, 102373.13, 114405.10, 29054.05, 22868.31, 19516.51, 34723.43, 92509.87, 77097.55, 0.00, 0.00, 0.00
242, 102379.34, 114491.13, 29041.64, 22867.49, 19512.04, 34707.36, 92535.70, 77102.43, 0.08, -0.20, 0.98
243, 102358.07, 114430.67, 29006.35, 22839.30, 19481.58, 34683.45, 92470.91, 77084.03, 0.00, 0.00, 0.00
244, 102370.94, 114340.97, 28997.41, 22845.47, 19474.20, 34697.77, 92442.03, 77099.30, 0.00, 0.00, 0.00
245, 102371.73, 114374.95, 29004.09, 22849.36, 19469.91, 34699.63, 92462.64, 77100.71, 0.00, 0.00, 0.00
246, 102376.53, 114390.23, 29014.78, 22853.61, 19518.35, 34721.54, 92483.60, 77104.30, 0.00, 0.00, 0.00
247, 102384.22, 114424.23, 29028.72, 22863.80, 19518.28, 34731.10, 92482.35, 77107.84, 0.00, 0.00, 0.00
248, 102377.53, 114443.81, 29026.51, 22858.53, 19511.75, 34733.25, 92486.35, 77099.30, 0.00, 0.00, 0.00
249, 102385.70, 114506.98, 29054.72, 22866.79, 19516.56, 34735.86, 92502.11, 77110.01, 0.00, 0.00, 0.00
250, 102374.54, 114422.53, 29045.11, 22865.92, 19497.25, 34748.40, 92489.30, 77100.28, 0.00, 0.00, 0.00
251, 102365.48, 114354.00, 29004.14, 22844.22, 19482.79, 34737.43, 92492.32, 77093.33, 0.08, -0.20, 0.98
252, 102363.63, 114350.34, 28998.41, 22841.58, 19495.91, 34689.26, 92478.13, 77093.82, 0.00, 0.00, 0.00
253, 102367.05, 114365.80, 29006.46, 22849.18, 19496.44, 34695.89, 92482.71, 77096.84, 0.00, 0.00, 0.00
254, 102367.16, 114417.93, 29014.46, 22852.60, 19488.98, 34712.06, 92475.00, 77098.65, 0.00, 0.00, 0.00
255, 102371.45, 114455.26, 29015.27, 22849.09, 19487.68, 34708.21, 92462.66, 77099.55, 0.00, 0.00, 0.00
0, 102374.52, 114444.91, 29022.91, 22858.75, 19511.64, 34724.13, 92474.62, 77100.98, 0.00, 0.00, 0.00
1, 102372.62, 114431.38, 29029.97, 22862.35, 19506.17, 34734.03, 92483.36, 77102.20, 0.00, 0.00, 0.00
2, 102375.81, 114425.75, 29031.85, 22861.25, 19508.06, 34739.50, 92496.19, 77107.28, 0.00, 0.00, 0.00
3, 102368.59, 114486.88, 29029.53, 22863.55, 19501.16, 34708.93, 92509.42, 77100.55, 0.00, 0.00, 0.00
4, 102357.75, 114468.15, 29011.92, 22850.37, 19483.79, 34701.82, 92502.18, 77092.88, 0.00, 0.00, 0.00
5, 102366.91, 114337.13, 29006.71, 22854.97, 19491.86, 34716.48, 92481.97, 77102.98, 0.09, -0.20, 0.98
6, 102357.04, 114323.88, 29004.43, 22850.50, 19472.57, 34715.86, 92458.99, 77093.17, 0.00, 0.00, 0.00
7, 102363.07, 114363.99, 29020.52, 22863.58, 19506.90, 34727.64, 92467.66, 77098.96, 0.00, 0.00, 0.00
8, 102367.12, 114405.99, 29030.31, 22867.96, 19542.00, 34727.37, 92467.46, 77102.61, 0.00, 0.00, 0.00
9, 102364.59, 114425.39, 29028.79, 22861.83, 19520.11, 34714.36, 92477.66, 77100.20, 0.00, 0.00, 0.00
10, 102363.45, 114428.48, 29016.16, 22854.52, 19508.63, 34712.48, 92498.78, 77099.66, 0.00, 0.00, 0.00
11, 102361.02, 114415.73, 29007.69, 22858.41, 19514.62, 34734.41, 92481.55, 77095.27, 0.00, 0.00, 0.00
12, 102357.17, 114402.84, 29005.54, 22853.45, 19510.95, 34736.75, 92452.71, 77089.84, 0.00, 0.00, 0.00
13, 102363.30, 114423.59, 28996.74, 22853.63, 19494.63, 34697.86, 92461.59, 77095.68, 0.00, 0.00, 0.00
14, 102365.17, 114446.25, 28987.51, 22850.39, 19485.13, 34694.31, 92474.98, 77097.84, 0.00, 0.00, 0.00
15, 102366.94, 114519.34, 28996.94, 22857.03, 19495.41, 34711.39, 92482.95, 77100.30, 0.08, -0.20, 0.97
16, 102368.57, 114553.00, 29001.32, 22856.11, 19499.64, 34712.17, 92475.35, 77103.23, 0.00, 0.00, 0.00
17, 102366.38, 114396.96, 28991.02, 22846.75, 19491.46, 34708.26, 92465.88, 77103.30, 0.00, 0.00, 0.00
18, 102357.66, 114343.98, 28970.16, 22835.46, 19483.81, 34712.97, 92451.46, 77095.91, 0.00, 0.00, 0.00
19, 102363.32, 114437.75, 28974.52, 22837.34, 19474.83, 34705.26, 92462.32, 77102.30, 0.00, 0.00, 0.00
20, 102359.70, 114397.27, 28976.94, 22839.57, 19478.38, 34705.11, 92468.91, 77097.73, 0.00, 0.00, 0.00
21, 102350.04, 114375.30, 28979.51, 22836.93, 19488.87, 34722.81, 92470.75, 77087.88, 0.00, 0.00, 0.00
22, 102361.84, 114405.86, 28983.75, 22846.14, 19494.10, 34726.18, 92482.10, 77101.40, 0.00, 0.00, 0.00
23, 102366.74, 114397.30, 28970.32, 22839.48, 19476.17, 34695.58, 92471.87, 77102.95, 0.00, 0.00, 0.00
24, 102364.59, 114411.00, 28981.56, 22840.15, 19484.35, 34706.31, 92466.28, 77099.16, 0.00, 0.00, 0.00
25, 102356.81, 114458.09, 28977.70, 22832.31, 19471.83, 34698.04, 92471.87, 77094.18, 0.08, -0.20, 0.98
26, 102360.16, 114487.82, 28970.72, 22829.47, 19458.76, 34693.64, 92478.84, 77096.84, 0.00, 0.00, 0.00
27, 102353.80, 114430.27, 28963.50, 22826.99, 19487.21, 34713.75, 92471.04, 77091.70, 0.00, 0.00, 0.00
28, 102351.20, 114430.89, 28978.88, 22830.27, 19485.83, 34734.34, 92448.29, 77092.13, 0.00, 0.00, 0.00
29, 102348.50, 114382.43, 28975.44, 22836.06, 19475.97, 34789.89, 92438.95, 77088.02, 0.00, 0.00, 0.00
30, 102356.30, 114427.38, 28958.67, 22833.38, 19463.18, 34708.75, 92460.18, 77098.41, 0.00, 0.00, 0.00
31, 102358.55, 114450.23, 28974.48, 22835.73, 19473.87, 34656.09, 92464.63, 77102.90, 0.00, 0.00, 0.00
32, 102356.30, 114445.84, 29008.38, 22846.92, 19466.13, 34679.13, 92465.74, 77102.02, 0.00, 0.00, 0.00
33, 102357.24, 114451.03, 28975.50, 22844.31, 19495.62, 34708.44, 92465.99, 77104.04, 0.00, 0.00, 0.00
34, 102351.79, 114511.38, 28952.28, 22826.34, 19500.13, 34698.76, 92461.59, 77097.67, 0.00, 0.00, 0.00
35, 102356.70, 114456.44, 28962.74, 22833.69, 19491.19, 34697.15, 92479.69, 77101.63, 0.08, -0.20, 0.97
36, 102356.79, 114371.16, 28962.81, 22834.23, 19489.00, 34695.96, 92471.16, 77103.05, 0.00, 0.00, 0.00
37, 102356.70, 114387.10, 28963.37, 22836.53, 19490.12, 34702.85, 92440.20, 77101.65, 0.00, 0.00, 0.00
38, 102357.66, 114384.02, 28971.84, 22837.69, 19481.09, 34700.59, 92443.48, 77101.42, 0.00, 0.00, 0.00
39, 102360.10, 114414.64, 28972.13, 22837.42, 19475.79, 34697.50, 92448.63, 77106.70, 0.00, 0.00, 0.00
40, 102363.90, 114472.91, 28983.86, 22839.55, 19487.61, 34711.72, 92467.53, 77115.66, 0.00, 0.00, 0.00
41, 102355.54, 114463.34, 28972.31, 22835.95, 19481.24, 34708.30, 92469.19, 77107.99, 0.00, 0.00, 0.00
42, 102354.00, 114427.25, 28973.47, 22844.67, 19479.28, 34707.14, 92461.99, 77107.97, 0.00, 0.00, 0.00
43, 102362.96, 114503.98, 28965.71, 22842.81, 19482.76, 34720.28, 92477.81, 77118.50, 0.00, 0.00, 0.00
44, 102360.73, 114494.28, 28963.34, 22834.09, 19471.92, 34705.87, 92477.01, 77114.14, 0.00, 0.00, 0.00
45, 102364.30, 114483.51, 28966.90, 22835.41, 19481.18, 34712.48, 92471.48, 77115.28, 0.08, -0.20, 0.98
46, 102356.57, 114455.01, 28977.78, 22836.29, 19488.08, 34732.73, 92473.81, 77110.23, 0.00, 0.00, 0.00
47, 102339.76, 114401.27, 28958.05, 22817.91, 19470.65, 34742.75, 92459.24, 77093.13, 0.00, 0.00, 0.00
48, 102358.52, 114448.95, 28956.06, 22825.98, 19465.71, 34744.38, 92502.38, 77109.41, 0.00, 0.00, 0.00
49, 102372.91, 114512.45, 28976.33, 22851.42, 19473.08, 34701.51, 92505.30, 77126.55, 0.00, 0.00, 0.00
50, 102364.41, 114429.35, 28963.75, 22845.07, 19478.38, 34679.76, 92453.96, 77117.59, 0.00, 0.00, 0.00
51, 102364.34, 114379.44, 28959.01, 22837.25, 19473.20, 34670.71, 92452.18, 77114.03, 0.00, 0.00, 0.00
52, 102367.14, 114432.66, 28967.03, 22842.61, 19481.31, 34696.39, 92451.46, 77120.09, 0.00, 0.00, 0.00
53, 102362.41, 114415.31, 28961.67, 22836.98, 19470.85, 34700.95, 92454.16, 77117.52, 0.00, 0.00, 0.00
54, 102369.58, 114426.02, 28967.95, 22841.87, 19476.10, 34712.64, 92464.05, 77123.64, 0.00, 0.00, 0.00
55, 102366.60, 114501.55, 28973.78, 22845.54, 19501.74, 34718.56, 92461.85, 77120.00, 0.08, -0.20, 0.98
56, 102369.02, 114556.40, 28983.75, 22849.83, 19517.63, 34726.43, 92475.49, 77124.02, 0.00, 0.00, 0.00
57, 102369.29, 114500.92, 28981.40, 22847.42, 19501.09, 34727.10, 92487.45, 77125.38, 0.00, 0.00, 0.00
58, 102367.92, 114422.35, 28959.59, 22837.76, 19486.34, 34717.31, 92466.70, 77122.81, 0.00, 0.00, 0.00
59, 102370.31, 114414.42, 28958.72, 22835.35, 19492.24, 34715.75, 92464.63, 77127.89, 0.00, 0.00, 0.00
60, 102372.28, 114495.06, 28968.60, 22844.11, 19483.77, 34725.73, 92474.62, 77133.05, 0.00, 0.00, 0.00
61, 102365.91, 114423.88, 28974.10, 22846.52, 19476.33, 34717.85, 92482.89, 77127.17, 0.00, 0.00, 0.00
62, 102361.91, 114400.38, 28959.84, 22833.63, 19498.39, 34715.59, 92474.98, 77125.23, 0.00, 0.00, 0.00
63, 102360.19, 114412.23, 28966.90, 22827.43, 19492.53, 34709.91, 92464.72, 77124.18, 0.00, 0.00, 0.00
64, 102361.60, 114425.13, 28981.27, 22835.73, 19489.45, 34706.25, 92456.24, 77123.89, 0.00, 0.00, 0.00
65, 102367.16, 114445.98, 28937.64, 22822.31, 19475.34, 34698.02, 92449.07, 77120.89, 0.08, -0.20, 0.98
66, 102382.70, 114491.58, 28940.12, 22823.68, 19477.18, 34716.10, 92461.48, 77137.34, 0.00, 0.00, 0.00
67, 102370.41, 114530.18, 28963.63, 22841.92, 19491.03, 34740.85, 92499.88, 77141.08, 0.00, 0.00, 0.00
68, 102358.31, 114497.08, 28957.76, 22830.72, 19472.15, 34712.66, 92497.69, 77129.48, 0.00, 0.00, 0.00
69, 102363.70, 114469.41, 28958.96, 22824.35, 19467.03, 34702.73, 92466.46, 77135.73, 0.00, 0.00, 0.00
70, 102350.87, 114428.66, 28957.20, 22835.99, 19475.54, 34709.42, 92466.39, 77126.63, 0.00, 0.00, 0.00
71, 102349.06, 114418.82, 28960.95, 22836.64, 19485.45, 34721.15, 92478.28, 77124.58, 0.00, 0.00, 0.00
72, 102347.70, 114442.09, 28973.92, 22843.10, 19487.66, 34725.09, 92476.96, 77119.53, 0.00, 0.00, 0.00
73, 102346.45, 114493.97, 28961.91, 22836.82, 19481.62, 34730.95, 92476.09, 77121.20, 0.00, 0.00, 0.00
74, 102349.95, 114538.09, 28967.55, 22837.25, 19469.96, 34725.51, 92477.05, 77125.50, 0.00, 0.00, 0.00
75, 102346.98, 114505.66, 28964.91, 22835.46, 19471.83, 34719.28, 92482.59, 77120.76, 0.09, -0.20, 0.98
76, 102334.91, 114472.09, 28953.38, 22823.68, 19476.95, 34721.89, 92474.39, 77108.71, 0.00, 0.00, 0.00
77, 102340.84, 114495.89, 28982.08, 22838.83, 19498.52, 34724.62, 92447.28, 77117.27, 0.00, 0.00, 0.00
78, 102340.90, 114443.21, 28964.98, 22834.50, 19489.36, 34729.54, 92433.24, 77116.98, 0.00, 0.00, 0.00
79, 102365.27, 114488.63, 28978.14, 22845.87, 19490.94, 34724.30, 92466.37, 77139.40, 0.00, 0.00, 0.00
80, 102358.71, 114413.41, 28954.02, 22839.35, 19480.71, 34720.35, 92479.11, 77134.46, 0.00, 0.00, 0.00
81, 102351.72, 114352.80, 28928.32, 22825.02, 19490.03, 34717.13, 92500.37, 77129.41, 0.00, 0.00, 0.00
82, 102357.42, 114405.70, 28943.56, 22829.82, 19484.04, 34742.79, 92468.09, 77134.62, 0.00, 0.00, 0.00
83, 102359.45, 114453.96, 28949.35, 22829.47, 19476.71, 34730.41, 92446.77, 77137.43, 0.00, 0.00, 0.00
84, 102364.52, 114513.84, 28956.97, 22832.24, 19478.16, 34702.96, 92461.54, 77141.57, 0.00, 0.00, 0.00
85, 102362.11, 114503.98, 28956.93, 22833.94, 19468.66, 34705.15, 92472.70, 77140.25, 0.08, -0.20, 0.98
86, 102364.13, 114472.31, 28943.14, 22831.52, 19460.50, 34713.46, 92483.20, 77144.90, 0.00, 0.00, 0.00
87, 102366.31, 114499.16, 28946.67, 22829.85, 19488.60, 34714.11, 92458.19, 77149.30, 0.00, 0.00, 0.00
88, 102364.26, 114472.98, 28947.10, 22826.52, 19498.68, 34722.43, 92465.19, 77148.36, 0.00, 0.00, 0.00
89, 102345.93, 114451.84, 28935.36, 22810.56, 19468.50, 34708.44, 92465.72, 77133.54, 0.00, 0.00, 0.00
90, 102355.43, 114488.27, 28960.89, 22825.73, 19474.27, 34716.28, 92473.09, 77144.20, 0.00, 0.00, 0.00
91, 102369.66, 114469.65, 28991.40, 22845.00, 19491.73, 34741.23, 92467.33, 77155.05, 0.00, 0.00, 0.00
92, 102362.45, 114397.81, 28949.46, 22826.85, 19470.60, 34718.52, 92458.03, 77144.45, 0.00, 0.00, 0.00
93, 102363.23, 114452.30, 28931.07, 22815.41, 19447.27, 34701.60, 92466.73, 77143.40, 0.00, 0.00, 0.00
94, 102371.68, 114525.48, 28953.53, 22824.44, 19444.63, 34709.55, 92445.27, 77151.00, 0.00, 0.00, 0.00
95, 102367.41, 114511.89, 28958.79, 22824.35, 19475.01, 34716.01, 92456.67, 77149.68, 0.08, -0.20, 0.97
96, 102361.33, 114391.71, 28944.68, 22820.33, 19474.69, 34716.15, 92471.73, 77142.64, 0.00, 0.00, 0.00
97, 102356.86, 114435.43, 28946.83, 22819.63, 19477.42, 34734.07, 92477.63, 77138.41, 0.00, 0.00, 0.00
98, 102352.52, 114523.34, 28939.99, 22818.07, 19465.15, 34709.82, 92434.98, 77135.63, 0.00, 0.00, 0.00
99, 102357.89, 114462.14, 28939.45, 22815.10, 19454.71, 34698.42, 92456.22, 77142.41, 0.00, 0.00, 0.00
100, 102356.81, 114390.16, 28933.62, 22808.99, 19465.71, 34705.60, 92491.36, 77139.63, 0.00, 0.00, 0.00
101, 102366.60, 114429.38, 28947.88, 22823.88, 19490.47, 34737.45, 92465.34, 77146.89, 0.00, 0.00, 0.00
102, 102369.80, 114457.42, 28953.06, 22824.80, 19471.86, 34727.64, 92432.28, 77153.03, 0.00, 0.00, 0.00
103, 102366.78, 114476.89, 28971.57, 22826.00, 19469.17, 34736.15, 92427.21, 77153.28, 0.00, 0.00, 0.00
104, 102361.29, 114461.80, 28973.43, 22824.21, 19468.62, 34690.38, 92417.93, 77147.96, 0.00, 0.00, 0.00
105, 102359.05, 114479.69, 28957.31, 22824.35, 19471.61, 34689.88, 92430.74, 77144.43, 0.08, -0.20, 0.97
106, 102358.05, 114575.66, 28943.25, 22824.73, 19470.56, 34697.04, 92444.20, 77142.59, 0.00, 0.00, 0.00
107, 102354.45, 114515.70, 28941.82, 22816.79, 19465.48, 34694.78, 92450.92, 77136.41, 0.00, 0.00, 0.00
108, 102353.51, 114421.86, 28939.79, 22814.94, 19457.77, 34708.23, 92456.24, 77132.91, 0.00, 0.00, 0.00
109, 102359.19, 114464.55, 28957.09, 22827.14, 19452.16, 34699.36, 92480.48, 77139.73, 0.00, 0.00, 0.00
110, 102368.51, 114530.34, 28970.34, 22834.09, 19475.72, 34710.38, 92484.84, 77153.39, 0.00, 0.00, 0.00
111, 102364.41, 114477.38, 28970.52, 22831.14, 19473.87, 34708.95, 92435.95, 77148.63, 0.00, 0.00, 0.00
112, 102352.73, 114410.66, 28944.19, 22813.24, 19442.02, 34706.69, 92438.07, 77138.04, 0.00, 0.00, 0.00
113, 102357.22, 114407.87, 28934.06, 22811.29, 19461.87, 34718.88, 92455.08, 77145.39, 0.00, 0.00, 0.00
114, 102357.93, 114433.35, 28945.82, 22815.50, 19471.56, 34715.30, 92453.49, 77146.91, 0.00, 0.00, 0.00
115, 102357.58, 114486.15, 28962.85, 22825.69, 19487.86, 34727.17, 92471.69, 77147.29, 0.07, -0.19, 0.98
116, 102344.19, 114476.49, 28942.63, 22804.97, 19469.75, 34701.60, 92455.35, 77133.56, 0.00, 0.00, 0.00
117, 102355.25, 114545.38, 28953.85, 22817.02, 19468.06, 34711.39, 92454.37, 77143.04, 0.00, 0.00, 0.00
118, 102372.88, 114638.96, 28984.38, 22836.80, 19471.74, 34742.90, 92482.17, 77156.56, 0.00, 0.00, 0.00
119, 102358.85, 114484.70, 28952.93, 22821.20, 19470.63, 34756.67, 92457.77, 77139.00, 0.00, 0.00, 0.00
120, 102351.56, 114416.59, 28930.67, 22817.98, 19466.76, 34759.71, 92440.58, 77136.96, 0.00, 0.00, 0.00
121, 102355.63, 114438.63, 28941.33, 22814.60, 19461.98, 34696.16, 92444.15, 77141.19, 0.00, 0.00, 0.00
122, 102358.31, 114441.15, 28943.81, 22809.04, 19451.92, 34675.42, 92446.16, 77138.13, 0.00, 0.00, 0.00
123, 102350.04, 114401.56, 28936.12, 22808.28, 19450.13, 34684.79, 92441.20, 77134.66, 0.00, 0.00, 0.00
124, 102349.71, 114424.86, 28940.88, 22810.02, 19453.57, 34696.63, 92444.80, 77135.30, 0.00, 0.00, 0.00
125, 102353.73, 114456.26, 28944.99, 22814.85, 19452.83, 34700.28, 92445.54, 77139.73, 0.08, -0.19, 0.98
126, 102356.13, 114475.77, 28952.39, 22816.79, 19458.65, 34706.31, 92445.65, 77142.95, 0.00, 0.00, 0.00
127, 102355.02, 114489.66, 28956.19, 22814.11, 19448.99, 34697.24, 92443.33, 77138.95, 0.00, 0.00, 0.00
128, 102357.38, 114496.00, 28957.49, 22818.98, 19445.86, 34704.41, 92453.63, 77139.31, 0.00, 0.00, 0.00
129, 102349.17, 114554.36, 28953.38, 22814.89, 19450.22, 34705.64, 92461.27, 77132.47, 0.00, 0.00, 0.00
130, 102354.85, 114592.77, 28961.27, 22825.33, 19464.10, 34731.21, 92464.49, 77139.58, 0.00, 0.00, 0.00
131, 102357.58, 114562.43, 28968.89, 22826.70, 19467.68, 34731.66, 92444.11, 77143.55, 0.00, 0.00, 0.00
132, 102347.70, 114488.45, 29000.76, 22833.07, 19463.96, 34727.55, 92438.23, 77134.10, 0.00, 0.00, 0.00
133, 102342.40, 114417.41, 28952.62, 22822.45, 19463.74, 34727.21, 92455.66, 77128.23, 0.00, 0.00, 0.00
134, 102339.45, 114373.72, 28914.26, 22797.53, 19468.84, 34716.44, 92450.14, 77123.55, 0.00, 0.00, 0.00
135, 102338.93, 114415.40, 28909.72, 22796.77, 19459.16, 34692.90, 92425.35, 77123.13, 0.08, -0.19, 0.98
136, 102349.55, 114503.53, 28933.04, 22815.10, 19464.75, 34704.59, 92436.09, 77133.09, 0.00, 0.00, 0.00
137, 102344.37, 114455.23, 28933.57, 22813.49, 19455.16, 34718.58, 92436.84, 77129.19, 0.00, 0.00, 0.00
138, 102348.05, 114418.24, 28938.69, 22814.00, 19459.23, 34724.98, 92448.91, 77130.32, 0.00, 0.00, 0.00
139, 102363.07, 114484.45, 28943.63, 22817.93, 19476.93, 34717.93, 92468.59, 77139.17, 0.00, 0.00, 0.00
140, 102359.50, 114514.80, 28947.95, 22818.00, 19468.62, 34715.81, 92449.47, 77133.56, 0.00, 0.00, 0.00
141, 102359.72, 114522.91, 28953.24, 22817.89, 19463.76, 34709.69, 92452.31, 77132.90, 0.00, 0.00, 0.00
142, 102356.75, 114558.97, 28960.51, 22815.16, 19461.28, 34700.72, 92468.27, 77132.16, 0.00, 0.00, 0.00
143, 102357.04, 114528.44, 28942.33, 22806.94, 19453.37, 34703.56, 92447.64, 77133.07, 0.00, 0.00, 0.00
144, 102360.84, 114470.56, 28927.76, 22798.64, 19440.38, 34707.52, 92443.75, 77137.72, 0.00, 0.00, 0.00
145, 102356.03, 114386.26, 28927.16, 22797.93, 19442.04, 34715.45, 92446.95, 77134.62, 0.08, -0.20, 0.98
146, 102362.60, 114436.01, 28935.76, 22807.85, 19465.04, 34727.30, 92427.59, 77133.59, 0.00, 0.00, 0.00
147, 102364.98, 114439.43, 28927.78, 22800.48, 19449.77, 34725.73, 92412.57, 77131.53, 0.00, 0.00, 0.00
148, 102371.91, 114485.85, 28934.40, 22801.91, 19449.46, 34710.47, 92445.72, 77138.51, 0.00, 0.00, 0.00
149, 102371.55, 114500.85, 28951.97, 22806.94, 19456.19, 34704.79, 92467.22, 77138.55, 0.00, 0.00, 0.00
150, 102361.48, 114489.50, 28952.24, 22806.15, 19452.68, 34704.90, 92442.74, 77125.92, 0.00, 0.00, 0.00
151, 102369.09, 114522.42, 28940.23, 22810.36, 19457.44, 34706.69, 92438.48, 77129.68, 0.00, 0.00, 0.00
152, 102360.08, 114497.39, 28929.91, 22805.71, 19460.97, 34705.71, 92424.52, 77120.20, 0.00, 0.00, 0.00
153, 102361.66, 114403.78, 28926.64, 22802.09, 19459.29, 34713.22, 92434.98, 77123.48, 0.00, 0.00, 0.00
154, 102368.37, 114438.63, 28939.21, 22813.38, 19462.33, 34726.81, 92443.93, 77132.27, 0.00, 0.00, 0.00
155, 102360.62, 114427.20, 28930.49, 22811.72, 19478.18, 34734.50, 92436.89, 77125.83, 0.08, -0.19, 0.98
156, 102360.34, 114474.70, 28938.76, 22815.72, 19483.32, 34736.35, 92453.70, 77126.73, 0.00, 0.00, 0.00
157, 102357.38, 114514.24, 28941.73, 22813.13, 19474.07, 34721.45, 92470.02, 77123.33, 0.00, 0.00, 0.00
158, 102360.88, 114508.38, 28945.11, 22814.45, 19469.29, 34708.70, 92453.00, 77128.55, 0.00, 0.00, 0.00
159, 102369.94, 114595.40, 28963.50, 22823.63, 19472.75, 34715.48, 92441.96, 77136.36, 0.00, 0.00, 0.00
160, 102365.17, 114549.31, 28966.25, 22822.16, 19471.95, 34724.17, 92437.02, 77129.52, 0.00, 0.00, 0.00
161, 102368.33, 114585.95, 28959.52, 22822.96, 19474.31, 34724.86, 92441.72, 77133.45, 0.00, 0.00, 0.00
162, 102366.43, 114518.84, 28952.15, 22814.25, 19467.01, 34725.73, 92447.73, 77131.42, 0.00, 0.00, 0.00
163, 102360.16, 114360.75, 28925.64, 22803.65, 19454.44, 34706.96, 92440.28, 77124.67, 0.00, 0.00, 0.00
164, 102364.64, 114396.23, 28919.07, 22805.08, 19455.70, 34715.36, 92436.64, 77129.23, 0.00, 0.00, 0.00
165, 102367.61, 114436.81, 28927.04, 22805.22, 19459.83, 34717.78, 92443.55, 77132.20, 0.08, -0.19, 0.98
166, 102371.74, 114487.60, 28933.93, 22807.50, 19453.73, 34711.21, 92451.30, 77135.89, 0.00, 0.00, 0.00
167, 102370.27, 114510.04, 28943.79, 22811.12, 19443.85, 34713.75, 92468.90, 77135.87, 0.00, 0.00, 0.00
168, 102363.41, 114489.74, 28945.71, 22805.89, 19435.42, 34716.82, 92458.95, 77130.99, 0.00, 0.00, 0.00
169, 102354.36, 114480.34, 28934.56, 22793.73, 19435.22, 34701.26, 92457.30, 77122.10, 0.00, 0.00, 0.00
170, 102363.79, 114561.91, 28949.69, 22804.97, 19446.33, 34732.20, 92479.65, 77128.11, 0.00, 0.00, 0.00
171, 102375.01, 114611.83, 28964.57, 22818.36, 19465.22, 34750.34, 92448.40, 77140.13, 0.00, 0.00, 0.00
172, 102367.68, 114491.22, 28962.29, 22812.41, 19472.01, 34735.01, 92432.04, 77132.98, 0.00, 0.00, 0.00
173, 102366.74, 114463.50, 28931.67, 22797.84, 19470.51, 34712.23, 92444.20, 77131.84, 0.00, 0.00, 0.00
174, 102364.26, 114446.60, 28897.83, 22789.37, 19466.87, 34737.89, 92440.51, 77130.52, 0.00, 0.00, 0.00
175, 102365.76, 114483.17, 28906.84, 22792.47, 19465.20, 34722.25, 92457.56, 77132.70, 0.08, -0.20, 0.99
176, 102367.70, 114506.40, 28920.38, 22799.85, 19451.27, 34710.11, 92465.27, 77133.09, 0.00, 0.00, 0.00
177, 102372.28, 114544.15, 28933.26, 22806.80, 19452.12, 34715.90, 92471.71, 77136.70, 0.00, 0.00, 0.00
178, 102356.75, 114476.45, 28926.69, 22793.48, 19434.71, 34700.66, 92453.61, 77123.35, 0.00, 0.00, 0.00
179, 102360.15, 114499.49, 28926.62, 22795.16, 19444.18, 34708.17, 92453.36, 77125.14, 0.00, 0.00, 0.00
180, 102354.42, 114532.77, 28933.06, 22804.10, 19469.26, 34719.57, 92416.28, 77117.00, 0.00, 0.00, 0.00
181, 102363.84, 114428.26, 28939.61, 22813.33, 19480.66, 34734.21, 92408.68, 77125.45, 0.00, 0.00, 0.00
182, 102366.72, 114416.05, 28943.38, 22811.63, 19470.85, 34748.40, 92422.25, 77130.32, 0.00, 0.00, 0.00
183, 102365.94, 114498.53, 28947.81, 22810.02, 19470.31, 34768.25, 92437.70, 77131.40, 0.00, 0.00, 0.00
184, 102360.66, 114548.35, 28922.84, 22802.09, 19444.03, 34714.96, 92446.23, 77125.77, 0.00, 0.00, 0.00
185, 102367.16, 114528.41, 28928.05, 22809.71, 19467.65, 34679.58, 92470.88, 77134.84, 0.07, -0.20, 0.99
186, 102364.23, 114530.00, 28937.10, 22807.36, 19476.91, 34693.80, 92446.48, 77134.66, 0.00, 0.00, 0.00
187, 102358.76, 114479.02, 28940.30, 22811.12, 19466.96, 34699.92, 92426.52, 77127.62, 0.00, 0.00, 0.00
188, 102368.21, 114544.57, 28913.05, 22801.48, 19469.44, 34717.91, 92446.39, 77134.93, 0.00, 0.00, 0.00
189, 102362.25, 114501.99, 28913.28, 22796.52, 19454.94, 34723.12, 92440.48, 77131.09, 0.00, 0.00, 0.00
190, 102356.13, 114401.61, 28907.20, 22790.35, 19448.21, 34697.48, 92429.66, 77125.27, 0.00, 0.00, 0.00
191, 102352.88, 114409.32, 28902.06, 22782.10, 19441.52, 34691.36, 92422.78, 77122.44, 0.00, 0.00, 0.00
192, 102362.91, 114458.67, 28903.96, 22782.66, 19444.70, 34695.38, 92429.40, 77127.17, 0.00, 0.00, 0.00
193, 102377.38, 114544.39, 28931.18, 22800.05, 19457.62, 34718.74, 92461.41, 77140.70, 0.00, 0.00, 0.00
194, 102359.88, 114465.60, 28921.05, 22786.64, 19438.80, 34719.05, 92446.63, 77124.55, 0.00, 0.00, 0.00
195, 102364.70, 114443.88, 28917.41, 22790.62, 19442.53, 34709.78, 92431.52, 77128.76, 0.08, -0.21, 0.98
196, 102358.45, 114477.20, 28910.10, 22776.11, 19418.88, 34684.27, 92410.67, 77122.70, 0.00, 0.00, 0.00
197, 102355.74, 114476.60, 28906.64, 22781.59, 19434.01, 34704.68, 92438.72, 77121.96, 0.00, 0.00, 0.00
198, 102356.44, 114485.88, 28911.87, 22785.61, 19438.75, 34719.05, 92462.21, 77123.48, 0.00, 0.00, 0.00
199, 102361.22, 114560.48, 28974.59, 22804.21, 19449.46, 34726.79, 92469.55, 77130.55, 0.00, 0.00, 0.00
200, 102359.97, 114551.62, 28944.73, 22801.51, 19456.14, 34726.21, 92471.22, 77131.30, 0.00, 0.00, 0.00
201, 102370.49, 114516.84, 28879.08, 22773.19, 19460.01, 34715.68, 92481.26, 77146.51, 0.00, 0.00, 0.00
202, 102381.63, 114554.27, 28893.74, 22785.43, 19453.35, 34721.55, 92484.79, 77155.94, 0.00, 0.00, 0.00
203, 102345.48, 114456.08, 28892.36, 22776.11, 19435.58, 34698.09, 92464.94, 77104.87, 0.00, 0.00, 0.00
204, 102352.08, 114464.06, 28911.38, 22789.59, 19451.43, 34698.47, 92469.25, 77112.09, 0.00, 0.00, 0.00
205, 102364.13, 114463.26, 28919.09, 22793.71, 19440.63, 34702.45, 92470.98, 77125.54, 0.08, -0.20, 0.98
206, 102361.95, 114492.88, 28917.43, 22789.59, 19447.54, 34710.43, 92476.67, 77122.88, 0.00, 0.00, 0.00
207, 102359.12, 114486.84, 28917.90, 22789.59, 19472.32, 34709.75, 92477.23, 77117.52, 0.00, 0.00, 0.00
208, 102361.66, 114504.05, 28923.96, 22792.74, 19466.20, 34690.15, 92480.49, 77120.06, 0.00, 0.00, 0.00
209, 102367.14, 114547.03, 28940.39, 22802.76, 19449.66, 34696.12, 92478.53, 77125.88, 0.00, 0.00, 0.00
210, 102370.12, 114630.65, 28946.65, 22807.70, 19454.24, 34707.18, 92474.91, 77130.57, 0.00, 0.00, 0.00
211, 102359.56, 114527.54, 28915.98, 22785.59, 19451.78, 34699.32, 92464.63, 77117.31, 0.00, 0.00, 0.00
212, 102352.52, 114380.65, 28889.16, 22772.27, 19440.63, 34699.74, 92464.38, 77108.93, 0.00, 0.00, 0.00
213, 102365.60, 114435.01, 28907.82, 22789.93, 19447.13, 34734.07, 92472.65, 77120.24, 0.00, 0.00, 0.00
214, 102371.30, 114491.13, 28914.26, 22785.26, 19447.83, 34706.85, 92494.58, 77129.27, 0.00, 0.00, 0.00
215, 102368.39, 114502.82, 28903.60, 22782.24, 19439.38, 34699.05, 92499.59, 77127.73, 0.08, -0.20, 0.99
216, 102353.35, 114531.19, 28894.14, 22770.37, 19423.53, 34685.91, 92477.73, 77112.76, 0.00, 0.00, 0.00
217, 102366.52, 114578.63, 28933.42, 22777.48, 19429.03, 34687.29, 92483.76, 77123.89, 0.00, 0.00, 0.00
218, 102366.65, 114490.84, 28938.82, 22784.14, 19431.91, 34687.47, 92489.98, 77123.87, 0.00, 0.00, 0.00
219, 102359.20, 114417.41, 28888.73, 22771.84, 19419.60, 34670.73, 92469.37, 77113.25, 0.00, 0.00, 0.00
220, 102366.67, 114439.38, 28879.19, 22769.52, 19424.31, 34676.50, 92468.11, 77118.41, 0.00, 0.00, 0.00
221, 102370.74, 114492.20, 28886.10, 22770.77, 19426.08, 34687.29, 92474.38, 77123.80, 0.00, 0.00, 0.00
222, 102370.38, 114511.65, 28901.27, 22780.47, 19431.96, 34698.87, 92478.82, 77124.09, 0.00, 0.00, 0.00
223, 102367.37, 114478.95, 28905.32, 22783.38, 19432.61, 34705.91, 92484.01, 77120.69, 0.00, 0.00, 0.00
224, 102371.92, 114555.66, 28928.63, 22788.38, 19435.40, 34712.73, 92504.39, 77126.13, 0.00, 0.00, 0.00
225, 102358.85, 114536.44, 28926.69, 22781.41, 19425.83, 34706.02, 92508.23, 77114.08, 0.08, -0.20, 0.98
226, 102355.48, 114447.66, 28895.91, 22778.42, 19435.13, 34694.06, 92484.95, 77114.52, 0.00, 0.00, 0.00
227, 102363.05, 114471.73, 28894.63, 22775.67, 19462.20, 34715.59, 92465.12, 77122.97, 0.00, 0.00, 0.00
228, 102367.03, 114552.09, 28926.20, 22787.07, 19441.61, 34725.25, 92472.54, 77127.35, 0.00, 0.00, 0.00
229, 102368.35, 114582.15, 28909.25, 22784.54, 19434.82, 34722.32, 92473.77, 77127.98, 0.00, 0.00, 0.00
230, 102384.27, 114611.94, 28907.44, 22786.22, 19472.26, 34767.38, 92473.34, 77141.09, 0.00, 0.00, 0.00
231, 102372.35, 114525.22, 28909.07, 22770.37, 19454.71, 34686.29, 92480.18, 77128.83, 0.00, 0.00, 0.00
232, 102364.80, 114433.88, 28900.22, 22761.41, 19439.98, 34676.27, 92479.69, 77121.31, 0.00, 0.00, 0.00
233, 102377.38, 114540.28, 28903.87, 22778.13, 19445.17, 34718.49, 92497.70, 77132.41, 0.00, 0.00, 0.00
234, 102366.05, 114420.50, 28886.05, 22761.43, 19420.31, 34671.38, 92479.27, 77117.59, 0.00, 0.00, 0.00
235, 102367.32, 114438.13, 28883.62, 22760.54, 19410.03, 34664.36, 92465.79, 77123.77, 0.08, -0.20, 0.99
236, 102359.88, 114491.76, 28881.16, 22757.27, 19415.80, 34684.27, 92450.41, 77119.02, 0.00, 0.00, 0.00
237, 102364.15, 114472.20, 28883.10, 22760.18, 19429.01, 34682.66, 92473.43, 77120.20, 0.00, 0.00, 0.00
238, 102368.59, 114473.61, 28894.63, 22762.37, 19429.41, 34684.63, 92474.38, 77124.42, 0.00, 0.00, 0.00
239, 102358.18, 114513.66, 28911.11, 22762.30, 19418.10, 34680.94, 92464.83, 77113.49, 0.00, 0.00, 0.00
240, 102364.34, 114586.44, 28905.50, 22773.43, 19434.60, 34724.44, 92468.00, 77118.19, 0.00, 0.00, 0.00
241, 102367.27, 114572.78, 28889.29, 22766.14, 19434.01, 34714.49, 92472.49, 77122.23, 0.00, 0.00, 0.00
242, 102373.02, 114547.95, 28885.49, 22767.87, 19422.55, 34671.11, 92496.45, 77128.89, 0.00, 0.00, 0.00
243, 102353.41, 114471.05, 28875.01, 22755.26, 19404.96, 34664.92, 92462.30, 77108.58, 0.00, 0.00, 0.00
244, 102360.37, 114441.77, 28877.09, 22760.24, 19418.88, 34690.49, 92489.82, 77116.71, 0.00, 0.00, 0.00
245, 102364.93, 114463.81, 28888.24, 22766.90, 19429.72, 34701.33, 92502.04, 77122.75, 0.08, -0.20, 0.98
246, 102361.77, 114471.93, 28890.50, 22764.54, 19425.56, 34692.21, 92455.17, 77118.73, 0.00, 0.00, 0.00
247, 102363.68, 114504.98, 28896.89, 22767.35, 19427.40, 34694.60, 92446.99, 77119.30, 0.00, 0.00, 0.00
248, 102363.74, 114517.10, 28899.71, 22769.81, 19434.86, 34694.64, 92465.23, 77117.41, 0.00, 0.00, 0.00
249, 102366.96, 114564.20, 28908.16, 22774.68, 19433.05, 34701.21, 92480.14, 77122.48, 0.00, 0.00, 0.00
250, 102370.27, 114666.39, 28916.14, 22777.70, 19430.53, 34709.57, 92480.43, 77129.12, 0.00, 0.00, 0.00
251, 102361.35, 114592.72, 28904.80, 22773.43, 19420.78, 34704.46, 92474.20, 77121.80, 0.00, 0.00, 0.00
252, 102342.17, 114438.70, 28884.02, 22755.68, 19436.61, 34687.29, 92447.75, 77104.98, 0.00, 0.00, 0.00
253, 102361.27, 114504.27, 28897.85, 22765.32, 19445.26, 34698.55, 92463.60, 77125.20, 0.00, 0.00, 0.00
254, 102360.39, 114452.02, 28891.04, 22765.16, 19443.80, 34704.46, 92470.93, 77121.41, 0.00, 0.00, 0.00
255, 102362.07, 114448.04, 28891.39, 22776.70, 19447.89, 34705.75, 92481.59, 77122.08, 0.08, -0.20, 0.98
0, 102364.75, 114509.50, 28898.93, 22777.41, 19451.52, 34704.57, 92502.83, 77125.88, 0.00, 0.00, 0.00
1, 102366.25, 114620.75, 28898.66, 22771.44, 19441.32, 34711.45, 92505.02, 77125.98, 0.00, 0.00, 0.00
2, 102365.27, 114580.65, 28927.76, 22775.64, 19441.37, 34718.27, 92449.59, 77122.10, 0.00, 0.00, 0.00
3, 102352.37, 114420.12, 28892.49, 22768.58, 19440.45, 34705.24, 92435.62, 77108.51, 0.00, 0.00, 0.00
4, 102371.73, 114487.06, 28881.04, 22771.02, 19447.25, 34696.34, 92471.20, 77126.75, 0.00, 0.00, 0.00
5, 102368.51, 114452.91, 28887.04, 22771.24, 19443.58, 34698.60, 92479.02, 77120.35, 0.00, 0.00, 0.00
6, 102369.51, 114534.00, 28888.71, 22775.85, 19448.05, 34718.56, 92480.88, 77122.41, 0.00, 0.00, 0.00
7, 102361.89, 114524.39, 28885.02, 22759.75, 19429.01, 34689.48, 92457.95, 77116.38, 0.00, 0.00, 0.00
8, 102366.54, 114538.91, 28893.74, 22766.21, 19428.65, 34685.55, 92450.03, 77118.97, 0.00, 0.00, 0.00
9, 102355.43, 114509.46, 28867.37, 22753.96, 19404.51, 34679.82, 92441.52, 77109.29, 0.08, -0.19, 0.99
10, 102370.45, 114588.77, 28884.67, 22767.64, 19421.45, 34701.08, 92473.19, 77126.66, 0.00, 0.00, 0.00
11, 102376.10, 114588.59, 28892.54, 22767.55, 19455.56, 34713.98, 92484.61, 77128.80, 0.00, 0.00, 0.00
12, 102374.63, 114563.33, 28888.15, 22771.17, 19446.62, 34699.54, 92474.22, 77126.32, 0.00, 0.00, 0.00
13, 102372.15, 114489.38, 28878.61, 22761.63, 19431.24, 34701.13, 92454.52, 77125.20, 0.00, 0.00, 0.00
14, 102376.24, 114482.77, 28883.15, 22759.42, 19431.47, 34695.94, 92461.61, 77126.59, 0.00, 0.00, 0.00
15, 102365.29, 114453.58, 28871.32, 22765.43, 19433.30, 34691.09, 92464.85, 77117.56, 0.00, 0.00, 0.00
16, 102375.26, 114466.66, 28877.51, 22776.25, 19436.09, 34696.03, 92472.36, 77131.48, 0.00, 0.00, 0.00
17, 102382.74, 114509.10, 28896.74, 22784.07, 19427.24, 34699.20, 92479.84, 77143.02, 0.00, 0.00, 0.00
18, 102374.09, 114596.23, 28882.43, 22769.25, 19431.09, 34696.16, 92471.24, 77136.83, 0.00, 0.00, 0.00
19, 102373.94, 114561.16, 28877.76, 22757.45, 19421.59, 34698.20, 92467.13, 77139.35, 0.08, -0.19, 0.98
20, 102375.95, 114511.94, 28879.37, 22761.56, 19425.45, 34708.44, 92469.16, 77144.20, 0.00, 0.00, 0.00
21, 102373.09, 114485.14, 28873.96, 22765.32, 19437.88, 34698.98, 92459.58, 77143.20, 0.00, 0.00, 0.00
22, 102378.66, 114535.63, 28881.25, 22768.92, 19436.61, 34694.62, 92463.11, 77150.27, 0.00, 0.00, 0.00
23, 102373.69, 114534.24, 28877.87, 22766.99, 19412.67, 34692.72, 92466.73, 77149.39, 0.00, 0.00, 0.00
24, 102362.13, 114443.74, 28862.67, 22753.92, 19416.18, 34686.24, 92445.11, 77138.39, 0.00, 0.00, 0.00
25, 102359.88, 114472.40, 28858.18, 22745.67, 19428.11, 34678.20, 92461.77, 77137.41, 0.00, 0.00, 0.00
26, 102379.57, 114521.53, 28885.47, 22766.77, 19441.28, 34706.74, 92470.05, 77157.80, 0.00, 0.00, 0.00
27, 102379.10, 114604.07, 28898.97, 22778.10, 19456.25, 34729.09, 92455.48, 77161.70, 0.00, 0.00, 0.00
28, 102380.91, 114707.05, 28900.13, 22776.56, 19444.34, 34713.13, 92472.92, 77167.74, 0.00, 0.00, 0.00
29, 102368.64, 114617.38, 28886.14, 22767.44, 19434.26, 34692.50, 92473.37, 77156.63, 0.08, -0.20, 0.98
30, 102362.70, 114422.73, 28864.15, 22757.05, 19427.00, 34695.07, 92464.72, 77148.07, 0.00, 0.00, 0.00
31, 102370.78, 114465.41, 28869.45, 22764.00, 19435.49, 34714.92, 92469.25, 77155.63, 0.00, 0.00, 0.00
32, 102376.59, 114438.20, 28873.16, 22765.03, 19433.84, 34698.24, 92462.48, 77159.76, 0.00, 0.00, 0.00
33, 102379.91, 114463.59, 28876.73, 22763.20, 19423.60, 34679.20, 92451.98, 77162.98, 0.00, 0.00, 0.00
34, 102374.41, 114532.41, 28871.59, 22754.39, 19408.42, 34679.16, 92455.13, 77160.21, 0.00, 0.00, 0.00
35, 102389.59, 114652.35, 28892.11, 22772.76, 19444.43, 34722.61, 92484.50, 77177.35, 0.00, 0.00, 0.00
36, 102385.80, 114601.32, 28877.51, 22760.11, 19432.67, 34693.35, 92478.64, 77174.55, 0.00, 0.00, 0.00
37, 102385.76, 114477.77, 28875.73, 22757.54, 19417.85, 34689.46, 92468.54, 77176.08, 0.00, 0.00, 0.00
38, 102390.50, 114535.66, 28872.19, 22757.41, 19419.96, 34693.32, 92476.27, 77180.33, 0.00, 0.00, 0.00
39, 102387.19, 114559.86, 28872.06, 22754.92, 19430.93, 34693.77, 92471.45, 77175.99, 0.08, -0.20, 0.98
40, 102381.24, 114460.66, 28857.58, 22746.47, 19418.86, 34689.26, 92474.84, 77167.02, 0.00, 0.00, 0.00
41, 102381.96, 114463.66, 28854.92, 22746.83, 19429.34, 34696.86, 92476.07, 77165.22, 0.00, 0.00, 0.00
42, 102385.34, 114483.44, 28871.17, 22753.45, 19418.32, 34698.51, 92464.18, 77169.71, 0.00, 0.00, 0.00
43, 102393.49, 114508.16, 28888.11, 22760.27, 19421.63, 34717.13, 92491.05, 77176.95, 0.00, 0.00, 0.00
44, 102391.73, 114564.60, 28862.20, 22754.86, 19425.23, 34708.10, 92489.62, 77176.19, 0.00, 0.00, 0.00
45, 102382.41, 114517.30, 28853.44, 22744.13, 19412.00, 34688.95, 92456.16, 77166.38, 0.00, 0.00, 0.00
46, 102377.58, 114565.90, 28855.03, 22737.71, 19400.60, 34698.98, 92448.13, 77158.04, 0.00, 0.00, 0.00
47, 102389.72, 114624.86, 28870.18, 22754.43, 19403.06, 34686.75, 92481.05, 77170.02, 0.00, 0.00, 0.00
48, 102384.80, 114574.21, 28871.68, 22756.38, 19435.91, 34678.39, 92477.01, 77163.90, 0.00, 0.00, 0.00
49, 102382.27, 114509.50, 28866.16, 22751.55, 19427.76, 34679.82, 92469.52, 77162.73, 0.08, -0.20, 0.98
50, 102389.78, 114511.85, 28867.88, 22754.03, 19433.39, 34691.76, 92471.53, 77168.10, 0.00, 0.00, 0.00
51, 102387.66, 114539.79, 28864.39, 22752.91, 19429.72, 34693.39, 92460.18, 77164.97, 0.00, 0.00, 0.00
52, 102384.51, 114522.02, 28852.99, 22748.42, 19427.42, 34704.34, 92486.53, 77162.27, 0.00, 0.00, 0.00
53, 102384.73, 114473.92, 28852.10, 22744.96, 19409.43, 34687.98, 92506.76, 77163.16, 0.00, 0.00, 0.00
54, 102388.89, 114469.18, 28857.46, 22752.80, 19416.56, 34688.09, 92468.52, 77167.07, 0.00, 0.00, 0.00
55, 102389.63, 114533.13, 28868.53, 22760.13, 19419.49, 34695.70, 92470.02, 77167.31, 0.00, 0.00, 0.00
56, 102387.03, 114545.02, 28866.88, 22755.10, 19430.13, 34698.71, 92491.13, 77165.41, 0.00, 0.00, 0.00
57, 102381.98, 114542.59, 28862.25, 22748.73, 19428.45, 34698.27, 92479.04, 77161.82, 0.00, 0.00, 0.00
58, 102376.09, 114554.79, 28872.60, 22753.49, 19410.90, 34689.04, 92469.72, 77156.63, 0.00, 0.00, 0.00
59, 102385.65, 114592.00, 28887.24, 22763.60, 19430.95, 34709.08, 92485.77, 77165.04, 0.08, -0.20, 0.98
60, 102386.48, 114521.91, 28850.76, 22749.87, 19424.18, 34694.18, 92487.27, 77165.95, 0.00, 0.00, 0.00
61, 102391.13, 114476.60, 28840.07, 22745.76, 19416.07, 34692.84, 92510.27, 77168.99, 0.00, 0.00, 0.00
62, 102391.35, 114466.34, 28842.18, 22742.25, 19410.28, 34693.30, 92500.63, 77168.50, 0.00, 0.00, 0.00
63, 102393.49, 114507.96, 28855.68, 22752.91, 19429.05, 34712.46, 92503.16, 77170.05, 0.00, 0.00, 0.00
64, 102384.66, 114535.88, 28859.52, 22747.21, 19424.07, 34713.29, 92483.58, 77156.38, 0.00, 0.00, 0.00
65, 102384.20, 114559.88, 28865.51, 22749.18, 19415.17, 34689.64, 92474.59, 77154.15, 0.00, 0.00, 0.00
66, 102387.34, 114612.81, 28861.71, 22750.70, 19409.47, 34679.29, 92469.14, 77158.91, 0.00, 0.00, 0.00
67, 102387.55, 114662.01, 28863.21, 22752.98, 19402.07, 34684.41, 92486.04, 77159.83, 0.00, 0.00, 0.00
68, 102376.15, 114522.16, 28846.24, 22742.41, 19360.70, 34673.57, 92492.32, 77146.62, 0.00, 0.00, 0.00
69, 102389.36, 114521.20, 28852.93, 22746.47, 19376.41, 34681.95, 92499.80, 77158.98, 0.08, -0.20, 0.99
70, 102389.67, 114519.34, 28867.81, 22757.49, 19449.91, 34709.22, 92470.41, 77160.52, 0.00, 0.00, 0.00
71, 102389.85, 114488.60, 28856.73, 22758.48, 19448.72, 34707.16, 92474.39, 77159.20, 0.00, 0.00, 0.00
72, 102385.85, 114490.30, 28838.62, 22744.93, 19419.53, 34688.86, 92482.59, 77151.24, 0.00, 0.00, 0.00
73, 102407.71, 114602.04, 28873.09, 22766.99, 19426.93, 34722.07, 92510.76, 77171.88, 0.00, 0.00, 0.00
74, 102399.77, 114676.42, 28893.72, 22766.59, 19426.01, 34732.17, 92514.45, 77163.98, 0.00, 0.00, 0.00
75, 102380.02, 114546.67, 28849.04, 22747.44, 19404.15, 34679.27, 92483.55, 77144.27, 0.00, 0.00, 0.00
76, 102395.39, 114479.38, 28830.82, 22746.23, 19421.61, 34671.82, 92466.55, 77160.21, 0.00, 0.00, 0.00
77, 102402.08, 114522.83, 28846.69, 22756.29, 19415.24, 34680.47, 92485.44, 77168.86, 0.00, 0.00, 0.00
78, 102396.53, 114458.01, 28843.72, 22748.85, 19398.61, 34678.37, 92492.43, 77161.21, 0.00, 0.00, 0.00
79, 102391.66, 114504.95, 28850.47, 22749.45, 19404.67, 34693.01, 92466.64, 77155.73, 0.08, -0.20, 0.99
80, 102392.96, 114520.66, 28848.70, 22750.61, 19409.90, 34699.45, 92470.20, 77160.68, 0.00, 0.00, 0.00
81, 102394.77, 114531.66, 28839.92, 22749.78, 19402.74, 34692.95, 92498.58, 77165.22, 0.00, 0.00, 0.00
82, 102383.23, 114584.52, 28847.94, 22747.01, 19389.67, 34661.03, 92510.83, 77154.15, 0.00, 0.00, 0.00
83, 102380.53, 114597.93, 28837.39, 22738.29, 19383.12, 34661.41, 92505.69, 77150.42, 0.00, 0.00, 0.00
84, 102387.33, 114558.74, 28834.51, 22737.54, 19383.50, 34668.11, 92482.17, 77158.84, 0.00, 0.00, 0.00
85, 102392.40, 114502.13, 28823.82, 22731.43, 19371.94, 34659.55, 92465.68, 77159.13, 0.00, 0.00, 0.00
86, 102399.06, 114499.66, 28825.39, 22733.38, 19373.08, 34664.63, 92470.80, 77161.82, 0.00, 0.00, 0.00
87, 102403.40, 114510.71, 28828.23, 22731.43, 19367.70, 34657.50, 92472.29, 77160.03, 0.00, 0.00, 0.00
88, 102412.54, 114522.98, 28822.55, 22722.80, 19375.30, 34659.30, 92469.03, 77164.01, 0.00, 0.00, 0.00
89, 102402.75, 114520.34, 28832.83, 22731.12, 19381.60, 34706.31, 92489.93, 77169.87, 0.08, -0.20, 0.99
90, 102387.82, 114551.34, 28855.56, 22748.42, 19395.72, 34728.53, 92517.00, 77168.32, 0.00, 0.00, 0.00
91, 102401.79, 114648.66, 28857.22, 22760.47, 19406.16, 34698.54, 92537.18, 77178.65, 0.00, 0.00, 0.00
92, 102396.38, 114623.92, 28840.30, 22742.16, 19425.59, 34691.98, 92506.89, 77171.83, 0.00, 0.00, 0.00
93, 102375.84, 114551.99, 28818.28, 22729.00, 19413.09, 34666.73, 92478.62, 77152.92, 0.00, 0.00, 0.00
94, 102381.85, 114514.33, 28811.08, 22725.89, 19397.09, 34660.98, 92501.44, 77154.09, 0.00, 0.00, 0.00
95, 102392.09, 114460.98, 28818.71, 22736.06, 19394.79, 34666.75, 92506.13, 77161.62, 0.00, 0.00, 0.00
96, 102386.74, 114460.02, 28817.72, 22733.27, 19379.28, 34661.27, 92487.52, 77154.51, 0.00, 0.00, 0.00
97, 102394.43, 114600.19, 28836.83, 22743.17, 19395.75, 34679.45, 92492.21, 77163.00, 0.00, 0.00, 0.00
98, 102393.98, 114522.09, 28829.21, 22739.70, 19413.79, 34685.86, 92499.61, 77159.16, 0.09, -0.20, 0.98
99, 102388.20, 114460.93, 28815.58, 22730.76, 19406.92, 34676.47, 92495.05, 77150.87, 0.00, 0.00, 0.00
100, 102388.55, 114520.70, 28824.85, 22738.18, 19418.66, 34689.23, 92515.95, 77154.82, 0.00, 0.00, 0.00
101, 102391.28, 114584.60, 28834.64, 22742.81, 19422.84, 34697.44, 92521.71, 77158.29, 0.00, 0.00, 0.00
