%OpenBCI Raw EEG Data
%Sample Rate = 250.0 Hz
%First Column = SampleIndex
%Other Columns = EEG data in microvolts followed by Accel Data (in G) interleaved with Aux Data
29, 99279.78, 125774.23, 23254.02, 20350.35, 10996.63, 28996.40, 101293.61, 74558.69, 0.00, 0.00, 0.00
30, 99275.25, 125777.13, 23253.32, 20345.12, 10984.83, 28991.02, 101287.87, 74557.05, 0.00, 0.00, 0.00
31, 99276.07, 125782.94, 23253.64, 20349.45, 10992.43, 28986.10, 101282.16, 74555.98, 0.00, 0.00, 0.00
32, 99268.19, 125777.35, 23249.70, 20344.24, 10983.16, 28981.20, 101275.48, 74550.73, 0.00, 0.00, 0.00
33, 99271.70, 125776.75, 23248.16, 20339.60, 10976.34, 28978.95, 101273.20, 74547.05, 0.00, 0.00, 0.00
34, 99273.75, 125769.62, 23252.77, 20344.80, 10962.26, 28976.76, 101274.12, 74543.04, 0.00, 0.00, 0.00
35, 99270.71, 125769.22, 23261.59, 20350.59, 10984.00, 28984.53, 101280.69, 74545.10, 0.00, 0.00, 0.00
36, 99271.31, 125776.34, 23259.02, 20346.64, 10997.71, 28986.23, 101280.60, 74547.78, 0.00, 0.00, 0.00
37, 99270.11, 125782.34, 23258.98, 20348.74, 11000.05, 28988.69, 101276.82, 74546.44, 0.08, -0.20, 0.99
38, 99275.65, 125775.01, 23262.62, 20356.67, 11006.24, 28994.88, 101278.12, 74551.52, 0.00, 0.00, 0.00
39, 99271.05, 125765.80, 23265.13, 20360.40, 11005.40, 29000.00, 101281.23, 74550.28, 0.00, 0.00, 0.00
40, 99267.54, 125771.09, 23267.12, 20359.49, 10990.13, 28996.98, 101280.51, 74545.57, 0.00, 0.00, 0.00
41, 99263.34, 125769.51, 23260.14, 20351.75, 10978.13, 28990.30, 101274.41, 74539.91, 0.00, 0.00, 0.00
42, 99261.37, 125767.77, 23256.74, 20349.27, 11005.84, 28994.64, 101271.59, 74537.79, 0.00, 0.00, 0.00
43, 99263.83, 125766.06, 23253.68, 20350.62, 11000.10, 28992.85, 101270.43, 74539.55, 0.00, 0.00, 0.00
44, 99269.52, 125767.41, 23252.32, 20352.78, 10999.18, 28994.35, 101271.26, 74544.74, 0.00, 0.00, 0.00
45, 99273.80, 125769.55, 23250.64, 20351.11, 10999.43, 28998.77, 101273.00, 74544.48, 0.00, 0.00, 0.00
46, 99271.94, 125768.86, 23248.43, 20349.38, 10985.46, 28990.84, 101269.63, 74543.80, 0.00, 0.00, 0.00
47, 99270.89, 125769.48, 23253.95, 20351.15, 10998.29, 28986.93, 101263.39, 74543.49, 0.08, -0.20, 0.98
48, 99266.09, 125769.57, 23255.02, 20346.66, 11003.74, 28988.18, 101258.72, 74539.04, 0.00, 0.00, 0.00
49, 99261.32, 125775.14, 23254.26, 20341.29, 10997.42, 28986.54, 101259.97, 74538.77, 0.00, 0.00, 0.00
50, 99263.83, 125777.27, 23254.60, 20341.23, 10989.73, 28984.13, 101261.69, 74540.85, 0.00, 0.00, 0.00
51, 99267.85, 125769.26, 23253.99, 20344.80, 10974.91, 28977.72, 101260.66, 74538.93, 0.00, 0.00, 0.00
52, 99275.34, 125775.79, 23256.34, 20346.08, 10981.39, 28979.10, 101265.49, 74545.39, 0.00, 0.00, 0.00
53, 99282.11, 125780.28, 23255.96, 20345.47, 10982.93, 28977.74, 101264.71, 74550.84, 0.00, 0.00, 0.00
54, 99274.35, 125773.02, 23250.71, 20342.59, 10987.51, 28977.65, 101261.73, 74544.02, 0.00, 0.00, 0.00
55, 99276.30, 125777.13, 23250.48, 20340.82, 10990.44, 28978.79, 101262.72, 74545.01, 0.00, 0.00, 0.00
56, 99272.90, 125782.07, 23251.40, 20335.39, 10975.56, 28974.03, 101261.09, 74547.18, 0.00, 0.00, 0.00
57, 99271.54, 125772.75, 23252.27, 20338.59, 10980.83, 28979.51, 101266.07, 74547.55, 0.08, -0.19, 0.98
58, 99270.91, 125772.19, 23251.31, 20340.96, 10988.47, 28984.31, 101263.03, 74546.48, 0.00, 0.00, 0.00
59, 99268.77, 125777.91, 23258.08, 20345.59, 10984.45, 28988.27, 101259.08, 74546.30, 0.00, 0.00, 0.00
60, 99272.99, 125776.91, 23263.94, 20346.59, 10992.21, 28987.28, 101260.64, 74545.99, 0.00, 0.00, 0.00
61, 99269.64, 125773.42, 23264.12, 20344.96, 10990.15, 28981.88, 101254.74, 74542.08, 0.00, 0.00, 0.00
62, 99267.31, 125772.68, 23257.32, 20340.56, 10991.13, 28983.93, 101253.35, 74540.63, 0.00, 0.00, 0.00
63, 99271.49, 125777.55, 23261.37, 20340.24, 10989.53, 28987.46, 101253.04, 74539.06, 0.00, 0.00, 0.00
64, 99267.06, 125775.23, 23258.31, 20340.04, 10989.82, 28987.17, 101250.27, 74534.82, 0.00, 0.00, 0.00
65, 99265.68, 125774.98, 23258.35, 20345.67, 10987.94, 28988.49, 101250.78, 74536.49, 0.00, 0.00, 0.00
66, 99264.52, 125777.64, 23254.82, 20342.95, 10961.03, 28979.48, 101251.90, 74538.46, 0.00, 0.00, 0.00
67, 99267.47, 125775.16, 23254.60, 20339.73, 10974.91, 28980.80, 101254.16, 74542.30, 0.09, -0.19, 0.98
68, 99265.63, 125767.23, 23247.94, 20335.10, 10996.95, 28991.06, 101255.59, 74540.49, 0.00, 0.00, 0.00
69, 99263.55, 125766.11, 23246.69, 20329.36, 11001.64, 28989.54, 101248.03, 74540.36, 0.00, 0.00, 0.00
70, 99263.55, 125769.17, 23255.07, 20332.69, 10989.68, 28983.75, 101243.66, 74542.23, 0.00, 0.00, 0.00
71, 99271.83, 125771.01, 23254.66, 20337.56, 10992.83, 28987.60, 101243.27, 74543.94, 0.00, 0.00, 0.00
72, 99268.09, 125773.46, 23254.51, 20338.54, 10991.98, 28986.23, 101235.83, 74537.88, 0.00, 0.00, 0.00
73, 99266.51, 125786.25, 23255.18, 20340.62, 10993.06, 28988.33, 101237.48, 74537.99, 0.00, 0.00, 0.00
74, 99267.96, 125782.45, 23252.88, 20338.81, 10994.02, 28989.50, 101241.77, 74537.08, 0.00, 0.00, 0.00
75, 99261.14, 125766.69, 23248.67, 20333.89, 10984.00, 28984.76, 101236.99, 74531.42, 0.00, 0.00, 0.00
76, 99260.96, 125763.85, 23250.51, 20335.53, 10982.82, 28983.97, 101237.59, 74537.03, 0.00, 0.00, 0.00
77, 99265.13, 125764.59, 23248.85, 20333.63, 10983.62, 28981.34, 101235.49, 74535.94, 0.08, -0.19, 0.98
78, 99262.59, 125771.90, 23248.09, 20329.34, 10981.23, 28978.50, 101229.62, 74530.46, 0.00, 0.00, 0.00
79, 99258.26, 125775.67, 23251.92, 20323.48, 10976.32, 28975.77, 101224.32, 74528.16, 0.00, 0.00, 0.00
80, 99263.94, 125770.24, 23262.67, 20338.25, 10979.29, 28982.08, 101229.37, 74531.20, 0.00, 0.00, 0.00
81, 99264.43, 125765.10, 23262.49, 20341.05, 10991.56, 28984.42, 101235.45, 74534.46, 0.00, 0.00, 0.00
82, 99256.38, 125763.49, 23255.67, 20333.29, 10983.18, 28978.48, 101232.86, 74531.98, 0.00, 0.00, 0.00
83, 99258.04, 125766.18, 23254.55, 20328.46, 10981.90, 28980.96, 101230.82, 74532.00, 0.00, 0.00, 0.00
84, 99255.55, 125767.59, 23251.38, 20330.95, 10976.58, 28979.17, 101224.63, 74531.20, 0.00, 0.00, 0.00
85, 99256.20, 125772.97, 23258.24, 20338.21, 10992.27, 28982.59, 101224.84, 74536.29, 0.00, 0.00, 0.00
86, 99257.59, 125769.59, 23255.47, 20330.79, 10980.43, 28982.30, 101226.71, 74537.23, 0.00, 0.00, 0.00
87, 99253.77, 125768.03, 23253.97, 20327.44, 10982.06, 28978.72, 101223.94, 74530.34, 0.08, -0.20, 0.98
88, 99257.73, 125772.21, 23255.94, 20326.50, 10986.58, 28984.78, 101224.74, 74531.78, 0.00, 0.00, 0.00
89, 99259.69, 125783.45, 23263.09, 20327.23, 10992.19, 28988.33, 101226.06, 74529.52, 0.00, 0.00, 0.00
90, 99257.14, 125780.21, 23259.69, 20326.61, 11006.54, 28987.73, 101237.02, 74526.26, 0.00, 0.00, 0.00
91, 99257.03, 125773.58, 23254.40, 20320.24, 10991.56, 28979.71, 101249.71, 74527.71, 0.00, 0.00, 0.00
92, 99255.45, 125771.12, 23255.40, 20324.37, 10994.24, 28979.86, 101269.85, 74526.37, 0.00, 0.00, 0.00
93, 99251.55, 125770.27, 23261.26, 20322.72, 10982.93, 28977.31, 101284.78, 74526.44, 0.00, 0.00, 0.00
94, 99250.15, 125771.09, 23262.42, 20320.28, 10965.68, 28970.30, 101290.03, 74525.19, 0.00, 0.00, 0.00
95, 99248.85, 125771.18, 23257.12, 20318.65, 10990.75, 28975.21, 101298.44, 74522.01, 0.00, 0.00, 0.00
96, 99254.59, 125777.04, 23258.13, 20320.75, 10990.78, 28976.60, 101312.07, 74528.00, 0.00, 0.00, 0.00
97, 99259.65, 125779.37, 23258.06, 20319.17, 10980.25, 28971.84, 101320.07, 74529.59, 0.08, -0.20, 0.98
98, 99256.34, 125768.59, 23253.28, 20318.88, 10968.29, 28963.79, 101323.43, 74526.39, 0.00, 0.00, 0.00
99, 99259.58, 125766.45, 23253.44, 20320.42, 10991.56, 28974.77, 101337.20, 74532.31, 0.00, 0.00, 0.00
100, 99263.16, 125772.08, 23258.31, 20323.86, 10994.15, 28979.21, 101344.91, 74530.19, 0.00, 0.00, 0.00
101, 99265.75, 125774.23, 23260.41, 20322.00, 10983.22, 28975.64, 101351.59, 74528.02, 0.00, 0.00, 0.00
102, 99263.69, 125777.13, 23258.06, 20317.51, 10981.79, 28971.99, 101358.79, 74531.06, 0.00, 0.00, 0.00
103, 99265.62, 125777.04, 23255.96, 20321.15, 10981.79, 28970.90, 101366.41, 74532.96, 0.00, 0.00, 0.00
104, 99266.13, 125779.07, 23254.93, 20320.55, 10986.96, 28977.43, 101371.26, 74533.68, 0.00, 0.00, 0.00
105, 99262.46, 125779.70, 23256.45, 20321.29, 10986.31, 28980.44, 101377.30, 74536.00, 0.00, 0.00, 0.00
106, 99266.98, 125780.30, 23260.07, 20318.25, 10969.07, 28971.62, 101382.95, 74535.20, 0.00, 0.00, 0.00
107, 99266.30, 125779.09, 23255.67, 20313.60, 10958.19, 28964.80, 101382.50, 74533.19, 0.08, -0.19, 0.99
108, 99260.98, 125786.16, 23255.74, 20318.45, 10985.75, 28967.03, 101380.05, 74527.09, 0.00, 0.00, 0.00
109, 99260.92, 125786.31, 23257.64, 20323.17, 10993.41, 28971.41, 101388.38, 74526.48, 0.00, 0.00, 0.00
110, 99266.48, 125779.19, 23260.65, 20319.50, 10977.52, 28974.25, 101399.65, 74533.99, 0.00, 0.00, 0.00
111, 99264.23, 125783.66, 23270.85, 20319.72, 10964.56, 28966.68, 101391.11, 74527.55, 0.00, 0.00, 0.00
112, 99256.63, 125781.64, 23263.25, 20315.63, 10982.13, 28967.37, 101389.30, 74523.58, 0.00, 0.00, 0.00
113, 99253.25, 125784.05, 23262.49, 20318.18, 10985.86, 28976.06, 101397.81, 74527.80, 0.00, 0.00, 0.00
114, 99259.38, 125778.83, 23262.38, 20328.22, 10998.44, 28980.69, 101405.55, 74532.47, 0.00, 0.00, 0.00
115, 99265.08, 125778.56, 23258.71, 20326.77, 10993.68, 28979.44, 101411.72, 74533.70, 0.00, 0.00, 0.00
116, 99258.23, 125777.04, 23261.50, 20319.66, 10971.00, 28969.78, 101407.88, 74526.32, 0.00, 0.00, 0.00
117, 99257.77, 125777.24, 23265.59, 20316.64, 10969.41, 28968.49, 101409.03, 74526.91, 0.08, -0.20, 0.98
118, 99254.51, 125778.91, 23266.11, 20316.84, 10990.02, 28976.15, 101413.08, 74528.07, 0.00, 0.00, 0.00
119, 99253.16, 125778.80, 23267.96, 20322.25, 10994.69, 28981.96, 101421.02, 74530.66, 0.00, 0.00, 0.00
120, 99253.50, 125778.67, 23270.47, 20324.51, 10989.21, 28982.19, 101424.86, 74533.68, 0.00, 0.00, 0.00
121, 99253.50, 125783.66, 23263.76, 20321.85, 10986.53, 28980.35, 101425.15, 74532.23, 0.00, 0.00, 0.00
122, 99255.66, 125782.20, 23258.82, 20320.51, 10989.01, 28980.29, 101422.83, 74526.70, 0.00, 0.00, 0.00
123, 99255.89, 125779.54, 23259.09, 20319.39, 10983.74, 28977.45, 101418.04, 74523.71, 0.00, 0.00, 0.00
124, 99251.60, 125779.25, 23260.10, 20315.19, 10963.02, 28971.86, 101414.42, 74521.14, 0.00, 0.00, 0.00
125, 99252.45, 125790.38, 23260.90, 20323.55, 10981.75, 28982.03, 101418.04, 74525.54, 0.00, 0.00, 0.00
126, 99253.72, 125792.80, 23262.49, 20323.86, 10998.09, 28986.43, 101421.02, 74529.63, 0.00, 0.00, 0.00
127, 99256.16, 125776.84, 23264.21, 20325.96, 10999.83, 28986.59, 101420.14, 74530.88, 0.08, -0.20, 0.98
128, 99253.37, 125767.67, 23260.81, 20322.63, 11000.83, 28985.09, 101421.77, 74530.48, 0.00, 0.00, 0.00
129, 99249.68, 125768.99, 23258.67, 20324.46, 10996.16, 28986.43, 101430.47, 74530.68, 0.00, 0.00, 0.00
130, 99247.06, 125768.99, 23255.51, 20321.38, 10997.21, 28980.06, 101427.36, 74529.25, 0.00, 0.00, 0.00
131, 99251.30, 125768.77, 23251.42, 20316.24, 10986.73, 28973.58, 101425.80, 74527.22, 0.00, 0.00, 0.00
132, 99242.21, 125768.55, 23248.41, 20312.88, 10985.17, 28975.30, 101424.48, 74521.07, 0.00, 0.00, 0.00
133, 99239.71, 125771.48, 23253.21, 20319.95, 10997.15, 28980.76, 101423.00, 74520.40, 0.00, 0.00, 0.00
134, 99242.66, 125771.07, 23252.54, 20320.71, 10995.02, 28983.42, 101429.93, 74524.20, 0.00, 0.00, 0.00
135, 99244.73, 125769.10, 23251.24, 20318.65, 10978.37, 28978.92, 101431.85, 74525.20, 0.00, 0.00, 0.00
136, 99247.53, 125768.19, 23247.65, 20311.88, 10974.68, 28976.44, 101430.47, 74526.01, 0.00, 0.00, 0.00
137, 99242.34, 125768.10, 23247.91, 20304.30, 10991.02, 28976.98, 101432.08, 74525.67, 0.08, -0.20, 0.99
138, 99248.60, 125770.71, 23247.74, 20303.18, 10994.69, 28981.34, 101440.51, 74532.91, 0.00, 0.00, 0.00
139, 99253.09, 125776.19, 23243.38, 20303.27, 10987.74, 28979.44, 101441.24, 74535.87, 0.00, 0.00, 0.00
140, 99246.84, 125771.67, 23238.88, 20299.54, 10983.38, 28972.62, 101436.99, 74529.97, 0.00, 0.00, 0.00
141, 99235.55, 125770.38, 23250.04, 20289.64, 10965.25, 28959.54, 101425.69, 74517.18, 0.00, 0.00, 0.00
142, 99239.44, 125781.45, 23251.76, 20296.90, 10965.05, 28956.15, 101420.10, 74516.71, 0.00, 0.00, 0.00
143, 99235.91, 125777.04, 23250.75, 20302.71, 10971.89, 28959.50, 101419.52, 74514.48, 0.00, 0.00, 0.00
144, 99233.96, 125769.10, 23255.63, 20306.85, 10979.13, 28963.81, 101419.67, 74513.70, 0.00, 0.00, 0.00
145, 99230.88, 125765.39, 23258.13, 20308.59, 10973.63, 28960.44, 101414.38, 74513.88, 0.00, 0.00, 0.00
146, 99229.88, 125765.51, 23252.43, 20307.25, 10968.54, 28956.71, 101412.61, 74514.03, 0.00, 0.00, 0.00
147, 99236.29, 125767.43, 23255.29, 20310.87, 10975.53, 28961.74, 101420.59, 74516.35, 0.08, -0.19, 0.99
148, 99233.20, 125768.88, 23255.34, 20309.22, 10970.86, 28965.07, 101424.68, 74511.03, 0.00, 0.00, 0.00
149, 99232.80, 125772.37, 23255.98, 20307.86, 10962.21, 28964.69, 101426.27, 74514.97, 0.00, 0.00, 0.00
150, 99230.70, 125770.96, 23254.78, 20307.77, 10985.95, 28966.41, 101428.21, 74513.74, 0.00, 0.00, 0.00
151, 99234.30, 125772.79, 23255.18, 20311.25, 10984.54, 28968.02, 101432.30, 74516.47, 0.00, 0.00, 0.00
152, 99238.81, 125774.38, 23256.79, 20311.95, 10978.64, 28966.54, 101433.02, 74516.09, 0.00, 0.00, 0.00
153, 99238.59, 125775.30, 23260.23, 20313.44, 10994.20, 28974.70, 101432.57, 74519.17, 0.00, 0.00, 0.00
154, 99244.98, 125782.90, 23259.07, 20312.95, 10990.46, 28974.39, 101437.73, 74522.03, 0.00, 0.00, 0.00
155, 99247.15, 125783.77, 23258.29, 20310.58, 10980.63, 28971.55, 101438.90, 74520.63, 0.00, 0.00, 0.00
156, 99245.01, 125779.77, 23256.30, 20305.55, 10976.07, 28968.69, 101435.59, 74518.61, 0.00, 0.00, 0.00
157, 99243.06, 125784.98, 23261.04, 20314.58, 10973.63, 28964.48, 101435.86, 74520.22, 0.08, -0.19, 0.99
158, 99239.93, 125776.70, 23261.75, 20316.60, 10976.87, 28968.29, 101436.93, 74521.01, 0.00, 0.00, 0.00
159, 99238.19, 125771.45, 23260.68, 20310.47, 10961.38, 28963.86, 101434.80, 74517.74, 0.00, 0.00, 0.00
160, 99239.91, 125775.59, 23253.55, 20299.72, 10970.44, 28961.62, 101428.97, 74514.43, 0.00, 0.00, 0.00
161, 99241.25, 125762.16, 23238.28, 20289.64, 10959.64, 28952.04, 101417.41, 74513.47, 0.00, 0.00, 0.00
162, 99253.19, 125760.66, 23237.97, 20290.98, 10949.74, 28952.86, 101418.49, 74518.43, 0.00, 0.00, 0.00
163, 99246.32, 125771.56, 23249.35, 20299.09, 10976.47, 28967.50, 101426.36, 74516.55, 0.00, 0.00, 0.00
164, 99236.91, 125778.13, 23256.52, 20302.00, 10990.20, 28973.31, 101428.73, 74511.48, 0.00, 0.00, 0.00
165, 99251.42, 125780.15, 23258.87, 20303.56, 10989.55, 28974.30, 101434.88, 74528.89, 0.00, 0.00, 0.00
166, 99267.91, 125782.65, 23261.55, 20307.86, 10981.25, 28978.32, 101446.38, 74552.92, 0.00, 0.00, 0.00
167, 99279.47, 125783.23, 23260.65, 20312.15, 10982.40, 28982.14, 101455.19, 74571.98, 0.08, -0.20, 0.98
168, 99291.99, 125779.66, 23253.66, 20308.21, 10958.34, 28972.31, 101452.87, 74585.60, 0.00, 0.00, 0.00
169, 99295.03, 125784.20, 23258.22, 20308.66, 10983.83, 28982.75, 101453.52, 74588.39, 0.00, 0.00, 0.00
170, 99297.27, 125787.68, 23262.06, 20306.60, 11015.14, 28992.96, 101455.41, 74589.40, 0.00, 0.00, 0.00
171, 99312.59, 125792.10, 23264.41, 20312.91, 11010.16, 28990.41, 101459.21, 74602.81, 0.00, 0.00, 0.00
172, 99316.24, 125788.26, 23259.52, 20308.21, 11002.49, 28985.32, 101456.62, 74604.82, 0.00, 0.00, 0.00
173, 99314.83, 125787.99, 23261.55, 20311.05, 11001.91, 28984.73, 101459.37, 74606.16, 0.00, 0.00, 0.00
174, 99325.98, 125789.63, 23261.48, 20309.38, 10997.55, 28987.89, 101468.35, 74617.18, 0.00, 0.00, 0.00
175, 99326.63, 125788.33, 23260.88, 20309.51, 10991.54, 28985.45, 101468.63, 74619.35, 0.00, 0.00, 0.00
176, 99324.31, 125784.95, 23258.15, 20302.96, 10985.03, 28980.51, 101462.74, 74617.30, 0.00, 0.00, 0.00
177, 99328.38, 125787.05, 23255.76, 20300.57, 10983.69, 28980.29, 101460.82, 74617.36, 0.08, -0.19, 0.98
178, 99325.27, 125787.16, 23254.02, 20299.94, 10985.86, 28978.92, 101459.21, 74621.90, 0.00, 0.00, 0.00
179, 99319.99, 125788.38, 23257.32, 20303.05, 10988.81, 28980.91, 101461.83, 74625.05, 0.00, 0.00, 0.00
180, 99322.23, 125789.87, 23263.76, 20311.39, 10993.46, 28989.74, 101468.73, 74629.32, 0.00, 0.00, 0.00
181, 99318.63, 125800.80, 23263.67, 20311.16, 10992.72, 28986.77, 101465.77, 74624.34, 0.00, 0.00, 0.00
182, 99316.91, 125801.65, 23256.59, 20304.64, 10976.43, 28978.37, 101458.16, 74617.34, 0.00, 0.00, 0.00
183, 99318.66, 125796.02, 23256.14, 20304.79, 10990.00, 28981.58, 101460.76, 74620.72, 0.00, 0.00, 0.00
184, 99318.43, 125791.05, 23255.40, 20300.75, 11002.40, 28981.23, 101460.51, 74616.11, 0.00, 0.00, 0.00
185, 99316.80, 125789.98, 23254.46, 20295.25, 10989.88, 28975.55, 101462.03, 74616.47, 0.00, 0.00, 0.00
186, 99322.79, 125797.73, 23255.56, 20298.89, 10981.48, 28972.06, 101462.68, 74620.94, 0.00, 0.00, 0.00
187, 99325.18, 125790.67, 23255.83, 20300.70, 10973.23, 28970.94, 101464.96, 74626.30, 0.08, -0.19, 0.99
188, 99319.62, 125783.61, 23253.57, 20309.46, 10965.03, 28968.64, 101461.80, 74622.80, 0.00, 0.00, 0.00
189, 99323.13, 125787.45, 23255.74, 20316.57, 10985.64, 28979.57, 101464.16, 74625.59, 0.00, 0.00, 0.00
190, 99327.77, 125793.34, 23261.33, 20314.96, 10998.49, 28983.69, 101463.95, 74626.05, 0.00, 0.00, 0.00
191, 99330.26, 125797.22, 23259.74, 20319.59, 10997.26, 28985.21, 101463.70, 74628.09, 0.00, 0.00, 0.00
192, 99322.84, 125796.28, 23258.06, 20319.48, 10978.68, 28980.53, 101462.61, 74625.45, 0.00, 0.00, 0.00
193, 99317.52, 125794.56, 23254.84, 20314.18, 10979.13, 28975.97, 101463.86, 74622.66, 0.00, 0.00, 0.00
194, 99322.50, 125799.28, 23257.82, 20320.62, 11002.62, 28981.36, 101470.41, 74628.65, 0.00, 0.00, 0.00
195, 99323.30, 125799.48, 23257.03, 20322.61, 10995.96, 28979.35, 101470.39, 74630.41, 0.00, 0.00, 0.00
196, 99323.21, 125797.13, 23255.27, 20318.47, 10984.79, 28973.09, 101467.06, 74627.53, 0.00, 0.00, 0.00
197, 99323.03, 125800.95, 23258.93, 20319.37, 10982.95, 28971.91, 101468.29, 74622.01, 0.08, -0.19, 0.98
198, 99316.28, 125801.05, 23260.32, 20321.96, 10990.78, 28970.14, 101466.92, 74618.13, 0.00, 0.00, 0.00
199, 99312.06, 125798.70, 23254.40, 20322.00, 10988.47, 28968.37, 101465.14, 74619.46, 0.00, 0.00, 0.00
200, 99315.41, 125800.38, 23249.63, 20321.33, 10980.03, 28966.38, 101459.77, 74614.79, 0.00, 0.00, 0.00
201, 99318.48, 125799.57, 23256.27, 20324.98, 10972.65, 28968.31, 101462.37, 74613.65, 0.00, 0.00, 0.00
202, 99315.81, 125798.23, 23257.30, 20327.50, 10981.57, 28970.16, 101462.43, 74615.10, 0.00, 0.00, 0.00
203, 99312.44, 125797.52, 23254.84, 20330.54, 10982.33, 28969.51, 101463.15, 74616.91, 0.00, 0.00, 0.00
204, 99311.59, 125797.38, 23258.26, 20329.04, 10994.82, 28972.20, 101464.11, 74615.64, 0.00, 0.00, 0.00
205, 99310.67, 125794.05, 23255.60, 20321.80, 10983.85, 28965.33, 101455.77, 74607.20, 0.00, 0.00, 0.00
206, 99305.06, 125789.38, 23254.04, 20320.78, 10978.13, 28964.42, 101451.77, 74605.67, 0.00, 0.00, 0.00
207, 99299.05, 125796.77, 23255.00, 20327.08, 10984.00, 28965.60, 101448.73, 74607.39, 0.08, -0.19, 0.98
208, 99310.32, 125809.23, 23254.69, 20327.41, 10983.11, 28965.42, 101452.11, 74614.32, 0.00, 0.00, 0.00
209, 99323.84, 125797.73, 23244.88, 20320.26, 10976.81, 28958.34, 101449.31, 74617.95, 0.00, 0.00, 0.00
210, 99330.57, 125798.52, 23247.15, 20322.74, 10973.10, 28962.21, 101453.73, 74623.04, 0.00, 0.00, 0.00
211, 99326.74, 125802.81, 23251.42, 20326.21, 10960.47, 28965.69, 101456.30, 74621.99, 0.00, 0.00, 0.00
212, 99318.37, 125794.14, 23254.69, 20330.72, 10984.45, 28975.75, 101461.18, 74614.57, 0.00, 0.00, 0.00
213, 99322.61, 125792.82, 23254.60, 20333.43, 10989.97, 28975.53, 101462.43, 74620.65, 0.00, 0.00, 0.00
214, 99338.28, 125795.52, 23252.32, 20335.64, 10988.14, 28970.12, 101454.23, 74632.77, 0.00, 0.00, 0.00
215, 99344.31, 125797.02, 23249.52, 20334.01, 11000.70, 28972.53, 101454.43, 74642.82, 0.00, 0.00, 0.00
216, 99329.85, 125798.45, 23250.31, 20336.22, 11009.40, 28974.59, 101454.88, 74636.72, 0.00, 0.00, 0.00
217, 99333.23, 125799.52, 23254.66, 20338.50, 11008.79, 28976.15, 101456.09, 74636.41, 0.07, -0.20, 0.99
218, 99338.48, 125801.49, 23260.99, 20338.37, 11005.93, 28975.08, 101453.09, 74637.08, 0.00, 0.00, 0.00
219, 99337.90, 125803.08, 23263.45, 20336.69, 10996.48, 28968.37, 101452.28, 74637.70, 0.00, 0.00, 0.00
220, 99339.48, 125803.75, 23264.23, 20336.02, 10991.42, 28969.94, 101452.13, 74635.38, 0.00, 0.00, 0.00
221, 99337.34, 125802.30, 23256.45, 20333.29, 10985.39, 28971.39, 101453.94, 74636.92, 0.00, 0.00, 0.00
222, 99335.06, 125802.27, 23254.96, 20334.86, 10989.19, 28971.75, 101455.75, 74639.60, 0.00, 0.00, 0.00
223, 99333.02, 125800.98, 23255.42, 20340.22, 10999.16, 28971.08, 101454.01, 74633.39, 0.00, 0.00, 0.00
224, 99334.28, 125800.95, 23254.60, 20332.80, 10990.75, 28966.99, 101450.95, 74629.03, 0.00, 0.00, 0.00
225, 99332.49, 125803.41, 23254.64, 20325.76, 10977.43, 28959.79, 101447.86, 74626.82, 0.00, 0.00, 0.00
226, 99327.93, 125806.55, 23252.83, 20320.73, 10967.24, 28953.22, 101445.20, 74626.51, 0.00, 0.00, 0.00
227, 99326.81, 125797.47, 23256.50, 20321.27, 10972.43, 28956.62, 101447.75, 74627.35, 0.08, -0.20, 0.99
228, 99328.02, 125796.64, 23254.46, 20320.69, 10984.52, 28965.11, 101455.88, 74629.23, 0.00, 0.00, 0.00
229, 99326.41, 125804.58, 23253.55, 20317.15, 10982.06, 28965.20, 101459.86, 74624.83, 0.00, 0.00, 0.00
230, 99323.41, 125799.32, 23251.49, 20319.66, 10978.80, 28965.83, 101464.53, 74624.18, 0.00, 0.00, 0.00
231, 99326.41, 125800.76, 23254.40, 20328.66, 10970.59, 28964.24, 101462.77, 74629.32, 0.00, 0.00, 0.00
232, 99330.99, 125810.09, 23254.06, 20328.89, 10976.09, 28963.52, 101460.91, 74629.86, 0.00, 0.00, 0.00
233, 99330.88, 125806.81, 23255.00, 20324.98, 10985.77, 28962.63, 101455.81, 74627.04, 0.00, 0.00, 0.00
234, 99322.07, 125796.46, 23254.73, 20321.85, 10988.74, 28964.02, 101455.70, 74625.52, 0.00, 0.00, 0.00
235, 99324.06, 125791.43, 23254.51, 20320.71, 10965.63, 28958.72, 101456.04, 74628.09, 0.00, 0.00, 0.00
236, 99328.34, 125794.41, 23254.82, 20321.87, 10953.85, 28959.01, 101461.41, 74632.72, 0.00, 0.00, 0.00
237, 99331.38, 125796.24, 23252.61, 20319.61, 10998.31, 28964.57, 101468.34, 74635.89, 0.07, -0.20, 0.99
238, 99330.37, 125795.97, 23249.81, 20317.20, 11000.59, 28962.70, 101463.08, 74631.65, 0.00, 0.00, 0.00
239, 99329.56, 125796.64, 23246.46, 20318.67, 10996.50, 28964.22, 101460.22, 74631.17, 0.00, 0.00, 0.00
240, 99328.34, 125797.87, 23250.66, 20314.23, 10990.44, 28962.29, 101461.85, 74632.34, 0.00, 0.00, 0.00
241, 99326.21, 125800.89, 23253.37, 20317.60, 10982.66, 28960.91, 101463.69, 74634.91, 0.00, 0.00, 0.00
242, 99330.01, 125802.27, 23253.99, 20322.67, 10982.98, 28962.96, 101466.48, 74637.41, 0.00, 0.00, 0.00
243, 99334.63, 125801.05, 23250.87, 20313.24, 10981.99, 28959.12, 101464.27, 74629.70, 0.00, 0.00, 0.00
244, 99331.73, 125801.31, 23250.64, 20311.72, 10976.96, 28955.50, 101461.67, 74627.09, 0.00, 0.00, 0.00
245, 99332.40, 125805.52, 23250.42, 20318.88, 10994.44, 28962.38, 101466.10, 74631.34, 0.00, 0.00, 0.00
246, 99330.75, 125805.54, 23254.78, 20320.98, 10984.00, 28957.76, 101476.09, 74628.36, 0.00, 0.00, 0.00
247, 99329.54, 125802.27, 23258.24, 20318.85, 10983.18, 28959.23, 101493.01, 74624.98, 0.07, -0.20, 0.99
248, 99328.98, 125802.99, 23263.70, 20317.73, 10985.08, 28960.39, 101508.61, 74624.29, 0.00, 0.00, 0.00
249, 99324.82, 125807.26, 23264.05, 20314.74, 10985.19, 28960.48, 101517.73, 74623.38, 0.00, 0.00, 0.00
250, 99321.85, 125806.43, 23254.73, 20308.82, 10974.73, 28954.83, 101525.62, 74619.91, 0.00, 0.00, 0.00
251, 99326.08, 125805.09, 23253.14, 20308.48, 10972.49, 28953.31, 101533.09, 74621.34, 0.00, 0.00, 0.00
252, 99330.79, 125802.05, 23250.98, 20310.09, 10979.33, 28955.79, 101541.94, 74622.21, 0.00, 0.00, 0.00
253, 99325.43, 125803.68, 23253.77, 20315.70, 10986.42, 28959.90, 101550.07, 74619.48, 0.00, 0.00, 0.00
254, 99326.48, 125813.14, 23254.51, 20315.99, 10987.87, 28963.59, 101559.71, 74622.37, 0.00, 0.00, 0.00
255, 99324.98, 125815.93, 23255.56, 20309.58, 10975.87, 28962.27, 101564.58, 74619.38, 0.00, 0.00, 0.00
0, 99319.39, 125805.47, 23249.12, 20302.49, 10959.28, 28955.68, 101565.25, 74610.26, 0.00, 0.00, 0.00
1, 99315.32, 125799.88, 23246.93, 20304.01, 10949.18, 28956.75, 101572.47, 74606.61, 0.08, -0.20, 0.98
2, 99318.23, 125800.62, 23250.75, 20309.38, 10973.16, 28967.21, 101584.45, 74611.15, 0.00, 0.00, 0.00
3, 99317.54, 125804.91, 23252.32, 20312.04, 11022.61, 28978.99, 101593.48, 74617.90, 0.00, 0.00, 0.00
4, 99326.01, 125801.83, 23249.23, 20308.39, 10998.49, 28972.24, 101593.70, 74617.67, 0.00, 0.00, 0.00
5, 99329.14, 125803.05, 23249.46, 20312.39, 10995.83, 28973.85, 101598.80, 74617.70, 0.00, 0.00, 0.00
6, 99329.07, 125808.73, 23253.55, 20318.85, 11010.04, 28975.95, 101607.65, 74624.27, 0.00, 0.00, 0.00
7, 99326.63, 125805.36, 23246.17, 20306.04, 11002.82, 28973.02, 101609.26, 74624.63, 0.00, 0.00, 0.00
8, 99322.45, 125802.45, 23241.92, 20307.21, 10992.05, 28973.20, 101612.05, 74622.66, 0.00, 0.00, 0.00
9, 99315.81, 125801.31, 23245.84, 20307.81, 10981.72, 28964.04, 101605.69, 74617.74, 0.00, 0.00, 0.00
10, 99318.09, 125803.91, 23252.81, 20304.08, 10983.22, 28963.05, 101601.98, 74608.35, 0.00, 0.00, 0.00
11, 99317.58, 125806.21, 23256.47, 20302.69, 10982.95, 28960.84, 101605.64, 74607.39, 0.09, -0.19, 0.98
12, 99315.86, 125806.86, 23252.54, 20302.27, 10995.29, 28962.18, 101610.27, 74611.38, 0.00, 0.00, 0.00
13, 99322.43, 125807.84, 23248.36, 20300.10, 10993.62, 28959.99, 101612.23, 74616.71, 0.00, 0.00, 0.00
14, 99322.88, 125806.50, 23246.73, 20297.44, 10982.53, 28954.36, 101610.98, 74615.75, 0.00, 0.00, 0.00
15, 99316.02, 125805.27, 23247.42, 20299.92, 10976.14, 28950.89, 101611.32, 74612.71, 0.00, 0.00, 0.00
16, 99319.59, 125805.85, 23243.24, 20295.61, 10971.53, 28951.83, 101617.82, 74612.71, 0.00, 0.00, 0.00
17, 99320.02, 125810.66, 23245.79, 20293.15, 10971.15, 28951.48, 101616.23, 74607.23, 0.00, 0.00, 0.00
18, 99320.98, 125807.21, 23246.28, 20293.21, 10982.10, 28952.30, 101616.23, 74606.30, 0.00, 0.00, 0.00
19, 99320.94, 125800.13, 23245.43, 20292.03, 10971.15, 28950.47, 101618.91, 74608.63, 0.00, 0.00, 0.00
20, 99323.15, 125803.50, 23246.39, 20292.84, 10964.56, 28951.36, 101622.67, 74613.54, 0.00, 0.00, 0.00
21, 99315.48, 125802.27, 23243.98, 20290.73, 10978.39, 28955.70, 101621.40, 74613.05, 0.08, -0.20, 0.98
22, 99316.11, 125807.03, 23244.16, 20290.80, 10985.77, 28956.26, 101620.10, 74610.99, 0.00, 0.00, 0.00
23, 99320.45, 125813.00, 23243.11, 20292.68, 10987.69, 28957.78, 101622.34, 74609.96, 0.00, 0.00, 0.00
24, 99319.75, 125815.75, 23244.74, 20294.29, 10979.02, 28957.67, 101626.67, 74612.89, 0.00, 0.00, 0.00
25, 99320.78, 125808.60, 23242.15, 20287.98, 10952.91, 28944.55, 101621.40, 74608.87, 0.00, 0.00, 0.00
26, 99322.72, 125805.63, 23241.39, 20288.30, 10964.40, 28950.54, 101621.95, 74610.32, 0.00, 0.00, 0.00
27, 99318.72, 125807.10, 23241.21, 20293.42, 11006.40, 28969.02, 101628.02, 74613.56, 0.00, 0.00, 0.00
28, 99318.41, 125807.66, 23242.30, 20291.99, 10992.12, 28966.99, 101632.28, 74611.75, 0.00, 0.00, 0.00
29, 99317.05, 125809.31, 23246.39, 20287.05, 10960.76, 28954.96, 101631.27, 74606.27, 0.00, 0.00, 0.00
30, 99320.60, 125817.63, 23245.97, 20287.92, 10977.86, 28956.17, 101631.32, 74611.95, 0.00, 0.00, 0.00
31, 99326.12, 125820.00, 23247.04, 20296.99, 10991.40, 28956.88, 101634.56, 74613.83, 0.08, -0.20, 0.98
32, 99318.45, 125808.40, 23242.44, 20294.33, 10989.88, 28955.75, 101633.47, 74608.71, 0.00, 0.00, 0.00
33, 99315.30, 125805.36, 23238.35, 20291.38, 10993.15, 28958.25, 101634.18, 74605.77, 0.00, 0.00, 0.00
34, 99315.91, 125804.60, 23242.88, 20292.03, 10983.31, 28954.22, 101634.25, 74608.80, 0.00, 0.00, 0.00
35, 99314.30, 125808.09, 23247.62, 20290.02, 10979.62, 28954.52, 101635.03, 74608.58, 0.00, 0.00, 0.00
36, 99314.48, 125808.45, 23246.39, 20292.77, 10982.40, 28959.23, 101638.95, 74608.51, 0.00, 0.00, 0.00
37, 99312.66, 125810.39, 23245.57, 20295.79, 10982.84, 28960.60, 101639.19, 74607.82, 0.00, 0.00, 0.00
38, 99312.33, 125810.16, 23239.53, 20296.19, 10983.22, 28962.03, 101641.27, 74608.65, 0.00, 0.00, 0.00
39, 99315.63, 125814.41, 23238.17, 20292.72, 10987.63, 28959.08, 101640.35, 74608.73, 0.00, 0.00, 0.00
40, 99311.81, 125808.09, 23240.87, 20286.76, 10973.30, 28952.24, 101636.02, 74602.52, 0.00, 0.00, 0.00
41, 99308.77, 125801.70, 23242.33, 20285.37, 10977.03, 28952.88, 101633.89, 74599.64, 0.08, -0.19, 0.98
42, 99310.12, 125804.60, 23240.70, 20283.94, 10982.13, 28952.53, 101635.52, 74601.49, 0.00, 0.00, 0.00
43, 99310.23, 125805.11, 23240.92, 20283.47, 10973.21, 28950.56, 101635.46, 74603.82, 0.00, 0.00, 0.00
44, 99306.63, 125804.35, 23236.96, 20282.02, 10963.91, 28942.92, 101630.90, 74600.51, 0.00, 0.00, 0.00
45, 99306.38, 125803.64, 23236.13, 20282.11, 10979.74, 28948.44, 101627.48, 74599.41, 0.00, 0.00, 0.00
46, 99315.97, 125806.07, 23236.40, 20283.69, 10984.07, 28952.86, 101633.11, 74606.74, 0.00, 0.00, 0.00
47, 99320.15, 125807.15, 23233.50, 20282.73, 10988.30, 28956.24, 101639.39, 74607.08, 0.00, 0.00, 0.00
48, 99312.30, 125809.12, 23233.07, 20283.63, 10985.12, 28955.92, 101643.15, 74605.80, 0.00, 0.00, 0.00
49, 99304.80, 125806.37, 23230.93, 20280.47, 10976.92, 28954.14, 101641.49, 74604.04, 0.00, 0.00, 0.00
50, 99302.78, 125799.62, 23232.54, 20277.81, 10958.34, 28951.21, 101637.70, 74600.20, 0.00, 0.00, 0.00
51, 99306.25, 125799.77, 23235.08, 20285.39, 10971.71, 28957.20, 101643.26, 74604.48, 0.08, -0.19, 0.98
52, 99313.63, 125802.23, 23235.89, 20298.65, 11005.95, 28970.99, 101650.73, 74607.53, 0.00, 0.00, 0.00
53, 99319.37, 125801.29, 23233.77, 20291.99, 11000.12, 28967.28, 101649.49, 74612.55, 0.00, 0.00, 0.00
54, 99306.34, 125802.95, 23237.25, 20286.29, 11000.48, 28959.08, 101638.79, 74606.16, 0.00, 0.00, 0.00
55, 99307.66, 125804.24, 23235.82, 20288.88, 10989.48, 28954.76, 101630.12, 74600.91, 0.00, 0.00, 0.00
56, 99311.34, 125807.03, 23240.34, 20289.39, 10977.41, 28955.07, 101630.27, 74602.68, 0.00, 0.00, 0.00
57, 99306.31, 125810.23, 23241.52, 20287.81, 10994.78, 28957.44, 101630.49, 74602.99, 0.00, 0.00, 0.00
58, 99306.59, 125805.36, 23239.85, 20286.55, 10988.63, 28951.92, 101628.53, 74599.80, 0.00, 0.00, 0.00
59, 99310.12, 125802.45, 23238.08, 20286.58, 10977.83, 28950.74, 101626.96, 74595.23, 0.00, 0.00, 0.00
60, 99305.47, 125809.54, 23236.09, 20288.77, 10990.42, 28955.10, 101627.32, 74598.88, 0.00, 0.00, 0.00
61, 99300.37, 125815.06, 23235.93, 20288.48, 10985.55, 28951.28, 101624.35, 74597.65, 0.07, -0.19, 0.99
62, 99294.80, 125800.77, 23231.58, 20278.24, 10987.98, 28946.96, 101615.34, 74582.23, 0.00, 0.00, 0.00
63, 99292.01, 125796.24, 23237.19, 20279.94, 10984.54, 28942.00, 101611.38, 74576.05, 0.00, 0.00, 0.00
64, 99292.39, 125800.66, 23238.17, 20284.28, 10982.91, 28945.82, 101607.96, 74581.60, 0.00, 0.00, 0.00
65, 99290.02, 125802.37, 23240.25, 20283.56, 10985.01, 28946.04, 101602.49, 74578.96, 0.00, 0.00, 0.00
66, 99291.19, 125804.53, 23240.02, 20284.65, 10982.86, 28944.12, 101604.90, 74579.14, 0.00, 0.00, 0.00
67, 99293.06, 125806.70, 23240.31, 20291.07, 10985.08, 28949.51, 101608.70, 74581.35, 0.00, 0.00, 0.00
68, 99291.34, 125803.66, 23235.51, 20285.12, 10980.85, 28949.33, 101609.15, 74581.84, 0.00, 0.00, 0.00
69, 99288.77, 125801.34, 23231.82, 20283.94, 10982.69, 28943.85, 101606.73, 74579.21, 0.00, 0.00, 0.00
70, 99284.95, 125806.14, 23234.44, 20280.36, 10976.32, 28941.80, 101607.45, 74580.77, 0.07, -0.20, 0.99
71, 99292.95, 125813.45, 23240.07, 20284.34, 10977.48, 28945.22, 101615.23, 74588.35, 0.00, 0.00, 0.00
72, 99294.85, 125801.80, 23243.47, 20287.56, 10989.57, 28944.97, 101610.89, 74587.92, 0.00, 0.00, 0.00
73, 99291.12, 125796.71, 23235.84, 20280.68, 10983.18, 28940.21, 101599.98, 74583.09, 0.00, 0.00, 0.00
74, 99299.05, 125806.48, 23234.88, 20279.51, 10973.54, 28939.38, 101599.74, 74586.25, 0.00, 0.00, 0.00
75, 99296.34, 125805.88, 23228.29, 20271.67, 10956.31, 28932.79, 101600.77, 74585.35, 0.00, 0.00, 0.00
76, 99289.02, 125802.81, 23233.16, 20272.49, 10979.53, 28937.86, 101605.17, 74584.48, 0.00, 0.00, 0.00
77, 99290.58, 125804.02, 23234.82, 20276.50, 10980.94, 28938.65, 101604.08, 74588.87, 0.00, 0.00, 0.00
78, 99288.75, 125804.42, 23232.71, 20273.50, 10982.78, 28942.40, 101602.17, 74585.73, 0.00, 0.00, 0.00
79, 99288.95, 125801.45, 23235.51, 20275.24, 10968.49, 28935.67, 101600.16, 74580.82, 0.00, 0.00, 0.00
80, 99296.93, 125807.08, 23244.54, 20279.38, 10982.73, 28943.68, 101603.16, 74583.99, 0.08, -0.20, 0.98
81, 99297.02, 125815.69, 23243.91, 20276.70, 10983.78, 28948.26, 101606.69, 74589.52, 0.00, 0.00, 0.00
82, 99304.51, 125809.41, 23243.13, 20279.16, 10984.81, 28953.58, 101617.06, 74597.00, 0.00, 0.00, 0.00
83, 99300.86, 125802.52, 23237.72, 20275.47, 10979.65, 28949.35, 101612.23, 74594.14, 0.00, 0.00, 0.00
84, 99297.84, 125804.48, 23235.40, 20272.09, 10958.19, 28945.15, 101604.23, 74593.55, 0.00, 0.00, 0.00
85, 99301.48, 125805.52, 23231.98, 20268.90, 10979.85, 28950.22, 101611.23, 74599.19, 0.00, 0.00, 0.00
86, 99303.88, 125803.64, 23226.50, 20262.88, 10995.96, 28951.16, 101616.30, 74601.98, 0.00, 0.00, 0.00
87, 99295.50, 125804.35, 23229.32, 20261.48, 10987.83, 28946.25, 101611.01, 74595.23, 0.00, 0.00, 0.00
88, 99295.07, 125804.20, 23225.76, 20259.08, 10972.54, 28937.04, 101603.45, 74594.79, 0.00, 0.00, 0.00
89, 99293.62, 125802.59, 23229.41, 20252.78, 10957.50, 28928.50, 101595.98, 74589.73, 0.00, 0.00, 0.00
90, 99294.67, 125807.33, 23237.99, 20257.25, 10959.31, 28929.62, 101598.63, 74591.10, 0.08, -0.20, 0.98
91, 99295.72, 125807.30, 23230.59, 20256.27, 10955.39, 28929.37, 101599.43, 74595.68, 0.00, 0.00, 0.00
92, 99293.66, 125806.56, 23228.51, 20260.96, 10967.58, 28938.11, 101597.52, 74594.67, 0.00, 0.00, 0.00
93, 99289.38, 125813.00, 23227.93, 20263.06, 10989.53, 28947.38, 101595.27, 74588.17, 0.00, 0.00, 0.00
94, 99288.21, 125805.45, 23227.35, 20270.60, 10981.46, 28944.35, 101599.54, 74590.97, 0.00, 0.00, 0.00
95, 99291.59, 125795.37, 23222.50, 20263.78, 10956.67, 28937.51, 101602.16, 74601.05, 0.00, 0.00, 0.00
96, 99292.13, 125792.88, 23217.45, 20257.34, 10964.56, 28938.87, 101600.63, 74605.12, 0.00, 0.00, 0.00
97, 99285.53, 125795.19, 23220.64, 20263.60, 10993.44, 28945.75, 101594.66, 74591.30, 0.00, 0.00, 0.00
98, 99285.53, 125794.25, 23224.94, 20263.24, 10979.76, 28939.94, 101586.22, 74585.63, 0.00, 0.00, 0.00
99, 99285.62, 125795.19, 23227.98, 20257.92, 10967.33, 28930.40, 101581.86, 74582.02, 0.00, 0.00, 0.00
100, 99285.51, 125796.17, 23228.02, 20255.17, 10973.63, 28932.90, 101582.10, 74581.71, 0.08, -0.20, 0.99
101, 99285.73, 125795.34, 23227.37, 20253.59, 10980.18, 28935.92, 101577.48, 74580.21, 0.00, 0.00, 0.00
102, 99286.78, 125797.09, 23224.20, 20249.38, 10980.81, 28937.95, 101579.04, 74580.84, 0.00, 0.00, 0.00
103, 99284.08, 125792.41, 23219.33, 20248.31, 10979.76, 28938.22, 101580.34, 74582.25, 0.00, 0.00, 0.00
104, 99281.44, 125792.46, 23219.51, 20254.95, 10971.78, 28932.25, 101579.84, 74583.43, 0.00, 0.00, 0.00
105, 99283.52, 125803.84, 23220.24, 20254.75, 10967.78, 28932.14, 101581.50, 74586.31, 0.00, 0.00, 0.00
106, 99293.95, 125797.42, 23220.20, 20255.02, 10962.82, 28934.53, 101582.62, 74589.09, 0.00, 0.00, 0.00
107, 99292.95, 125791.99, 23225.50, 20257.07, 10967.13, 28937.21, 101580.61, 74587.63, 0.00, 0.00, 0.00
108, 99289.69, 125793.60, 23227.35, 20254.55, 10989.73, 28940.52, 101582.15, 74590.54, 0.00, 0.00, 0.00
109, 99284.63, 125794.88, 23227.51, 20255.75, 10980.52, 28936.77, 101579.06, 74586.95, 0.00, 0.00, 0.00
110, 99285.04, 125796.02, 23225.76, 20250.70, 10970.26, 28932.07, 101575.53, 74580.64, 0.09, -0.19, 0.98
111, 99288.32, 125799.41, 23227.22, 20250.30, 10977.90, 28934.22, 101578.98, 74580.93, 0.00, 0.00, 0.00
112, 99286.98, 125798.70, 23221.70, 20249.00, 10978.68, 28933.97, 101575.64, 74578.20, 0.00, 0.00, 0.00
113, 99286.27, 125795.86, 23218.83, 20248.40, 10973.45, 28932.61, 101574.34, 74581.40, 0.00, 0.00, 0.00
114, 99291.41, 125801.27, 23222.46, 20252.15, 10976.92, 28938.78, 101581.70, 74590.14, 0.00, 0.00, 0.00
115, 99295.38, 125806.12, 23226.88, 20253.63, 10976.92, 28941.13, 101587.65, 74594.09, 0.00, 0.00, 0.00
116, 99296.52, 125808.58, 23225.03, 20254.77, 10978.75, 28944.59, 101589.95, 74591.48, 0.00, 0.00, 0.00
117, 99292.62, 125807.21, 23224.00, 20247.42, 10957.16, 28937.30, 101580.36, 74588.35, 0.00, 0.00, 0.00
118, 99289.33, 125793.73, 23223.19, 20242.43, 10938.05, 28928.74, 101573.72, 74589.09, 0.00, 0.00, 0.00
119, 99292.39, 125793.89, 23222.34, 20247.15, 10997.24, 28941.19, 101576.85, 74588.98, 0.00, 0.00, 0.00
120, 99295.23, 125796.71, 23220.89, 20245.49, 10985.88, 28937.60, 101576.18, 74590.34, 0.08, -0.20, 0.98
121, 99289.26, 125793.55, 23217.16, 20243.59, 10984.27, 28935.70, 101574.28, 74584.04, 0.00, 0.00, 0.00
122, 99285.13, 125794.48, 23209.85, 20235.99, 10979.67, 28931.76, 101576.29, 74580.68, 0.00, 0.00, 0.00
123, 99280.59, 125799.77, 23215.21, 20240.20, 10972.14, 28928.95, 101573.56, 74579.81, 0.00, 0.00, 0.00
124, 99283.96, 125802.30, 23227.91, 20242.34, 10966.46, 28927.49, 101570.55, 74581.31, 0.00, 0.00, 0.00
125, 99291.45, 125797.89, 23223.48, 20240.13, 10969.43, 28932.41, 101570.77, 74586.61, 0.00, 0.00, 0.00
126, 99293.62, 125798.61, 23224.49, 20244.51, 10987.51, 28941.57, 101572.78, 74585.80, 0.00, 0.00, 0.00
127, 99294.80, 125809.12, 23226.99, 20247.46, 10992.12, 28943.74, 101570.28, 74584.51, 0.00, 0.00, 0.00
128, 99289.38, 125815.38, 23233.65, 20245.23, 10976.47, 28942.24, 101569.05, 74582.70, 0.00, 0.00, 0.00
129, 99279.67, 125798.20, 23221.85, 20236.29, 10961.50, 28938.15, 101559.51, 74574.65, 0.00, 0.00, 0.00
130, 99279.02, 125791.99, 23218.79, 20230.85, 10969.81, 28939.21, 101559.88, 74578.52, 0.09, -0.19, 0.98
131, 99281.51, 125794.52, 23218.30, 20230.36, 10973.61, 28940.41, 101565.81, 74585.45, 0.00, 0.00, 0.00
132, 99301.22, 125796.09, 23217.83, 20228.04, 10969.14, 28937.71, 101570.21, 74606.68, 0.00, 0.00, 0.00
133, 99305.24, 125798.48, 23215.64, 20228.93, 10969.54, 28937.06, 101563.33, 74605.78, 0.00, 0.00, 0.00
134, 99267.67, 125800.82, 23218.81, 20229.51, 10974.80, 28940.10, 101559.80, 74561.69, 0.00, 0.00, 0.00
135, 99258.46, 125799.66, 23216.78, 20225.67, 10962.97, 28937.17, 101564.06, 74552.37, 0.00, 0.00, 0.00
136, 99253.99, 125802.45, 23219.68, 20233.47, 10984.25, 28942.02, 101564.18, 74547.29, 0.00, 0.00, 0.00
137, 99239.46, 125802.19, 23218.90, 20235.39, 10992.88, 28943.99, 101553.34, 74529.66, 0.00, 0.00, 0.00
138, 99224.84, 125802.79, 23222.70, 20232.60, 10985.90, 28936.95, 101545.73, 74510.07, 0.00, 0.00, 0.00
139, 99216.66, 125805.85, 23218.23, 20228.73, 10976.29, 28935.79, 101543.99, 74498.72, 0.00, 0.00, 0.00
140, 99220.46, 125807.10, 23214.72, 20229.00, 10969.99, 28936.57, 101546.50, 74505.98, 0.09, -0.19, 0.98
141, 99225.89, 125805.76, 23215.93, 20233.22, 10974.77, 28939.38, 101549.52, 74503.34, 0.00, 0.00, 0.00
142, 99225.02, 125809.70, 23218.63, 20237.78, 10968.74, 28937.10, 101547.08, 74504.13, 0.00, 0.00, 0.00
143, 99211.66, 125802.07, 23218.41, 20231.99, 10958.86, 28932.32, 101544.82, 74501.06, 0.00, 0.00, 0.00
144, 99207.08, 125796.22, 23219.17, 20233.27, 10975.78, 28934.29, 101545.31, 74499.39, 0.00, 0.00, 0.00
145, 99212.15, 125797.02, 23221.76, 20232.31, 10964.96, 28931.27, 101543.37, 74501.78, 0.00, 0.00, 0.00
146, 99219.81, 125795.52, 23217.16, 20227.75, 10966.37, 28931.90, 101541.20, 74498.74, 0.00, 0.00, 0.00
147, 99228.27, 125811.88, 23222.21, 20229.24, 10981.17, 28938.78, 101546.07, 74502.45, 0.00, 0.00, 0.00
148, 99233.98, 125813.47, 23224.78, 20232.20, 10981.88, 28940.70, 101547.26, 74502.88, 0.00, 0.00, 0.00
149, 99231.21, 125798.01, 23214.39, 20225.38, 10968.49, 28933.86, 101542.34, 74500.40, 0.00, 0.00, 0.00
150, 99233.65, 125799.48, 23214.88, 20227.63, 10958.39, 28928.52, 101540.59, 74503.21, 0.09, -0.19, 0.98
151, 99233.61, 125805.67, 23219.97, 20231.57, 10975.44, 28938.40, 101540.20, 74504.64, 0.00, 0.00, 0.00
152, 99233.52, 125802.45, 23212.02, 20228.51, 10980.27, 28939.05, 101534.77, 74504.82, 0.00, 0.00, 0.00
153, 99234.74, 125798.81, 23211.03, 20223.61, 10972.58, 28931.67, 101528.17, 74503.41, 0.00, 0.00, 0.00
154, 99233.77, 125800.13, 23213.52, 20222.36, 10957.36, 28927.27, 101528.30, 74503.57, 0.00, 0.00, 0.00
155, 99233.09, 125801.56, 23215.55, 20223.32, 10944.38, 28925.55, 101528.86, 74503.68, 0.00, 0.00, 0.00
156, 99238.12, 125801.29, 23212.38, 20224.21, 10946.52, 28926.46, 101530.47, 74506.70, 0.00, 0.00, 0.00
157, 99237.38, 125798.61, 23206.23, 20217.62, 10968.11, 28927.58, 101528.57, 74505.20, 0.00, 0.00, 0.00
158, 99238.44, 125797.29, 23205.07, 20212.44, 10967.75, 28925.23, 101521.53, 74503.34, 0.00, 0.00, 0.00
159, 99237.02, 125795.88, 23204.08, 20211.32, 10968.78, 28923.67, 101517.38, 74502.81, 0.00, 0.00, 0.00
160, 99239.13, 125796.93, 23204.66, 20212.55, 10959.82, 28922.35, 101519.95, 74504.28, 0.08, -0.20, 0.98
161, 99238.95, 125798.74, 23204.31, 20208.77, 10956.87, 28922.49, 101524.70, 74507.77, 0.00, 0.00, 0.00
162, 99240.05, 125804.76, 23200.93, 20208.57, 10956.74, 28921.88, 101523.36, 74509.85, 0.00, 0.00, 0.00
163, 99238.05, 125809.59, 23205.71, 20213.04, 10953.79, 28921.66, 101521.55, 74510.05, 0.00, 0.00, 0.00
164, 99232.53, 125795.23, 23205.78, 20211.38, 10953.83, 28920.90, 101520.81, 74506.14, 0.00, 0.00, 0.00
165, 99234.39, 125794.02, 23207.84, 20215.01, 10955.80, 28917.81, 101519.52, 74506.12, 0.00, 0.00, 0.00
166, 99241.09, 125795.77, 23200.86, 20212.53, 10951.04, 28916.70, 101518.89, 74510.45, 0.00, 0.00, 0.00
167, 99243.75, 125800.91, 23198.72, 20212.46, 10949.31, 28913.75, 101515.88, 74510.63, 0.00, 0.00, 0.00
168, 99247.51, 125798.83, 23198.58, 20210.98, 10958.61, 28916.29, 101515.95, 74516.45, 0.00, 0.00, 0.00
169, 99235.62, 125783.74, 23199.43, 20203.63, 10947.10, 28906.04, 101506.80, 74506.70, 0.00, 0.00, 0.00
170, 99232.16, 125782.47, 23197.78, 20205.73, 10939.19, 28904.00, 101505.75, 74502.70, 0.09, -0.20, 0.99
171, 99239.24, 125784.41, 23199.93, 20211.59, 10945.31, 28907.04, 101509.75, 74509.20, 0.00, 0.00, 0.00
172, 99239.48, 125786.65, 23203.77, 20208.08, 10955.44, 28911.53, 101504.25, 74509.23, 0.00, 0.00, 0.00
173, 99233.52, 125794.92, 23204.66, 20211.18, 10954.66, 28910.73, 101502.98, 74505.80, 0.00, 0.00, 0.00
174, 99233.88, 125793.67, 23201.85, 20212.32, 10947.62, 28911.64, 101506.71, 74507.99, 0.00, 0.00, 0.00
175, 99236.22, 125792.35, 23200.24, 20214.76, 10937.96, 28909.92, 101506.78, 74505.94, 0.00, 0.00, 0.00
176, 99233.45, 125792.22, 23200.26, 20211.47, 10939.59, 28906.88, 101504.66, 74499.16, 0.00, 0.00, 0.00
177, 99228.73, 125794.23, 23206.36, 20209.26, 10946.99, 28908.85, 101502.02, 74495.03, 0.00, 0.00, 0.00
178, 99229.20, 125794.83, 23206.05, 20210.49, 10948.55, 28910.15, 101500.97, 74498.20, 0.00, 0.00, 0.00
179, 99234.30, 125794.85, 23204.26, 20212.66, 10978.60, 28920.21, 101505.05, 74501.13, 0.00, 0.00, 0.00
180, 99233.59, 125794.52, 23202.85, 20210.65, 10972.65, 28917.97, 101504.95, 74497.06, 0.09, -0.20, 0.99
181, 99235.10, 125802.38, 23205.60, 20213.75, 10965.41, 28918.26, 101503.36, 74497.91, 0.00, 0.00, 0.00
182, 99234.45, 125814.75, 23209.47, 20222.14, 10969.30, 28921.55, 101501.50, 74499.84, 0.00, 0.00, 0.00
183, 99233.12, 125799.13, 23203.12, 20216.50, 10962.70, 28924.18, 101501.26, 74499.44, 0.00, 0.00, 0.00
184, 99231.88, 125786.74, 23204.20, 20214.56, 10944.06, 28920.68, 101500.74, 74497.31, 0.00, 0.00, 0.00
185, 99228.78, 125788.66, 23203.08, 20210.27, 10959.31, 28919.76, 101498.35, 74492.08, 0.00, 0.00, 0.00
186, 99229.90, 125787.63, 23195.92, 20205.60, 10963.28, 28918.96, 101498.35, 74492.35, 0.00, 0.00, 0.00
187, 99229.36, 125791.23, 23198.67, 20206.49, 10965.18, 28920.63, 101500.25, 74494.12, 0.00, 0.00, 0.00
188, 99229.70, 125795.45, 23201.13, 20206.98, 10961.45, 28918.51, 101498.91, 74494.41, 0.00, 0.00, 0.00
189, 99230.45, 125795.81, 23196.88, 20203.76, 10952.47, 28915.80, 101495.96, 74493.42, 0.00, 0.00, 0.00
190, 99237.80, 125796.75, 23196.62, 20205.53, 10941.83, 28917.26, 101499.13, 74497.13, 0.08, -0.20, 0.99
191, 99243.06, 125800.62, 23202.52, 20210.13, 10942.50, 28920.65, 101503.16, 74500.66, 0.00, 0.00, 0.00
192, 99233.90, 125804.30, 23198.00, 20197.42, 10952.31, 28917.77, 101497.99, 74495.23, 0.00, 0.00, 0.00
193, 99229.76, 125808.58, 23200.24, 20202.40, 10956.13, 28916.32, 101496.41, 74491.66, 0.00, 0.00, 0.00
194, 99232.55, 125803.86, 23202.88, 20216.08, 10956.33, 28915.91, 101496.38, 74492.86, 0.00, 0.00, 0.00
195, 99226.05, 125793.63, 23193.96, 20202.49, 10948.73, 28908.47, 101492.56, 74489.27, 0.00, 0.00, 0.00
196, 99226.37, 125790.23, 23194.14, 20202.71, 10953.90, 28912.00, 101491.06, 74487.61, 0.00, 0.00, 0.00
197, 99227.21, 125797.71, 23200.04, 20209.24, 10965.18, 28916.29, 101487.91, 74485.46, 0.00, 0.00, 0.00
198, 99230.07, 125803.68, 23200.86, 20210.49, 10962.66, 28917.46, 101488.98, 74487.32, 0.00, 0.00, 0.00
199, 99232.82, 125809.12, 23195.12, 20207.32, 10958.90, 28919.16, 101490.88, 74492.66, 0.00, 0.00, 0.00
200, 99232.38, 125803.13, 23195.14, 20201.82, 10942.39, 28915.76, 101491.73, 74491.57, 0.08, -0.20, 0.98
201, 99229.74, 125797.02, 23198.90, 20198.69, 10926.78, 28909.90, 101487.00, 74483.19, 0.00, 0.00, 0.00
202, 99232.55, 125805.02, 23208.66, 20206.11, 10961.00, 28918.39, 101493.61, 74488.05, 0.00, 0.00, 0.00
203, 99231.52, 125810.09, 23206.72, 20203.61, 10966.06, 28915.98, 101495.65, 74488.62, 0.00, 0.00, 0.00
204, 99228.24, 125803.50, 23199.46, 20198.11, 10944.98, 28910.75, 101489.45, 74485.17, 0.00, 0.00, 0.00
205, 99226.84, 125795.75, 23197.02, 20197.46, 10944.96, 28910.57, 101484.96, 74483.27, 0.00, 0.00, 0.00
206, 99229.52, 125797.09, 23199.12, 20197.84, 10958.66, 28916.63, 101488.83, 74488.73, 0.00, 0.00, 0.00
207, 99230.37, 125801.78, 23201.71, 20204.19, 10969.32, 28920.94, 101496.20, 74491.88, 0.00, 0.00, 0.00
208, 99227.46, 125804.94, 23205.42, 20206.78, 10970.03, 28923.92, 101503.41, 74494.63, 0.00, 0.00, 0.00
209, 99232.11, 125804.64, 23206.54, 20208.44, 10962.75, 28921.23, 101499.98, 74496.53, 0.00, 0.00, 0.00
210, 99228.95, 125803.99, 23206.97, 20203.74, 10951.88, 28915.42, 101489.92, 74489.51, 0.08, -0.20, 0.98
211, 99224.15, 125810.32, 23206.68, 20200.77, 10942.25, 28911.73, 101485.73, 74484.68, 0.00, 0.00, 0.00
212, 99229.70, 125811.84, 23203.08, 20198.91, 10936.22, 28914.08, 101490.88, 74486.31, 0.00, 0.00, 0.00
213, 99227.84, 125804.30, 23207.10, 20207.92, 10953.67, 28919.47, 101494.46, 74486.88, 0.00, 0.00, 0.00
214, 99225.45, 125799.15, 23208.44, 20215.70, 10968.51, 28920.12, 101491.47, 74487.32, 0.00, 0.00, 0.00
215, 99225.45, 125800.27, 23207.75, 20213.55, 10967.00, 28924.18, 101487.84, 74485.35, 0.00, 0.00, 0.00
216, 99223.52, 125803.19, 23211.26, 20210.38, 10957.23, 28920.52, 101486.62, 74484.41, 0.00, 0.00, 0.00
217, 99215.44, 125809.00, 23211.15, 20209.42, 10959.13, 28917.66, 101482.17, 74481.44, 0.00, 0.00, 0.00
218, 99219.57, 125805.85, 23210.90, 20212.32, 10961.59, 28918.71, 101479.45, 74482.11, 0.00, 0.00, 0.00
219, 99226.70, 125800.71, 23214.05, 20210.85, 10946.05, 28915.82, 101476.40, 74485.17, 0.00, 0.00, 0.00
220, 99222.79, 125809.41, 23214.19, 20207.74, 10940.22, 28913.54, 101475.95, 74486.09, 0.08, -0.19, 0.98
221, 99222.03, 125806.86, 23208.69, 20201.28, 10962.03, 28914.57, 101474.75, 74480.66, 0.00, 0.00, 0.00
222, 99219.48, 125803.21, 23210.74, 20197.86, 10967.02, 28914.46, 101472.06, 74475.25, 0.00, 0.00, 0.00
223, 99217.83, 125808.16, 23210.34, 20202.82, 10969.65, 28917.19, 101474.70, 74479.67, 0.00, 0.00, 0.00
224, 99221.73, 125810.61, 23210.92, 20207.68, 10963.33, 28917.59, 101478.64, 74484.15, 0.00, 0.00, 0.00
225, 99224.17, 125804.02, 23210.36, 20205.15, 10960.04, 28919.33, 101481.66, 74487.07, 0.00, 0.00, 0.00
226, 99219.37, 125800.62, 23210.14, 20199.40, 10956.89, 28916.38, 101478.16, 74485.76, 0.00, 0.00, 0.00
227, 99222.54, 125805.54, 23209.92, 20200.10, 10957.70, 28915.69, 101476.89, 74483.34, 0.00, 0.00, 0.00
228, 99227.37, 125815.71, 23210.81, 20198.29, 10950.83, 28912.83, 101473.88, 74485.64, 0.00, 0.00, 0.00
229, 99226.16, 125811.93, 23208.44, 20195.70, 10946.12, 28910.93, 101470.21, 74487.72, 0.00, 0.00, 0.00
230, 99224.04, 125799.73, 23204.55, 20191.13, 10934.09, 28906.48, 101467.33, 74481.60, 0.08, -0.20, 0.98
231, 99226.23, 125800.60, 23206.09, 20191.27, 10933.87, 28908.58, 101466.52, 74483.63, 0.00, 0.00, 0.00
232, 99230.16, 125807.98, 23204.84, 20192.99, 10947.15, 28915.56, 101470.70, 74488.68, 0.00, 0.00, 0.00
233, 99231.05, 125814.57, 23202.96, 20192.86, 10955.08, 28916.43, 101470.95, 74488.41, 0.00, 0.00, 0.00
234, 99231.88, 125809.88, 23203.77, 20190.84, 10948.84, 28913.48, 101468.11, 74489.17, 0.00, 0.00, 0.00
235, 99235.46, 125804.02, 23205.45, 20188.97, 10942.99, 28910.01, 101465.54, 74490.90, 0.00, 0.00, 0.00
236, 99236.45, 125804.29, 23203.79, 20191.36, 10944.31, 28909.63, 101463.93, 74495.50, 0.00, 0.00, 0.00
237, 99229.83, 125805.60, 23200.48, 20189.46, 10946.05, 28908.54, 101462.34, 74494.00, 0.00, 0.00, 0.00
238, 99226.48, 125807.41, 23199.77, 20189.68, 10949.02, 28911.02, 101463.91, 74492.30, 0.00, 0.00, 0.00
239, 99225.31, 125806.66, 23202.05, 20192.97, 10944.60, 28909.57, 101459.05, 74489.00, 0.00, 0.00, 0.00
240, 99226.74, 125810.55, 23204.89, 20191.74, 10941.56, 28905.50, 101457.42, 74491.01, 0.08, -0.20, 0.98
241, 99229.07, 125812.24, 23201.20, 20188.16, 10937.04, 28902.06, 101450.52, 74485.63, 0.00, 0.00, 0.00
242, 99225.78, 125820.55, 23204.22, 20194.67, 10945.96, 28902.62, 101448.51, 74481.28, 0.00, 0.00, 0.00
243, 99227.98, 125811.23, 23203.39, 20193.17, 10954.72, 28906.21, 101449.94, 74483.70, 0.00, 0.00, 0.00
244, 99228.09, 125796.77, 23200.78, 20190.73, 10954.46, 28906.77, 101447.66, 74484.34, 0.00, 0.00, 0.00
245, 99222.81, 125799.55, 23206.79, 20198.11, 10950.28, 28903.55, 101437.17, 74484.34, 0.00, 0.00, 0.00
246, 99223.37, 125799.62, 23208.62, 20200.46, 10946.36, 28905.97, 101438.45, 74483.63, 0.00, 0.00, 0.00
247, 99224.77, 125799.84, 23209.92, 20201.42, 10969.10, 28917.17, 101441.89, 74482.65, 0.00, 0.00, 0.00
248, 99221.91, 125813.74, 23213.20, 20200.14, 10971.31, 28915.96, 101438.88, 74483.63, 0.00, 0.00, 0.00
249, 99225.96, 125813.74, 23214.48, 20203.65, 10958.93, 28917.08, 101444.77, 74490.41, 0.00, 0.00, 0.00
250, 99228.69, 125807.39, 23212.71, 20198.44, 10954.37, 28915.09, 101448.89, 74492.73, 0.08, -0.20, 0.98
251, 99232.04, 125807.91, 23214.59, 20199.25, 10966.91, 28915.06, 101450.18, 74491.34, 0.00, 0.00, 0.00
252, 99235.10, 125808.45, 23214.14, 20196.59, 10960.80, 28911.60, 101446.56, 74491.73, 0.00, 0.00, 0.00
253, 99233.67, 125812.24, 23215.41, 20195.98, 10957.14, 28912.63, 101441.42, 74490.78, 0.00, 0.00, 0.00
254, 99231.88, 125815.53, 23216.80, 20198.58, 10952.18, 28915.29, 101440.84, 74494.65, 0.00, 0.00, 0.00
255, 99236.87, 125822.73, 23217.43, 20199.65, 10957.12, 28920.61, 101444.53, 74500.13, 0.00, 0.00, 0.00
0, 99238.86, 125815.08, 23216.67, 20199.52, 10967.02, 28927.89, 101446.27, 74502.56, 0.00, 0.00, 0.00
1, 99239.87, 125810.25, 23218.07, 20200.12, 10971.87, 28931.34, 101443.91, 74503.23, 0.00, 0.00, 0.00
2, 99238.48, 125814.23, 23217.14, 20198.15, 10969.50, 28931.00, 101442.12, 74499.41, 0.00, 0.00, 0.00
3, 99230.63, 125815.06, 23213.83, 20196.43, 10962.93, 28928.83, 101440.77, 74493.53, 0.00, 0.00, 0.00
4, 99232.27, 125812.71, 23214.07, 20198.67, 10965.41, 28930.49, 101444.06, 74495.14, 0.08, -0.20, 0.98
5, 99235.10, 125812.78, 23214.92, 20203.67, 10968.22, 28931.27, 101446.27, 74498.38, 0.00, 0.00, 0.00
6, 99231.17, 125811.62, 23214.92, 20204.59, 10969.34, 28931.00, 101445.16, 74496.44, 0.00, 0.00, 0.00
7, 99230.14, 125814.68, 23216.20, 20206.45, 10982.98, 28935.49, 101443.41, 74493.96, 0.00, 0.00, 0.00
8, 99229.41, 125825.90, 23225.34, 20207.63, 10979.67, 28937.71, 101445.87, 74496.80, 0.00, 0.00, 0.00
9, 99228.45, 125826.34, 23224.06, 20206.49, 10968.36, 28935.14, 101444.53, 74496.06, 0.00, 0.00, 0.00
10, 99233.77, 125817.72, 23218.59, 20201.69, 10974.93, 28932.46, 101437.76, 74490.23, 0.00, 0.00, 0.00
11, 99234.73, 125820.49, 23218.52, 20201.44, 10981.68, 28932.61, 101433.09, 74488.98, 0.00, 0.00, 0.00
12, 99235.33, 125829.56, 23227.20, 20217.11, 10982.55, 28932.61, 101434.60, 74487.50, 0.00, 0.00, 0.00
13, 99232.89, 125821.07, 23225.27, 20213.04, 10983.31, 28933.57, 101436.51, 74488.95, 0.00, 0.00, 0.00
14, 99236.65, 125813.34, 23218.50, 20208.64, 10960.94, 28923.58, 101430.83, 74485.24, 0.08, -0.20, 0.98
15, 99249.16, 125813.36, 23215.41, 20198.91, 10971.26, 28924.90, 101429.71, 74496.15, 0.00, 0.00, 0.00
16, 99240.87, 125819.53, 23225.05, 20211.92, 11000.59, 28943.72, 101443.52, 74508.33, 0.00, 0.00, 0.00
17, 99223.97, 125821.16, 23230.57, 20222.81, 11002.67, 28949.71, 101446.67, 74502.07, 0.00, 0.00, 0.00
18, 99228.48, 125826.86, 23224.91, 20209.84, 10997.26, 28943.32, 101444.13, 74503.70, 0.00, 0.00, 0.00
19, 99228.51, 125833.86, 23227.55, 20208.68, 10993.15, 28936.59, 101440.84, 74502.52, 0.00, 0.00, 0.00
20, 99231.68, 125823.44, 23227.15, 20210.09, 10988.14, 28933.06, 101443.30, 74507.81, 0.00, 0.00, 0.00
21, 99235.77, 125820.18, 23222.93, 20207.34, 10985.46, 28936.19, 101447.10, 74511.20, 0.00, 0.00, 0.00
22, 99233.20, 125823.46, 23225.90, 20208.05, 10988.56, 28939.56, 101444.23, 74508.22, 0.00, 0.00, 0.00
23, 99230.14, 125825.20, 23231.04, 20210.09, 10979.15, 28933.64, 101436.88, 74501.34, 0.00, 0.00, 0.00
24, 99235.55, 125825.74, 23223.48, 20208.41, 10980.50, 28933.71, 101434.07, 74502.09, 0.09, -0.20, 0.98
25, 99238.63, 125831.76, 23224.56, 20207.63, 10980.09, 28935.58, 101436.73, 74506.54, 0.00, 0.00, 0.00
26, 99238.27, 125835.16, 23228.29, 20206.94, 10977.05, 28935.63, 101439.59, 74506.66, 0.00, 0.00, 0.00
27, 99238.34, 125840.00, 23224.04, 20202.47, 10979.82, 28935.58, 101438.56, 74507.08, 0.00, 0.00, 0.00
28, 99240.53, 125835.11, 23222.84, 20197.04, 10971.78, 28935.23, 101438.00, 74507.66, 0.00, 0.00, 0.00
29, 99244.73, 125833.16, 23228.67, 20202.87, 10973.34, 28938.00, 101440.08, 74509.65, 0.00, 0.00, 0.00
30, 99247.35, 125839.69, 23230.21, 20209.46, 10982.69, 28942.56, 101443.81, 74515.23, 0.00, 0.00, 0.00
31, 99248.16, 125846.87, 23229.79, 20209.35, 10988.18, 28948.30, 101448.15, 74517.52, 0.00, 0.00, 0.00
32, 99250.86, 125846.28, 23230.41, 20215.90, 10991.98, 28949.40, 101446.38, 74518.12, 0.00, 0.00, 0.00
33, 99249.09, 125842.55, 23232.47, 20214.27, 10985.48, 28948.59, 101444.73, 74518.23, 0.00, 0.00, 0.00
34, 99245.92, 125849.34, 23234.28, 20204.41, 10985.30, 28944.66, 101441.66, 74517.12, 0.08, -0.20, 0.98
35, 99243.04, 125838.33, 23229.83, 20195.94, 10977.25, 28931.72, 101430.67, 74509.18, 0.00, 0.00, 0.00
36, 99241.59, 125830.55, 23232.38, 20201.42, 10990.11, 28936.97, 101431.34, 74508.82, 0.00, 0.00, 0.00
37, 99239.84, 125833.01, 23230.68, 20202.71, 10989.97, 28937.42, 101434.74, 74509.41, 0.00, 0.00, 0.00
38, 99247.87, 125839.00, 23233.74, 20208.46, 10984.29, 28939.67, 101442.85, 74517.38, 0.00, 0.00, 0.00
39, 99247.60, 125842.38, 23236.00, 20211.92, 10981.59, 28936.14, 101435.84, 74514.32, 0.00, 0.00, 0.00
40, 99241.66, 125839.84, 23230.10, 20212.66, 10993.15, 28938.42, 101429.15, 74511.10, 0.00, 0.00, 0.00
41, 99241.27, 125841.30, 23234.64, 20212.23, 10984.32, 28934.76, 101430.72, 74507.39, 0.00, 0.00, 0.00
42, 99244.02, 125844.92, 23239.35, 20210.74, 11001.46, 28936.43, 101432.62, 74506.52, 0.00, 0.00, 0.00
43, 99241.81, 125849.62, 23238.24, 20205.04, 10989.26, 28932.01, 101425.64, 74506.63, 0.00, 0.00, 0.00
44, 99241.36, 125853.62, 23241.32, 20206.15, 10987.40, 28934.15, 101424.63, 74510.66, 0.08, -0.20, 0.98
45, 99236.35, 125846.40, 23241.63, 20209.66, 10988.88, 28936.86, 101428.37, 74512.45, 0.00, 0.00, 0.00
46, 99238.41, 125845.28, 23238.75, 20205.73, 10986.20, 28935.36, 101428.30, 74510.74, 0.00, 0.00, 0.00
47, 99242.28, 125846.59, 23236.78, 20203.43, 10985.05, 28936.75, 101431.27, 74514.14, 0.00, 0.00, 0.00
48, 99244.55, 125849.44, 23234.73, 20206.40, 10978.64, 28935.40, 101432.86, 74516.49, 0.00, 0.00, 0.00
49, 99250.95, 125859.59, 23238.17, 20204.70, 10973.30, 28937.06, 101435.92, 74520.78, 0.00, 0.00, 0.00
50, 99250.26, 125852.79, 23236.18, 20201.37, 10971.33, 28934.09, 101435.30, 74522.41, 0.00, 0.00, 0.00
51, 99250.55, 125843.11, 23233.47, 20201.91, 10986.58, 28933.33, 101435.84, 74522.61, 0.00, 0.00, 0.00
52, 99247.91, 125841.05, 23231.93, 20200.57, 10973.70, 28929.55, 101433.98, 74520.34, 0.00, 0.00, 0.00
53, 99248.76, 125841.45, 23230.73, 20195.34, 10957.83, 28930.29, 101432.98, 74519.33, 0.00, 0.00, 0.00
54, 99243.93, 125843.98, 23233.59, 20199.70, 10987.00, 28941.11, 101434.54, 74514.14, 0.08, -0.19, 0.98
55, 99240.89, 125847.89, 23237.57, 20208.72, 10997.30, 28944.68, 101436.19, 74512.51, 0.00, 0.00, 0.00
56, 99237.41, 125845.10, 23230.37, 20198.73, 10984.21, 28937.53, 101436.41, 74511.35, 0.00, 0.00, 0.00
57, 99229.54, 125845.39, 23233.99, 20198.62, 10986.20, 28936.54, 101430.76, 74506.66, 0.00, 0.00, 0.00
58, 99236.55, 125845.63, 23233.27, 20202.15, 10993.66, 28936.10, 101428.63, 74506.77, 0.00, 0.00, 0.00
59, 99239.22, 125845.44, 23235.15, 20198.13, 10989.77, 28927.45, 101424.28, 74508.24, 0.00, 0.00, 0.00
60, 99237.92, 125854.09, 23233.86, 20197.95, 10989.08, 28929.28, 101425.20, 74509.63, 0.00, 0.00, 0.00
61, 99237.79, 125853.26, 23236.31, 20194.89, 10986.40, 28928.77, 101423.30, 74509.34, 0.00, 0.00, 0.00
62, 99236.63, 125849.21, 23232.69, 20190.80, 10982.80, 28928.39, 101421.88, 74509.52, 0.00, 0.00, 0.00
63, 99244.42, 125856.16, 23235.33, 20198.38, 10986.15, 28936.32, 101426.09, 74515.08, 0.00, 0.00, 0.00
64, 99246.46, 125846.98, 23233.59, 20195.58, 10978.10, 28935.43, 101427.23, 74514.34, 0.08, -0.19, 0.97
65, 99255.13, 125846.77, 23233.27, 20197.57, 10985.41, 28937.33, 101430.24, 74518.23, 0.00, 0.00, 0.00
66, 99253.09, 125848.72, 23233.32, 20199.52, 10989.08, 28941.28, 101434.80, 74521.23, 0.00, 0.00, 0.00
67, 99245.07, 125847.11, 23233.16, 20197.73, 10981.81, 28936.05, 101433.46, 74517.31, 0.00, 0.00, 0.00
68, 99248.07, 125851.72, 23230.21, 20191.16, 10973.34, 28929.37, 101423.83, 74515.41, 0.00, 0.00, 0.00
69, 99245.85, 125851.47, 23227.73, 20193.93, 10960.09, 28928.99, 101420.91, 74517.45, 0.00, 0.00, 0.00
70, 99239.87, 125844.36, 23225.92, 20188.54, 10958.70, 28928.88, 101418.71, 74515.70, 0.00, 0.00, 0.00
71, 99242.52, 125842.30, 23224.38, 20180.83, 10986.91, 28933.08, 101422.45, 74518.92, 0.00, 0.00, 0.00
72, 99248.67, 125847.45, 23228.80, 20188.97, 10978.48, 28934.89, 101432.08, 74523.89, 0.00, 0.00, 0.00
73, 99247.73, 125856.01, 23229.97, 20192.14, 10972.20, 28932.50, 101433.20, 74522.10, 0.00, 0.00, 0.00
74, 99251.17, 125853.88, 23227.17, 20183.24, 10975.60, 28937.48, 101430.63, 74520.55, 0.08, -0.19, 0.98
75, 99252.38, 125856.45, 23231.98, 20189.73, 10979.80, 28941.17, 101430.23, 74522.08, 0.00, 0.00, 0.00
76, 99246.34, 125847.20, 23229.09, 20190.60, 10980.09, 28941.53, 101428.59, 74518.43, 0.00, 0.00, 0.00
77, 99245.07, 125834.21, 23228.80, 20188.74, 10969.97, 28935.79, 101425.24, 74515.28, 0.00, 0.00, 0.00
78, 99247.02, 125842.04, 23230.10, 20188.52, 10982.15, 28939.74, 101428.16, 74517.95, 0.00, 0.00, 0.00
79, 99239.59, 125838.51, 23223.75, 20180.47, 10972.56, 28935.38, 101421.55, 74513.09, 0.00, 0.00, 0.00
80, 99248.60, 125851.31, 23233.39, 20194.11, 10978.71, 28945.26, 101427.50, 74521.74, 0.00, 0.00, 0.00
81, 99254.82, 125858.73, 23239.87, 20202.94, 11000.39, 28950.02, 101431.34, 74526.62, 0.00, 0.00, 0.00
82, 99253.32, 125857.73, 23236.85, 20198.09, 11001.30, 28946.54, 101428.75, 74525.45, 0.00, 0.00, 0.00
83, 99251.40, 125862.13, 23237.19, 20196.23, 10989.21, 28942.20, 101428.39, 74525.38, 0.00, 0.00, 0.00
84, 99247.24, 125853.08, 23238.37, 20193.84, 10976.70, 28934.87, 101424.50, 74520.24, 0.09, -0.20, 0.98
85, 99240.42, 125847.34, 23230.90, 20190.64, 10971.15, 28928.59, 101417.95, 74514.43, 0.00, 0.00, 0.00
86, 99241.72, 125855.31, 23229.43, 20193.32, 10990.29, 28934.96, 101419.88, 74516.58, 0.00, 0.00, 0.00
87, 99248.65, 125863.36, 23235.17, 20197.30, 10989.37, 28939.09, 101424.32, 74523.24, 0.00, 0.00, 0.00
88, 99250.68, 125862.78, 23234.48, 20195.38, 10987.09, 28940.86, 101427.05, 74525.95, 0.00, 0.00, 0.00
89, 99254.02, 125848.70, 23233.14, 20193.88, 10993.91, 28944.26, 101427.01, 74527.42, 0.00, 0.00, 0.00
90, 99257.01, 125847.78, 23233.52, 20192.97, 10995.45, 28941.91, 101420.12, 74526.28, 0.00, 0.00, 0.00
91, 99254.68, 125853.33, 23234.06, 20199.79, 11009.02, 28951.50, 101421.13, 74528.38, 0.00, 0.00, 0.00
92, 99255.55, 125856.25, 23232.31, 20204.37, 10999.79, 28947.81, 101423.14, 74530.95, 0.00, 0.00, 0.00
93, 99251.33, 125856.03, 23229.85, 20193.44, 10966.03, 28931.70, 101417.59, 74526.59, 0.00, 0.00, 0.00
94, 99251.17, 125854.94, 23228.36, 20186.62, 10973.19, 28928.72, 101414.73, 74524.70, 0.09, -0.19, 0.98
95, 99258.46, 125866.38, 23234.66, 20192.77, 10989.30, 28938.78, 101416.48, 74532.20, 0.00, 0.00, 0.00
96, 99263.34, 125870.38, 23240.00, 20195.74, 10990.11, 28943.12, 101415.54, 74534.46, 0.00, 0.00, 0.00
97, 99270.55, 125860.16, 23236.58, 20197.91, 10988.92, 28943.70, 101415.85, 74535.78, 0.00, 0.00, 0.00
98, 99267.76, 125864.08, 23234.10, 20194.82, 10976.79, 28938.80, 101417.86, 74534.75, 0.00, 0.00, 0.00
99, 99260.54, 125856.88, 23232.13, 20190.49, 10981.12, 28935.16, 101415.67, 74532.88, 0.00, 0.00, 0.00
100, 99262.22, 125858.38, 23231.46, 20189.66, 10980.63, 28936.97, 101415.31, 74534.02, 0.00, 0.00, 0.00
101, 99263.58, 125863.30, 23237.16, 20190.38, 10973.03, 28936.86, 101415.36, 74533.74, 0.00, 0.00, 0.00
102, 99264.81, 125859.85, 23235.64, 20193.24, 10977.88, 28937.30, 101416.66, 74535.33, 0.00, 0.00, 0.00
103, 99260.49, 125859.83, 23226.50, 20184.99, 10990.13, 28939.83, 101411.76, 74527.93, 0.00, 0.00, 0.00
104, 99264.36, 125859.56, 23228.02, 20187.89, 10985.68, 28942.87, 101413.41, 74532.16, 0.08, -0.20, 0.98
105, 99274.45, 125862.36, 23239.33, 20199.12, 10990.02, 28950.76, 101418.31, 74540.25, 0.00, 0.00, 0.00
106, 99267.83, 125858.47, 23234.44, 20191.98, 10979.60, 28942.85, 101415.92, 74533.72, 0.00, 0.00, 0.00
107, 99265.73, 125862.31, 23236.94, 20190.51, 10990.82, 28947.79, 101420.45, 74535.82, 0.00, 0.00, 0.00
108, 99268.20, 125866.22, 23243.53, 20188.25, 10983.89, 28941.53, 101412.07, 74533.63, 0.00, 0.00, 0.00
109, 99264.01, 125864.10, 23235.87, 20184.94, 10983.69, 28940.88, 101408.59, 74530.17, 0.00, 0.00, 0.00
110, 99259.42, 125853.08, 23230.53, 20184.03, 10978.98, 28936.61, 101405.26, 74529.09, 0.00, 0.00, 0.00
111, 99255.40, 125852.45, 23222.50, 20174.26, 10964.20, 28927.04, 101397.77, 74523.15, 0.00, 0.00, 0.00
112, 99251.76, 125851.47, 23221.43, 20180.05, 10962.99, 28926.62, 101392.60, 74516.80, 0.00, 0.00, 0.00
113, 99252.63, 125854.82, 23222.77, 20186.96, 10978.01, 28928.21, 101393.16, 74516.11, 0.00, 0.00, 0.00
114, 99262.38, 125880.30, 23233.81, 20197.06, 10998.62, 28936.46, 101399.60, 74524.36, 0.08, -0.20, 0.99
115, 99248.54, 125865.48, 23220.06, 20184.38, 10998.02, 28930.82, 101386.80, 74515.33, 0.00, 0.00, 0.00
116, 99256.56, 125857.57, 23228.40, 20196.39, 11002.00, 28940.12, 101395.22, 74525.50, 0.00, 0.00, 0.00
117, 99256.45, 125847.98, 23227.28, 20191.34, 10989.79, 28936.75, 101395.18, 74523.30, 0.00, 0.00, 0.00
118, 99247.66, 125844.14, 23221.92, 20181.08, 10968.02, 28925.59, 101391.38, 74517.07, 0.00, 0.00, 0.00
119, 99263.11, 125872.23, 23235.38, 20187.74, 10964.51, 28932.92, 101405.21, 74532.34, 0.00, 0.00, 0.00
120, 99258.82, 125875.43, 23241.63, 20186.84, 10980.00, 28935.47, 101393.30, 74527.11, 0.00, 0.00, 0.00
121, 99257.01, 125873.35, 23241.25, 20187.33, 10979.69, 28936.77, 101391.35, 74526.34, 0.00, 0.00, 0.00
122, 99257.30, 125867.79, 23237.90, 20183.47, 10981.25, 28935.99, 101394.69, 74521.74, 0.00, 0.00, 0.00
123, 99252.38, 125859.52, 23227.96, 20176.94, 10959.48, 28927.25, 101387.02, 74515.88, 0.00, 0.00, 0.00
124, 99258.64, 125871.56, 23231.82, 20181.59, 10965.41, 28935.81, 101392.00, 74521.27, 0.08, -0.20, 0.98
125, 99268.85, 125870.58, 23240.83, 20191.56, 10988.14, 28944.93, 101397.86, 74530.03, 0.00, 0.00, 0.00
126, 99259.18, 125864.52, 23232.25, 20180.85, 10976.23, 28935.03, 101390.15, 74522.52, 0.00, 0.00, 0.00
127, 99255.91, 125862.69, 23229.21, 20178.28, 10965.54, 28930.78, 101395.09, 74520.04, 0.00, 0.00, 0.00
128, 99247.51, 125857.88, 23218.90, 20167.93, 10945.92, 28916.65, 101377.12, 74511.52, 0.00, 0.00, 0.00
129, 99250.68, 125866.49, 23225.43, 20171.87, 10956.67, 28922.15, 101369.94, 74516.87, 0.00, 0.00, 0.00
130, 99264.59, 125866.24, 23233.10, 20182.98, 10977.61, 28936.57, 101382.16, 74533.09, 0.00, 0.00, 0.00
131, 99263.96, 125861.88, 23230.95, 20185.12, 10991.04, 28940.55, 101385.59, 74526.91, 0.00, 0.00, 0.00
132, 99263.94, 125854.89, 23228.60, 20183.96, 10987.85, 28942.20, 101390.95, 74526.03, 0.00, 0.00, 0.00
133, 99258.70, 125856.08, 23225.72, 20175.22, 10980.09, 28939.83, 101394.23, 74524.00, 0.00, 0.00, 0.00
134, 99252.31, 125856.81, 23223.04, 20171.53, 10969.30, 28933.21, 101391.29, 74516.11, 0.08, -0.20, 0.98
135, 99246.88, 125857.05, 23217.27, 20161.25, 10957.65, 28921.10, 101379.41, 74508.40, 0.00, 0.00, 0.00
136, 99265.68, 125888.91, 23237.21, 20182.73, 10984.85, 28944.93, 101388.11, 74529.52, 0.00, 0.00, 0.00
137, 99251.42, 125907.57, 23227.13, 20178.24, 10965.85, 28928.83, 101373.07, 74516.04, 0.00, 0.00, 0.00
138, 99241.83, 125856.16, 23206.25, 20159.35, 10960.18, 28912.94, 101360.42, 74507.26, 0.00, 0.00, 0.00
139, 99271.56, 125857.05, 23228.78, 20177.05, 10989.73, 28927.60, 101382.88, 74543.52, 0.00, 0.00, 0.00
140, 99262.59, 125835.65, 23229.16, 20177.90, 10992.45, 28927.98, 101376.31, 74528.88, 0.00, 0.00, 0.00
141, 99238.26, 125835.22, 23222.10, 20176.81, 10990.15, 28926.29, 101366.52, 74496.59, 0.00, 0.00, 0.00
142, 99235.95, 125844.70, 23209.58, 20169.30, 10965.01, 28913.63, 101365.63, 74496.48, 0.00, 0.00, 0.00
143, 99251.98, 125839.00, 23209.11, 20173.79, 10964.33, 28914.84, 101364.82, 74512.27, 0.00, 0.00, 0.00
144, 99254.64, 125843.52, 23217.20, 20180.96, 10960.07, 28921.88, 101377.43, 74514.59, 0.08, -0.20, 0.97
145, 99247.98, 125866.71, 23219.08, 20176.03, 10952.29, 28911.56, 101369.80, 74507.59, 0.00, 0.00, 0.00
146, 99251.73, 125847.16, 23213.20, 20169.30, 10949.36, 28905.37, 101343.01, 74508.27, 0.00, 0.00, 0.00
147, 99261.50, 125860.97, 23222.28, 20185.44, 10976.67, 28920.14, 101348.91, 74517.74, 0.00, 0.00, 0.00
148, 99257.52, 125852.34, 23212.38, 20178.95, 10962.39, 28910.19, 101350.67, 74515.21, 0.00, 0.00, 0.00
149, 99261.79, 125857.73, 23214.77, 20185.77, 10954.70, 28916.47, 101364.66, 74522.61, 0.00, 0.00, 0.00
150, 99266.44, 125863.80, 23226.43, 20193.55, 10974.06, 28927.74, 101369.18, 74527.06, 0.00, 0.00, 0.00
151, 99252.05, 125836.61, 23211.37, 20174.44, 10966.93, 28916.63, 101359.32, 74510.05, 0.00, 0.00, 0.00
152, 99252.65, 125848.27, 23214.16, 20172.07, 10944.15, 28907.35, 101360.71, 74509.11, 0.00, 0.00, 0.00
153, 99256.00, 125880.28, 23216.82, 20182.80, 10938.23, 28910.33, 101368.63, 74510.30, 0.00, 0.00, 0.00
154, 99253.30, 125861.17, 23212.13, 20183.69, 10968.98, 28919.94, 101357.06, 74506.59, 0.08, -0.20, 0.98
155, 99254.77, 125822.05, 23206.79, 20187.96, 10971.76, 28920.07, 101343.14, 74510.32, 0.00, 0.00, 0.00
156, 99256.43, 125834.13, 23204.04, 20196.66, 10976.07, 28924.30, 101347.32, 74515.98, 0.00, 0.00, 0.00
157, 99257.92, 125859.92, 23212.96, 20200.41, 10977.54, 28928.48, 101353.67, 74517.65, 0.00, 0.00, 0.00
158, 99257.92, 125865.53, 23211.97, 20192.05, 10964.18, 28923.40, 101354.72, 74516.53, 0.00, 0.00, 0.00
159, 99257.45, 125847.56, 23212.93, 20193.30, 10952.35, 28927.49, 101356.91, 74517.00, 0.00, 0.00, 0.00
160, 99251.78, 125841.97, 23213.92, 20190.78, 10958.70, 28922.13, 101350.83, 74512.91, 0.00, 0.00, 0.00
161, 99253.68, 125851.91, 23218.19, 20195.54, 10986.28, 28928.70, 101346.56, 74509.94, 0.00, 0.00, 0.00
162, 99235.26, 125821.32, 23198.49, 20180.52, 10969.90, 28914.01, 101324.21, 74489.24, 0.00, 0.00, 0.00
163, 99237.14, 125848.90, 23205.27, 20184.03, 10966.93, 28912.07, 101330.67, 74490.29, 0.00, 0.00, 0.00
164, 99255.11, 125871.63, 23221.07, 20203.72, 10978.84, 28927.27, 101346.72, 74502.66, 0.09, -0.20, 0.98
165, 99251.71, 125870.63, 23218.75, 20205.66, 10977.81, 28927.80, 101345.82, 74501.85, 0.00, 0.00, 0.00
166, 99248.83, 125854.31, 23216.49, 20198.18, 10977.72, 28924.81, 101354.90, 74499.73, 0.00, 0.00, 0.00
167, 99249.25, 125845.93, 23213.67, 20194.53, 10968.43, 28921.64, 101346.96, 74501.02, 0.00, 0.00, 0.00
168, 99244.89, 125834.55, 23206.72, 20186.57, 10960.40, 28919.31, 101336.08, 74497.94, 0.00, 0.00, 0.00
169, 99252.29, 125834.41, 23206.72, 20190.91, 10957.67, 28923.29, 101344.68, 74504.58, 0.00, 0.00, 0.00
170, 99252.65, 125846.84, 23206.18, 20192.03, 10958.68, 28922.17, 101340.17, 74504.64, 0.00, 0.00, 0.00
171, 99253.63, 125862.58, 23212.91, 20193.21, 10970.66, 28925.64, 101338.88, 74508.17, 0.00, 0.00, 0.00
172, 99247.17, 125875.09, 23207.03, 20181.48, 10954.77, 28914.51, 101330.91, 74498.38, 0.00, 0.00, 0.00
173, 99246.52, 125848.72, 23196.33, 20171.85, 10948.69, 28905.39, 101326.73, 74496.33, 0.08, -0.20, 0.99
174, 99259.35, 125820.80, 23204.15, 20178.57, 10952.58, 28912.76, 101337.38, 74509.00, 0.00, 0.00, 0.00
175, 99254.84, 125821.74, 23203.19, 20176.34, 10944.29, 28912.63, 101337.89, 74504.62, 0.00, 0.00, 0.00
176, 99250.37, 125835.49, 23202.74, 20177.72, 10946.34, 28915.74, 101342.83, 74501.63, 0.00, 0.00, 0.00
177, 99247.62, 125834.53, 23197.06, 20174.66, 10948.08, 28910.30, 101340.21, 74499.41, 0.00, 0.00, 0.00
178, 99252.31, 125843.65, 23200.02, 20183.31, 10948.53, 28912.34, 101335.52, 74504.64, 0.00, 0.00, 0.00
179, 99243.44, 125853.48, 23191.68, 20173.52, 10942.81, 28909.77, 101321.13, 74496.91, 0.00, 0.00, 0.00
180, 99250.80, 125869.46, 23201.91, 20181.37, 10926.18, 28907.09, 101329.53, 74503.99, 0.00, 0.00, 0.00
181, 99256.80, 125876.35, 23208.93, 20190.96, 10963.11, 28921.03, 101329.69, 74503.93, 0.00, 0.00, 0.00
182, 99250.55, 125852.41, 23201.51, 20181.84, 10965.01, 28917.55, 101324.77, 74497.13, 0.00, 0.00, 0.00
183, 99250.98, 125845.52, 23205.89, 20186.60, 10971.51, 28918.98, 101329.44, 74500.40, 0.08, -0.19, 0.99
184, 99243.06, 125848.90, 23207.12, 20188.63, 10961.85, 28914.95, 101324.45, 74495.19, 0.00, 0.00, 0.00
185, 99229.88, 125815.30, 23192.53, 20172.61, 10941.74, 28905.54, 101321.08, 74484.23, 0.00, 0.00, 0.00
186, 99237.95, 125818.73, 23196.51, 20183.98, 10952.06, 28918.11, 101326.04, 74490.98, 0.00, 0.00, 0.00
187, 99244.36, 125839.18, 23203.99, 20196.77, 10987.36, 28927.76, 101328.50, 74495.81, 0.00, 0.00, 0.00
188, 99241.48, 125855.90, 23199.81, 20195.76, 10977.37, 28923.49, 101329.93, 74495.81, 0.00, 0.00, 0.00
189, 99247.76, 125863.77, 23211.30, 20196.61, 10973.81, 28927.00, 101338.65, 74500.44, 0.00, 0.00, 0.00
190, 99242.21, 125852.12, 23206.72, 20185.05, 10976.20, 28922.80, 101319.74, 74490.96, 0.00, 0.00, 0.00
191, 99242.28, 125861.64, 23197.82, 20185.72, 10975.00, 28923.18, 101314.46, 74490.43, 0.00, 0.00, 0.00
192, 99244.06, 125829.90, 23197.62, 20188.25, 10970.33, 28925.08, 101319.31, 74492.62, 0.00, 0.00, 0.00
193, 99237.98, 125809.77, 23192.26, 20177.16, 10953.63, 28912.54, 101313.10, 74489.29, 0.08, -0.20, 0.98
194, 99228.06, 125819.48, 23182.00, 20162.73, 10933.18, 28894.12, 101307.84, 74478.09, 0.00, 0.00, 0.00
195, 99252.09, 125851.38, 23205.67, 20184.50, 10963.49, 28920.54, 101331.77, 74497.20, 0.00, 0.00, 0.00
196, 99241.85, 125826.75, 23191.52, 20168.67, 10953.09, 28909.72, 101311.71, 74486.05, 0.00, 0.00, 0.00
197, 99244.54, 125842.20, 23195.66, 20169.86, 10957.36, 28915.96, 101311.65, 74488.15, 0.00, 0.00, 0.00
198, 99246.21, 125857.33, 23195.61, 20169.21, 10953.87, 28915.60, 101314.84, 74489.96, 0.00, 0.00, 0.00
199, 99239.82, 125841.39, 23187.74, 20162.01, 10942.61, 28909.72, 101305.59, 74484.82, 0.00, 0.00, 0.00
200, 99244.24, 125832.23, 23190.20, 20168.60, 10957.85, 28919.60, 101314.28, 74491.88, 0.00, 0.00, 0.00
201, 99241.61, 125830.84, 23183.81, 20162.81, 10956.49, 28917.52, 101309.70, 74488.23, 0.00, 0.00, 0.00
202, 99239.51, 125843.22, 23185.33, 20165.70, 10950.66, 28913.12, 101303.80, 74487.90, 0.00, 0.00, 0.00
203, 99245.16, 125871.37, 23198.96, 20176.45, 10949.40, 28914.13, 101311.80, 74494.31, 0.08, -0.19, 0.98
204, 99239.24, 125869.42, 23187.81, 20164.60, 10939.23, 28906.37, 101303.73, 74485.87, 0.00, 0.00, 0.00
205, 99250.30, 125841.05, 23195.63, 20169.61, 10942.27, 28910.91, 101317.33, 74494.47, 0.00, 0.00, 0.00
206, 99238.81, 125806.16, 23187.05, 20160.22, 10924.93, 28899.55, 101307.00, 74483.23, 0.00, 0.00, 0.00
207, 99235.17, 125814.59, 23186.43, 20163.64, 10926.85, 28893.81, 101308.59, 74478.42, 0.00, 0.00, 0.00
208, 99232.96, 125828.59, 23182.20, 20165.59, 10958.48, 28898.97, 101296.47, 74479.83, 0.00, 0.00, 0.00
209, 99231.66, 125868.23, 23178.27, 20160.33, 10939.48, 28893.96, 101286.52, 74480.52, 0.00, 0.00, 0.00
210, 99238.79, 125857.51, 23184.82, 20165.90, 10980.70, 28910.08, 101305.77, 74492.08, 0.00, 0.00, 0.00
211, 99242.77, 125821.81, 23187.34, 20168.04, 10977.61, 28907.20, 101302.44, 74490.59, 0.00, 0.00, 0.00
212, 99245.85, 125832.41, 23193.76, 20168.52, 10945.87, 28899.53, 101304.72, 74491.45, 0.00, 0.00, 0.00
213, 99238.12, 125838.82, 23194.05, 20164.85, 10937.07, 28897.36, 101311.20, 74491.34, 0.08, -0.19, 0.98
214, 99226.72, 125820.54, 23184.57, 20155.91, 10959.02, 28894.84, 101304.77, 74485.17, 0.00, 0.00, 0.00
215, 99223.88, 125807.41, 23175.38, 20147.26, 10953.74, 28888.58, 101295.13, 74477.53, 0.00, 0.00, 0.00
216, 99232.00, 125827.78, 23183.41, 20159.11, 10955.71, 28897.09, 101291.35, 74485.06, 0.00, 0.00, 0.00
217, 99238.41, 125849.34, 23190.00, 20173.10, 10959.93, 28906.19, 101297.56, 74492.62, 0.00, 0.00, 0.00
218, 99233.94, 125830.51, 23179.88, 20167.06, 10946.41, 28899.87, 101295.13, 74484.62, 0.00, 0.00, 0.00
219, 99238.86, 125828.94, 23179.41, 20160.56, 10933.47, 28897.03, 101298.68, 74487.32, 0.00, 0.00, 0.00
220, 99231.04, 125825.03, 23172.46, 20149.74, 10926.78, 28888.82, 101287.84, 74481.11, 0.00, 0.00, 0.00
221, 99240.06, 125872.15, 23189.02, 20160.98, 10940.13, 28898.55, 101304.23, 74488.57, 0.00, 0.00, 0.00
222, 99245.52, 125876.55, 23195.32, 20165.12, 10947.17, 28905.41, 101318.98, 74492.39, 0.00, 0.00, 0.00
223, 99244.94, 125829.43, 23184.39, 20155.39, 10937.45, 28895.48, 101303.45, 74490.96, 0.08, -0.19, 0.98
224, 99247.15, 125824.96, 23177.80, 20153.81, 10927.59, 28888.36, 101291.76, 74491.77, 0.00, 0.00, 0.00
225, 99243.82, 125837.55, 23180.55, 20160.22, 10930.85, 28888.51, 101287.51, 74491.19, 0.00, 0.00, 0.00
226, 99240.85, 125836.61, 23180.70, 20161.45, 10931.63, 28889.47, 101287.55, 74486.54, 0.00, 0.00, 0.00
227, 99246.80, 125837.92, 23184.97, 20165.03, 10947.82, 28905.03, 101297.14, 74490.47, 0.00, 0.00, 0.00
228, 99250.37, 125843.42, 23185.26, 20169.61, 10955.89, 28913.52, 101316.45, 74496.41, 0.00, 0.00, 0.00
229, 99249.50, 125833.45, 23175.25, 20161.50, 10945.31, 28910.93, 101313.28, 74494.95, 0.00, 0.00, 0.00
230, 99250.05, 125827.76, 23168.99, 20150.07, 10928.50, 28904.45, 101307.94, 74497.06, 0.00, 0.00, 0.00
231, 99256.94, 125856.12, 23194.27, 20171.00, 10955.57, 28913.86, 101313.39, 74506.59, 0.00, 0.00, 0.00
232, 99246.19, 125857.41, 23193.20, 20167.91, 10951.04, 28902.75, 101301.74, 74496.22, 0.00, 0.00, 0.00
233, 99241.05, 125864.41, 23179.45, 20154.77, 10910.91, 28886.41, 101297.30, 74493.65, 0.08, -0.19, 0.98
234, 99245.77, 125855.18, 23180.08, 20158.17, 10922.38, 28888.36, 101300.29, 74498.83, 0.00, 0.00, 0.00
235, 99252.16, 125829.50, 23177.51, 20163.46, 10949.90, 28897.97, 101302.48, 74500.84, 0.00, 0.00, 0.00
236, 99249.92, 125832.23, 23179.07, 20168.38, 10953.76, 28902.44, 101300.25, 74496.93, 0.00, 0.00, 0.00
237, 99242.73, 125844.20, 23181.62, 20170.75, 10980.92, 28906.50, 101299.00, 74490.67, 0.00, 0.00, 0.00
238, 99236.76, 125858.89, 23177.46, 20165.65, 10961.72, 28898.19, 101293.63, 74484.23, 0.00, 0.00, 0.00
239, 99257.23, 125879.08, 23199.63, 20186.04, 10971.93, 28913.97, 101309.88, 74500.82, 0.00, 0.00, 0.00
240, 99253.84, 125868.79, 23202.54, 20185.61, 10970.44, 28914.17, 101311.71, 74497.60, 0.00, 0.00, 0.00
241, 99247.82, 125869.69, 23201.18, 20181.70, 10966.50, 28911.44, 101308.14, 74495.92, 0.00, 0.00, 0.00
242, 99242.73, 125856.84, 23193.64, 20176.99, 10956.65, 28905.97, 101309.39, 74491.73, 0.00, 0.00, 0.00
243, 99241.77, 125853.86, 23188.46, 20177.14, 10954.19, 28906.01, 101294.59, 74489.02, 0.08, -0.20, 0.98
244, 99242.01, 125848.23, 23189.02, 20175.33, 10945.16, 28900.67, 101282.68, 74490.92, 0.00, 0.00, 0.00
245, 99235.02, 125848.12, 23187.79, 20166.06, 10943.28, 28898.26, 101280.94, 74484.57, 0.00, 0.00, 0.00
246, 99250.33, 125865.82, 23200.84, 20179.78, 10957.00, 28914.53, 101312.59, 74499.23, 0.00, 0.00, 0.00
247, 99252.70, 125862.36, 23200.35, 20184.61, 10956.40, 28918.11, 101313.95, 74501.18, 0.00, 0.00, 0.00
248, 99247.06, 125897.41, 23198.05, 20173.81, 10943.39, 28910.01, 101304.56, 74499.77, 0.00, 0.00, 0.00
249, 99244.18, 125892.02, 23191.21, 20172.18, 10941.71, 28906.82, 101302.77, 74500.73, 0.00, 0.00, 0.00
250, 99246.41, 125857.95, 23196.51, 20180.14, 10943.46, 28911.04, 101307.73, 74501.40, 0.00, 0.00, 0.00
251, 99247.46, 125848.59, 23191.97, 20181.99, 10941.11, 28911.44, 101310.69, 74497.98, 0.00, 0.00, 0.00
252, 99241.14, 125827.30, 23181.64, 20179.15, 10937.24, 28902.57, 101311.47, 74490.88, 0.00, 0.00, 0.00
253, 99243.66, 125843.22, 23184.75, 20177.43, 10934.79, 28898.86, 101300.36, 74491.01, 0.08, -0.20, 0.98
254, 99249.01, 125866.70, 23196.73, 20184.88, 10964.71, 28910.28, 101303.27, 74500.95, 0.00, 0.00, 0.00
255, 99236.38, 125858.49, 23190.27, 20178.89, 10951.64, 28900.25, 101292.13, 74492.44, 0.00, 0.00, 0.00
0, 99242.21, 125884.66, 23198.00, 20192.16, 10971.13, 28919.87, 101298.08, 74494.77, 0.00, 0.00, 0.00
1, 99252.13, 125893.73, 23198.83, 20191.18, 10964.27, 28917.72, 101299.13, 74495.41, 0.00, 0.00, 0.00
2, 99258.59, 125843.54, 23186.56, 20178.77, 10949.07, 28906.04, 101294.39, 74500.73, 0.00, 0.00, 0.00
3, 99246.05, 125860.27, 23188.46, 20179.02, 10949.31, 28906.53, 101300.18, 74499.14, 0.00, 0.00, 0.00
4, 99239.87, 125879.16, 23205.29, 20196.61, 10973.01, 28922.96, 101316.95, 74496.55, 0.00, 0.00, 0.00
5, 99242.93, 125871.77, 23198.99, 20191.40, 10971.00, 28915.78, 101306.80, 74497.36, 0.00, 0.00, 0.00
6, 99247.60, 125847.80, 23191.61, 20190.31, 10957.81, 28907.09, 101293.52, 74501.45, 0.00, 0.00, 0.00
7, 99242.55, 125857.84, 23191.63, 20195.63, 10935.34, 28909.86, 101293.01, 74491.79, 0.08, -0.20, 0.98
8, 99236.34, 125872.41, 23194.43, 20197.57, 10958.68, 28914.42, 101299.96, 74489.66, 0.00, 0.00, 0.00
9, 99228.13, 125878.43, 23199.23, 20199.36, 10995.05, 28918.22, 101299.42, 74485.06, 0.00, 0.00, 0.00
10, 99236.22, 125880.48, 23208.51, 20211.18, 10998.31, 28931.78, 101316.84, 74491.68, 0.00, 0.00, 0.00
11, 99238.81, 125880.91, 23202.18, 20205.26, 10993.57, 28928.10, 101317.84, 74495.75, 0.00, 0.00, 0.00
12, 99239.87, 125874.78, 23195.21, 20193.68, 10973.88, 28921.46, 101307.58, 74495.32, 0.00, 0.00, 0.00
13, 99244.31, 125868.28, 23193.96, 20196.16, 10966.46, 28922.51, 101312.03, 74497.83, 0.00, 0.00, 0.00
14, 99242.75, 125847.38, 23191.52, 20196.46, 10962.61, 28918.17, 101314.73, 74500.55, 0.00, 0.00, 0.00
15, 99243.58, 125851.31, 23195.10, 20195.13, 10963.02, 28917.08, 101307.34, 74499.70, 0.00, 0.00, 0.00
16, 99245.09, 125883.32, 23199.25, 20196.12, 10958.08, 28916.12, 101309.52, 74500.13, 0.00, 0.00, 0.00
17, 99241.67, 125891.39, 23190.83, 20191.18, 10945.04, 28909.07, 101312.36, 74493.73, 0.08, -0.20, 0.98
18, 99242.39, 125879.74, 23185.98, 20185.03, 10936.69, 28903.89, 101302.38, 74494.65, 0.00, 0.00, 0.00
19, 99249.41, 125867.67, 23192.21, 20186.62, 10927.34, 28904.80, 101295.98, 74500.73, 0.00, 0.00, 0.00
20, 99238.30, 125886.20, 23186.27, 20182.48, 10934.16, 28899.91, 101290.48, 74489.40, 0.00, 0.00, 0.00
21, 99241.36, 125890.63, 23194.61, 20187.63, 10939.57, 28904.85, 101304.05, 74498.90, 0.00, 0.00, 0.00
22, 99241.97, 125870.91, 23199.50, 20195.47, 10943.44, 28911.06, 101308.32, 74499.44, 0.00, 0.00, 0.00
23, 99241.90, 125872.84, 23198.61, 20201.97, 10948.84, 28911.04, 101294.77, 74498.27, 0.00, 0.00, 0.00
24, 99234.79, 125849.21, 23189.98, 20203.23, 10967.24, 28922.11, 101295.73, 74497.11, 0.00, 0.00, 0.00
25, 99243.77, 125853.84, 23194.83, 20217.46, 10976.32, 28930.33, 101313.01, 74504.13, 0.00, 0.00, 0.00
26, 99248.91, 125882.63, 23204.20, 20223.79, 10968.92, 28927.67, 101316.97, 74505.91, 0.00, 0.00, 0.00
27, 99239.87, 125890.66, 23196.30, 20209.93, 10963.87, 28921.28, 101315.09, 74492.95, 0.08, -0.20, 0.99
28, 99237.67, 125884.93, 23194.79, 20210.51, 10971.06, 28922.98, 101318.24, 74490.36, 0.00, 0.00, 0.00
29, 99252.23, 125882.63, 23206.65, 20224.28, 10979.36, 28932.95, 101318.17, 74508.94, 0.00, 0.00, 0.00
30, 99246.73, 125884.59, 23206.45, 20228.24, 10975.09, 28928.83, 101293.54, 74505.49, 0.00, 0.00, 0.00
31, 99241.98, 125881.94, 23198.63, 20219.90, 10982.08, 28924.41, 101298.20, 74497.65, 0.00, 0.00, 0.00
32, 99232.87, 125864.55, 23185.17, 20208.14, 10974.86, 28917.70, 101306.57, 74487.86, 0.00, 0.00, 0.00
33, 99247.45, 125884.62, 23202.18, 20231.21, 10981.59, 28933.42, 101333.58, 74500.40, 0.00, 0.00, 0.00
34, 99242.66, 125895.44, 23199.54, 20226.47, 10981.03, 28925.95, 101328.95, 74495.59, 0.00, 0.00, 0.00
35, 99248.91, 125894.81, 23200.82, 20230.29, 10985.55, 28930.51, 101338.24, 74497.55, 0.00, 0.00, 0.00
36, 99255.13, 125905.12, 23201.85, 20233.16, 10992.43, 28934.31, 101345.78, 74499.93, 0.00, 0.00, 0.00
37, 99243.06, 125873.82, 23189.00, 20218.58, 10969.21, 28917.75, 101335.50, 74489.00, 0.09, -0.20, 0.98
38, 99252.88, 125865.26, 23196.19, 20226.23, 10964.16, 28921.90, 101351.86, 74501.24, 0.00, 0.00, 0.00
39, 99252.98, 125889.11, 23201.00, 20222.94, 10952.67, 28917.55, 101349.69, 74502.63, 0.00, 0.00, 0.00
40, 99246.34, 125894.66, 23199.50, 20219.46, 10949.85, 28915.91, 101353.53, 74497.45, 0.00, 0.00, 0.00
41, 99243.27, 125881.29, 23191.65, 20217.78, 10944.78, 28909.01, 101348.91, 74496.66, 0.00, 0.00, 0.00
42, 99247.27, 125891.10, 23189.02, 20217.89, 10959.57, 28912.29, 101344.15, 74499.75, 0.00, 0.00, 0.00
43, 99237.30, 125874.13, 23184.19, 20209.33, 10944.60, 28903.55, 101347.79, 74491.19, 0.00, 0.00, 0.00
44, 99237.14, 125872.30, 23186.71, 20208.64, 10942.01, 28903.13, 101351.97, 74494.00, 0.00, 0.00, 0.00
45, 99256.36, 125900.47, 23200.02, 20223.68, 10966.23, 28922.04, 101362.52, 74511.86, 0.00, 0.00, 0.00
46, 99253.99, 125897.29, 23203.81, 20225.51, 10969.21, 28923.45, 101363.93, 74505.38, 0.00, 0.00, 0.00
47, 99241.34, 125876.84, 23187.47, 20216.82, 10948.51, 28907.49, 101351.48, 74495.37, 0.08, -0.19, 0.98
48, 99244.24, 125874.58, 23191.19, 20224.26, 10946.39, 28905.74, 101353.22, 74497.20, 0.00, 0.00, 0.00
49, 99245.66, 125881.27, 23193.69, 20227.23, 10949.38, 28907.11, 101368.82, 74497.42, 0.00, 0.00, 0.00
50, 99240.65, 125909.88, 23193.80, 20226.83, 10952.91, 28908.61, 101373.96, 74497.49, 0.00, 0.00, 0.00
51, 99232.09, 125928.90, 23191.65, 20226.65, 10945.27, 28899.96, 101342.41, 74486.36, 0.00, 0.00, 0.00
52, 99229.20, 125873.35, 23179.50, 20220.91, 10934.79, 28895.42, 101347.59, 74482.18, 0.00, 0.00, 0.00
53, 99234.73, 125884.88, 23182.80, 20230.74, 10949.99, 28907.69, 101358.20, 74490.56, 0.00, 0.00, 0.00
54, 99244.85, 125869.55, 23195.68, 20243.10, 10965.72, 28920.83, 101377.09, 74497.71, 0.00, 0.00, 0.00
55, 99238.63, 125867.20, 23192.19, 20236.46, 10960.00, 28909.16, 101361.18, 74488.20, 0.00, 0.00, 0.00
56, 99237.20, 125892.76, 23194.47, 20238.23, 10949.20, 28902.55, 101355.01, 74488.59, 0.00, 0.00, 0.00
57, 99237.27, 125897.38, 23191.34, 20236.24, 10937.45, 28896.54, 101359.86, 74487.68, 0.09, -0.19, 0.98
58, 99237.92, 125885.84, 23185.62, 20233.00, 10961.36, 28899.33, 101355.52, 74490.49, 0.00, 0.00, 0.00
59, 99230.99, 125881.51, 23175.83, 20225.06, 10961.16, 28903.62, 101351.34, 74485.30, 0.00, 0.00, 0.00
60, 99229.67, 125878.34, 23178.71, 20233.78, 10958.61, 28906.06, 101358.34, 74480.13, 0.00, 0.00, 0.00
61, 99235.80, 125895.33, 23186.65, 20243.50, 10963.22, 28914.53, 101374.08, 74486.80, 0.00, 0.00, 0.00
62, 99233.77, 125887.41, 23182.51, 20229.87, 10937.87, 28911.20, 101378.23, 74483.19, 0.00, 0.00, 0.00
63, 99235.51, 125881.29, 23181.71, 20229.87, 10932.08, 28908.25, 101381.90, 74485.20, 0.00, 0.00, 0.00
64, 99248.47, 125890.56, 23184.37, 20236.58, 10977.61, 28916.23, 101399.53, 74496.75, 0.00, 0.00, 0.00
65, 99245.23, 125888.02, 23183.23, 20237.92, 10974.88, 28909.99, 101403.09, 74494.30, 0.00, 0.00, 0.00
66, 99228.84, 125882.78, 23174.49, 20225.13, 10944.82, 28893.56, 101388.34, 74482.07, 0.00, 0.00, 0.00
67, 99225.11, 125892.98, 23173.88, 20219.52, 10927.86, 28883.91, 101399.60, 74478.89, 0.08, -0.19, 0.98
68, 99239.15, 125911.80, 23188.26, 20230.41, 10938.70, 28896.69, 101431.30, 74489.48, 0.00, 0.00, 0.00
69, 99232.11, 125900.09, 23181.17, 20226.58, 10943.77, 28894.68, 101397.55, 74481.62, 0.00, 0.00, 0.00
70, 99226.97, 125906.03, 23171.61, 20220.26, 10946.34, 28893.90, 101397.16, 74476.41, 0.00, 0.00, 0.00
71, 99223.73, 125870.91, 23166.82, 20216.93, 10936.89, 28891.57, 101407.27, 74474.73, 0.00, 0.00, 0.00
72, 99233.16, 125879.73, 23177.60, 20232.35, 10937.04, 28897.54, 101420.99, 74485.60, 0.00, 0.00, 0.00
73, 99226.07, 125900.02, 23173.91, 20225.80, 10924.15, 28889.61, 101411.18, 74477.10, 0.00, 0.00, 0.00
74, 99230.16, 125896.48, 23175.99, 20228.39, 10926.34, 28894.97, 101414.09, 74479.01, 0.00, 0.00, 0.00
75, 99225.83, 125893.36, 23179.09, 20229.80, 10937.13, 28891.37, 101417.59, 74472.63, 0.00, 0.00, 0.00
76, 99223.28, 125876.59, 23176.79, 20227.75, 10930.76, 28884.69, 101421.71, 74468.81, 0.00, 0.00, 0.00
77, 99218.74, 125865.71, 23172.72, 20225.24, 10926.25, 28883.35, 101415.65, 74465.80, 0.08, -0.20, 0.98
78, 99225.76, 125886.77, 23178.96, 20233.98, 10929.96, 28891.28, 101427.32, 74473.73, 0.00, 0.00, 0.00
79, 99226.45, 125902.03, 23179.59, 20236.17, 10944.73, 28895.80, 101430.94, 74472.12, 0.00, 0.00, 0.00
80, 99227.05, 125905.70, 23181.91, 20241.05, 10958.30, 28904.49, 101430.29, 74472.57, 0.00, 0.00, 0.00
81, 99227.41, 125890.98, 23179.96, 20245.29, 10957.96, 28905.81, 101439.01, 74474.69, 0.00, 0.00, 0.00
82, 99215.70, 125877.89, 23166.64, 20237.18, 10942.90, 28891.75, 101444.87, 74461.02, 0.00, 0.00, 0.00
83, 99225.25, 125889.96, 23177.10, 20242.21, 10945.00, 28899.08, 101461.43, 74470.38, 0.00, 0.00, 0.00
84, 99211.55, 125887.52, 23172.70, 20235.57, 10934.34, 28888.42, 101421.91, 74454.98, 0.00, 0.00, 0.00
85, 99209.29, 125874.09, 23159.94, 20229.38, 10926.65, 28879.03, 101417.77, 74450.35, 0.00, 0.00, 0.00
86, 99223.19, 125892.66, 23171.74, 20241.61, 10953.76, 28890.90, 101436.03, 74463.49, 0.00, 0.00, 0.00
87, 99226.12, 125932.23, 23170.85, 20238.61, 10938.63, 28891.39, 101456.84, 74471.79, 0.08, -0.19, 0.98
88, 99221.27, 125893.23, 23159.83, 20232.24, 10916.23, 28885.61, 101463.13, 74470.76, 0.00, 0.00, 0.00
89, 99219.68, 125858.00, 23153.79, 20233.54, 10936.78, 28889.16, 101465.09, 74468.84, 0.00, 0.00, 0.00
90, 99222.30, 125868.88, 23154.39, 20243.77, 10947.35, 28891.73, 101461.96, 74473.33, 0.00, 0.00, 0.00
91, 99217.87, 125869.59, 23159.85, 20237.25, 10936.35, 28884.13, 101450.77, 74471.34, 0.00, 0.00, 0.00
92, 99224.15, 125895.28, 23176.48, 20238.30, 10927.86, 28883.06, 101456.55, 74470.96, 0.00, 0.00, 0.00
93, 99230.03, 125910.66, 23177.82, 20238.52, 10924.95, 28878.56, 101448.57, 74471.49, 0.00, 0.00, 0.00
94, 99227.75, 125895.48, 23165.26, 20229.80, 10911.65, 28867.59, 101450.12, 74465.98, 0.00, 0.00, 0.00
95, 99221.96, 125891.16, 23166.38, 20231.03, 10917.06, 28869.04, 101456.51, 74461.70, 0.00, 0.00, 0.00
96, 99218.23, 125905.43, 23165.64, 20232.24, 10916.57, 28871.59, 101456.17, 74460.34, 0.00, 0.00, 0.00
97, 99207.95, 125883.19, 23152.79, 20224.69, 10899.29, 28861.29, 101450.56, 74450.38, 0.08, -0.19, 0.98
98, 99222.88, 125873.17, 23161.35, 20236.13, 10914.11, 28879.64, 101468.22, 74465.70, 0.00, 0.00, 0.00
99, 99222.16, 125884.10, 23168.54, 20242.50, 10922.45, 28882.70, 101474.41, 74464.70, 0.00, 0.00, 0.00
100, 99211.70, 125888.51, 23162.55, 20241.11, 10928.30, 28873.51, 101468.60, 74453.91, 0.00, 0.00, 0.00
101, 99208.39, 125887.66, 23164.86, 20243.04, 10926.36, 28872.69, 101458.79, 74451.40, 0.00, 0.00, 0.00
102, 99217.38, 125907.48, 23177.62, 20255.06, 10929.78, 28878.97, 101466.61, 74460.66, 0.00, 0.00, 0.00
103, 99220.13, 125909.32, 23174.15, 20254.46, 10927.32, 28873.60, 101451.41, 74460.88, 0.00, 0.00, 0.00
104, 99216.80, 125894.56, 23164.10, 20248.89, 10930.52, 28877.54, 101454.72, 74460.12, 0.00, 0.00, 0.00
105, 99219.41, 125911.55, 23163.11, 20252.38, 10928.13, 28876.49, 101469.41, 74458.82, 0.00, 0.00, 0.00
106, 99226.72, 125912.49, 23169.44, 20258.26, 10938.18, 28885.00, 101481.38, 74466.35, 0.00, 0.00, 0.00
107, 99225.56, 125903.77, 23172.61, 20254.77, 10913.15, 28881.94, 101485.05, 74464.19, 0.07, -0.20, 0.98
108, 99224.06, 125891.70, 23165.50, 20252.83, 10923.27, 28879.17, 101481.25, 74461.66, 0.00, 0.00, 0.00
109, 99212.06, 125870.49, 23149.12, 20240.38, 10935.75, 28870.70, 101466.27, 74447.84, 0.00, 0.00, 0.00
110, 99214.09, 125889.89, 23162.20, 20256.69, 10938.72, 28879.84, 101478.19, 74455.96, 0.00, 0.00, 0.00
111, 99220.48, 125896.73, 23166.55, 20262.37, 10938.85, 28884.91, 101490.80, 74464.32, 0.00, 0.00, 0.00
112, 99216.20, 125899.05, 23160.50, 20251.33, 10932.33, 28873.20, 101473.38, 74456.14, 0.00, 0.00, 0.00
113, 99211.70, 125906.50, 23161.41, 20247.60, 10913.26, 28866.67, 101475.91, 74451.63, 0.00, 0.00, 0.00
114, 99221.80, 125916.89, 23171.58, 20257.54, 10929.89, 28876.08, 101496.88, 74463.74, 0.00, 0.00, 0.00
115, 99220.09, 125920.41, 23164.79, 20253.99, 10929.38, 28876.82, 101497.48, 74460.66, 0.00, 0.00, 0.00
116, 99219.52, 125912.36, 23165.08, 20251.60, 10922.43, 28875.41, 101499.02, 74460.54, 0.00, 0.00, 0.00
117, 99223.13, 125908.67, 23162.98, 20252.71, 10911.21, 28876.69, 101512.41, 74464.95, 0.07, -0.19, 0.98
118, 99220.71, 125898.77, 23156.72, 20248.31, 10903.58, 28872.22, 101507.09, 74463.34, 0.00, 0.00, 0.00
119, 99226.74, 125905.34, 23158.71, 20252.71, 10926.14, 28879.55, 101492.52, 74467.31, 0.00, 0.00, 0.00
120, 99226.56, 125912.65, 23160.52, 20251.08, 10920.46, 28877.58, 101497.81, 74464.79, 0.00, 0.00, 0.00
121, 99220.75, 125894.85, 23163.47, 20251.51, 10910.47, 28870.59, 101487.65, 74461.68, 0.00, 0.00, 0.00
122, 99227.34, 125907.84, 23171.79, 20263.33, 10914.96, 28871.84, 101500.81, 74469.05, 0.00, 0.00, 0.00
123, 99226.63, 125908.47, 23161.70, 20258.21, 10915.36, 28873.00, 101511.63, 74464.79, 0.00, 0.00, 0.00
124, 99233.78, 125912.20, 23166.24, 20266.91, 10920.01, 28885.25, 101522.09, 74470.51, 0.00, 0.00, 0.00
125, 99229.74, 125922.03, 23168.61, 20265.41, 10917.96, 28880.87, 101512.73, 74472.37, 0.00, 0.00, 0.00
126, 99231.80, 125909.36, 23169.71, 20259.58, 10927.48, 28879.55, 101517.51, 74485.13, 0.00, 0.00, 0.00
127, 99231.37, 125903.13, 23165.37, 20259.31, 10916.73, 28875.75, 101517.53, 74481.30, 0.08, -0.19, 0.98
128, 99213.42, 125909.02, 23164.19, 20269.41, 10918.00, 28874.70, 101505.52, 74453.08, 0.00, 0.00, 0.00
129, 99219.81, 125920.09, 23169.68, 20277.19, 10925.20, 28882.59, 101509.46, 74458.98, 0.00, 0.00, 0.00
130, 99233.54, 125921.68, 23170.04, 20274.84, 10931.34, 28886.16, 101517.20, 74467.05, 0.00, 0.00, 0.00
131, 99228.42, 125920.20, 23159.42, 20262.28, 10931.12, 28875.32, 101504.72, 74456.84, 0.00, 0.00, 0.00
132, 99238.50, 125955.38, 23175.25, 20271.94, 10931.10, 28883.08, 101527.61, 74472.84, 0.00, 0.00, 0.00
133, 99236.51, 125956.32, 23177.22, 20271.06, 10928.62, 28879.35, 101541.83, 74470.83, 0.00, 0.00, 0.00
134, 99229.65, 125903.05, 23173.80, 20263.82, 10937.11, 28884.02, 101524.91, 74463.67, 0.00, 0.00, 0.00
135, 99234.52, 125920.41, 23177.24, 20271.51, 10943.95, 28887.39, 101527.19, 74466.47, 0.00, 0.00, 0.00
136, 99237.56, 125938.87, 23184.50, 20280.16, 10942.54, 28884.62, 101521.69, 74469.55, 0.00, 0.00, 0.00
137, 99226.19, 125919.35, 23172.07, 20269.52, 10920.48, 28865.11, 101515.90, 74455.31, 0.08, -0.19, 0.98
138, 99226.90, 125916.76, 23172.01, 20268.05, 10917.93, 28869.80, 101524.05, 74457.44, 0.00, 0.00, 0.00
139, 99240.00, 125930.44, 23183.25, 20277.23, 10943.62, 28891.35, 101541.94, 74474.09, 0.00, 0.00, 0.00
140, 99241.18, 125932.54, 23180.77, 20277.81, 10947.10, 28893.45, 101532.77, 74473.40, 0.00, 0.00, 0.00
141, 99243.28, 125939.42, 23174.89, 20274.57, 10933.42, 28891.10, 101532.37, 74474.49, 0.00, 0.00, 0.00
142, 99254.37, 125945.57, 23181.22, 20272.96, 10927.92, 28889.85, 101538.65, 74483.41, 0.00, 0.00, 0.00
143, 99250.10, 125933.84, 23176.57, 20265.95, 10923.10, 28882.54, 101535.61, 74478.52, 0.00, 0.00, 0.00
144, 99240.02, 125928.90, 23171.47, 20267.98, 10921.91, 28880.58, 101535.14, 74474.87, 0.00, 0.00, 0.00
145, 99243.04, 125931.29, 23172.37, 20273.01, 10927.95, 28883.44, 101539.37, 74475.88, 0.00, 0.00, 0.00
146, 99252.31, 125941.10, 23178.71, 20276.43, 10928.26, 28886.70, 101544.59, 74482.91, 0.00, 0.00, 0.00
147, 99246.50, 125946.24, 23182.02, 20273.54, 10922.87, 28883.68, 101547.62, 74476.75, 0.09, -0.19, 0.98
148, 99245.90, 125950.02, 23183.74, 20279.25, 10919.81, 28887.13, 101549.42, 74474.84, 0.00, 0.00, 0.00
149, 99241.72, 125940.01, 23180.17, 20282.26, 10921.29, 28883.53, 101539.16, 74470.53, 0.00, 0.00, 0.00
150, 99237.02, 125937.62, 23177.60, 20286.08, 10936.02, 28885.45, 101552.48, 74467.88, 0.00, 0.00, 0.00
151, 99233.77, 125926.02, 23180.21, 20288.25, 10915.16, 28877.20, 101541.60, 74465.70, 0.00, 0.00, 0.00
152, 99232.00, 125928.38, 23181.62, 20285.15, 10913.64, 28873.49, 101528.82, 74463.20, 0.00, 0.00, 0.00
153, 99240.71, 125950.96, 23190.27, 20296.08, 10945.43, 28888.09, 101548.89, 74469.23, 0.00, 0.00, 0.00
154, 99240.00, 125958.47, 23195.66, 20300.26, 10964.09, 28889.81, 101547.08, 74468.50, 0.00, 0.00, 0.00
155, 99234.26, 125939.00, 23191.70, 20291.83, 10955.62, 28887.91, 101542.81, 74465.75, 0.00, 0.00, 0.00
156, 99226.38, 125922.91, 23182.07, 20278.51, 10945.07, 28883.46, 101540.95, 74456.97, 0.00, 0.00, 0.00
157, 99225.83, 125923.89, 23184.37, 20288.46, 10936.60, 28881.43, 101534.83, 74456.36, 0.09, -0.20, 0.98
158, 99234.39, 125939.96, 23186.71, 20296.57, 10925.82, 28880.67, 101540.40, 74466.31, 0.00, 0.00, 0.00
159, 99237.56, 125949.69, 23183.63, 20294.20, 10936.93, 28883.55, 101549.96, 74466.11, 0.00, 0.00, 0.00
160, 99244.05, 125934.77, 23180.68, 20291.94, 10950.37, 28891.57, 101545.83, 74468.63, 0.00, 0.00, 0.00
161, 99247.33, 125929.99, 23183.79, 20291.31, 10951.15, 28887.19, 101546.09, 74474.76, 0.00, 0.00, 0.00
162, 99249.48, 125947.23, 23189.24, 20296.10, 10942.16, 28886.25, 101550.21, 74477.28, 0.00, 0.00, 0.00
163, 99238.39, 125945.28, 23191.03, 20290.09, 10920.59, 28876.08, 101541.70, 74466.16, 0.00, 0.00, 0.00
164, 99239.59, 125936.56, 23188.84, 20288.52, 10931.14, 28874.94, 101546.84, 74467.27, 0.00, 0.00, 0.00
165, 99246.59, 125946.58, 23196.33, 20297.84, 10950.03, 28887.04, 101560.09, 74475.41, 0.00, 0.00, 0.00
166, 99241.05, 125941.64, 23192.91, 20297.37, 10942.39, 28885.65, 101558.37, 74470.71, 0.00, 0.00, 0.00
167, 99247.09, 125944.19, 23189.69, 20293.57, 10929.80, 28883.21, 101551.44, 74471.79, 0.09, -0.20, 0.98
168, 99252.67, 125942.53, 23185.49, 20291.45, 10927.66, 28885.02, 101546.95, 74472.68, 0.00, 0.00, 0.00
169, 99248.13, 125944.48, 23185.13, 20293.26, 10936.02, 28886.19, 101550.38, 74471.36, 0.00, 0.00, 0.00
170, 99248.20, 125955.52, 23189.58, 20302.16, 10951.88, 28893.90, 101566.34, 74477.89, 0.00, 0.00, 0.00
171, 99255.22, 125948.95, 23191.97, 20303.74, 10954.19, 28900.45, 101567.69, 74483.21, 0.00, 0.00, 0.00
172, 99252.29, 125947.92, 23189.49, 20302.74, 10943.88, 28897.34, 101549.91, 74476.45, 0.00, 0.00, 0.00
173, 99254.17, 125965.51, 23196.15, 20302.22, 10939.32, 28898.97, 101565.45, 74476.23, 0.00, 0.00, 0.00
174, 99260.20, 125951.72, 23198.16, 20310.22, 10945.74, 28903.15, 101563.71, 74481.84, 0.00, 0.00, 0.00
175, 99256.65, 125952.14, 23194.05, 20304.46, 10950.25, 28906.95, 101561.88, 74482.34, 0.00, 0.00, 0.00
176, 99254.75, 125952.57, 23184.88, 20295.16, 10930.45, 28899.69, 101560.71, 74478.29, 0.00, 0.00, 0.00
177, 99248.00, 125938.02, 23182.96, 20287.74, 10891.96, 28881.47, 101549.72, 74467.61, 0.09, -0.20, 0.98
178, 99247.80, 125941.01, 23190.16, 20290.98, 10924.39, 28885.56, 101555.13, 74472.23, 0.00, 0.00, 0.00
179, 99247.09, 125945.75, 23187.36, 20293.06, 10954.95, 28888.44, 101558.91, 74472.81, 0.00, 0.00, 0.00
180, 99248.36, 125940.03, 23184.84, 20293.93, 10947.50, 28887.04, 101557.54, 74471.72, 0.00, 0.00, 0.00
181, 99253.72, 125956.13, 23196.71, 20313.13, 10968.58, 28903.84, 101558.27, 74477.64, 0.00, 0.00, 0.00
182, 99257.95, 125968.66, 23206.12, 20321.80, 10961.32, 28904.00, 101559.95, 74476.81, 0.00, 0.00, 0.00
183, 99254.02, 125974.30, 23208.84, 20321.69, 10956.87, 28899.75, 101560.02, 74474.87, 0.00, 0.00, 0.00
184, 99246.57, 125958.73, 23200.62, 20317.51, 10965.23, 28898.84, 101557.34, 74468.16, 0.00, 0.00, 0.00
185, 99249.41, 125944.48, 23200.80, 20322.14, 10966.97, 28905.68, 101565.54, 74471.30, 0.00, 0.00, 0.00
186, 99254.88, 125953.33, 23198.27, 20315.34, 10955.39, 28902.26, 101559.95, 74474.29, 0.00, 0.00, 0.00
187, 99254.68, 125965.30, 23202.25, 20308.15, 10948.67, 28901.61, 101558.05, 74475.92, 0.09, -0.20, 0.98
188, 99251.09, 125951.20, 23205.09, 20320.06, 10960.38, 28905.59, 101567.20, 74473.13, 0.00, 0.00, 0.00
189, 99246.91, 125945.52, 23210.19, 20328.29, 10955.33, 28903.80, 101566.77, 74471.54, 0.00, 0.00, 0.00
190, 99246.70, 125948.88, 23208.38, 20325.33, 10958.01, 28903.80, 101575.53, 74471.56, 0.00, 0.00, 0.00
191, 99248.60, 125963.88, 23207.77, 20323.39, 10959.26, 28904.22, 101557.23, 74473.53, 0.00, 0.00, 0.00
192, 99245.05, 125965.91, 23208.35, 20323.57, 10947.75, 28898.70, 101561.05, 74475.52, 0.00, 0.00, 0.00
193, 99246.39, 125956.88, 23204.60, 20319.72, 10946.07, 28897.81, 101559.98, 74472.55, 0.00, 0.00, 0.00
194, 99252.18, 125965.55, 23201.58, 20319.32, 10951.15, 28901.50, 101561.88, 74474.52, 0.00, 0.00, 0.00
195, 99249.48, 125962.47, 23200.39, 20317.60, 10953.32, 28901.14, 101565.61, 74470.69, 0.00, 0.00, 0.00
196, 99252.02, 125969.64, 23211.68, 20321.15, 10950.07, 28899.58, 101566.70, 74469.70, 0.00, 0.00, 0.00
197, 99242.48, 125963.79, 23207.82, 20314.85, 10932.33, 28888.04, 101554.45, 74466.45, 0.08, -0.20, 0.98
198, 99243.44, 125954.83, 23200.82, 20319.99, 10933.76, 28890.54, 101556.58, 74471.79, 0.00, 0.00, 0.00
199, 99245.50, 125950.65, 23207.95, 20323.19, 10951.46, 28899.06, 101561.36, 74467.72, 0.00, 0.00, 0.00
200, 99239.26, 125954.06, 23212.89, 20324.24, 10948.20, 28899.98, 101564.00, 74462.66, 0.00, 0.00, 0.00
201, 99235.62, 125960.99, 23215.10, 20323.03, 10959.93, 28901.79, 101565.23, 74461.55, 0.00, 0.00, 0.00
202, 99236.80, 125972.55, 23212.15, 20319.97, 10934.67, 28895.19, 101566.81, 74461.46, 0.00, 0.00, 0.00
203, 99245.38, 125969.69, 23210.86, 20319.23, 10935.05, 28896.13, 101569.25, 74461.57, 0.00, 0.00, 0.00
204, 99246.91, 125967.52, 23213.47, 20319.95, 10954.88, 28901.54, 101573.95, 74463.56, 0.00, 0.00, 0.00
205, 99246.75, 125965.02, 23215.41, 20328.38, 10972.31, 28910.10, 101575.22, 74466.60, 0.00, 0.00, 0.00
206, 99241.92, 125946.63, 23210.79, 20329.20, 10970.82, 28908.27, 101569.05, 74463.07, 0.00, 0.00, 0.00
207, 99242.84, 125944.61, 23214.01, 20328.89, 10962.41, 28905.81, 101570.95, 74461.95, 0.08, -0.20, 0.98
208, 99242.97, 125949.26, 23220.24, 20322.70, 10950.59, 28898.26, 101570.44, 74459.47, 0.00, 0.00, 0.00
209, 99240.02, 125955.00, 23215.33, 20322.23, 10964.07, 28896.07, 101564.29, 74458.09, 0.00, 0.00, 0.00
210, 99240.02, 125962.38, 23219.64, 20329.65, 10968.81, 28898.59, 101563.46, 74459.02, 0.00, 0.00, 0.00
211, 99224.53, 125959.32, 23210.74, 20323.19, 10945.69, 28888.67, 101554.32, 74449.19, 0.00, 0.00, 0.00
212, 99239.35, 125970.80, 23214.32, 20325.18, 10946.54, 28894.19, 101569.90, 74456.84, 0.00, 0.00, 0.00
213, 99242.21, 125970.76, 23217.14, 20326.25, 10947.53, 28893.67, 101580.38, 74455.76, 0.00, 0.00, 0.00
214, 99233.94, 125961.42, 23211.08, 20316.64, 10944.02, 28886.59, 101577.92, 74454.02, 0.00, 0.00, 0.00
215, 99238.88, 125958.09, 23211.57, 20317.24, 10942.43, 28886.14, 101566.75, 74455.47, 0.00, 0.00, 0.00
216, 99241.20, 125952.27, 23213.76, 20315.46, 10942.32, 28887.28, 101560.94, 74453.99, 0.00, 0.00, 0.00
217, 99239.44, 125964.95, 23220.58, 20316.13, 10935.64, 28886.57, 101576.18, 74457.19, 0.08, -0.20, 0.98
218, 99247.33, 125974.83, 23224.71, 20324.96, 10934.90, 28886.90, 101556.13, 74455.29, 0.00, 0.00, 0.00
219, 99246.62, 125975.68, 23227.02, 20325.54, 10931.21, 28883.48, 101550.59, 74448.67, 0.00, 0.00, 0.00
220, 99234.95, 125972.70, 23227.66, 20323.10, 10932.35, 28883.82, 101554.45, 74448.47, 0.00, 0.00, 0.00
221, 99231.75, 125974.31, 23228.22, 20324.02, 10925.24, 28887.42, 101557.74, 74448.36, 0.00, 0.00, 0.00
222, 99243.71, 125987.30, 23233.05, 20325.98, 10925.73, 28889.72, 101561.88, 74449.55, 0.00, 0.00, 0.00
223, 99246.37, 126003.02, 23238.62, 20328.66, 10941.33, 28891.57, 101562.59, 74450.77, 0.00, 0.00, 0.00
224, 99234.16, 125981.11, 23225.96, 20317.94, 10932.91, 28881.09, 101553.83, 74439.78, 0.00, 0.00, 0.00
225, 99234.61, 125958.87, 23227.69, 20323.95, 10933.69, 28885.52, 101557.70, 74443.69, 0.00, 0.00, 0.00
226, 99236.47, 125955.65, 23231.73, 20329.83, 10929.15, 28889.18, 101563.51, 74443.80, 0.00, 0.00, 0.00
227, 99236.84, 125969.13, 23232.69, 20326.54, 10931.41, 28890.57, 101562.05, 74444.49, 0.08, -0.20, 0.98
228, 99236.11, 125970.41, 23229.88, 20321.11, 10937.67, 28894.17, 101562.39, 74448.52, 0.00, 0.00, 0.00
229, 99232.48, 125960.19, 23231.20, 20328.53, 10925.44, 28891.37, 101559.51, 74442.70, 0.00, 0.00, 0.00
230, 99231.64, 125975.50, 23241.07, 20339.10, 10931.81, 28896.02, 101565.56, 74446.48, 0.00, 0.00, 0.00
231, 99236.16, 125979.66, 23239.31, 20338.39, 10952.15, 28900.78, 101567.95, 74448.80, 0.00, 0.00, 0.00
232, 99243.20, 125973.96, 23242.75, 20344.63, 10953.70, 28905.01, 101565.72, 74448.02, 0.00, 0.00, 0.00
233, 99237.07, 125971.97, 23234.17, 20340.18, 10976.90, 28905.52, 101565.27, 74444.74, 0.00, 0.00, 0.00
234, 99236.34, 125975.99, 23235.71, 20342.54, 10975.56, 28908.02, 101570.16, 74449.05, 0.00, 0.00, 0.00
235, 99238.26, 125988.89, 23241.32, 20345.14, 10970.37, 28907.49, 101574.08, 74452.34, 0.00, 0.00, 0.00
236, 99243.77, 125990.66, 23248.16, 20347.57, 10964.29, 28906.68, 101577.68, 74455.87, 0.00, 0.00, 0.00
237, 99244.63, 125979.59, 23238.50, 20335.91, 10955.95, 28902.68, 101571.77, 74452.14, 0.09, -0.20, 0.98
238, 99244.27, 125978.14, 23230.95, 20327.30, 10945.11, 28896.83, 101564.34, 74448.25, 0.00, 0.00, 0.00
239, 99242.77, 125978.25, 23238.64, 20330.16, 10941.87, 28898.53, 101566.66, 74447.71, 0.00, 0.00, 0.00
240, 99242.88, 125977.55, 23238.04, 20330.47, 10946.50, 28899.53, 101573.68, 74449.14, 0.00, 0.00, 0.00
241, 99248.96, 125983.50, 23242.88, 20332.85, 10932.68, 28896.24, 101569.59, 74451.55, 0.00, 0.00, 0.00
242, 99249.09, 125986.50, 23240.54, 20330.39, 10924.44, 28893.70, 101569.61, 74454.46, 0.00, 0.00, 0.00
243, 99245.19, 125969.48, 23232.16, 20317.71, 10931.90, 28893.12, 101565.63, 74449.79, 0.00, 0.00, 0.00
244, 99257.84, 125986.12, 23244.27, 20331.10, 10940.35, 28903.62, 101581.37, 74464.41, 0.00, 0.00, 0.00
245, 99256.34, 125983.66, 23245.84, 20335.24, 10933.62, 28901.79, 101585.10, 74459.49, 0.00, 0.00, 0.00
246, 99254.68, 125993.78, 23243.76, 20336.02, 10941.18, 28903.69, 101579.47, 74456.84, 0.00, 0.00, 0.00
247, 99252.20, 125986.03, 23243.42, 20337.99, 10943.06, 28903.13, 101574.73, 74458.44, 0.08, -0.20, 0.98
248, 99250.15, 125978.34, 23248.41, 20336.91, 10932.44, 28895.39, 101574.70, 74455.58, 0.00, 0.00, 0.00
249, 99247.69, 125985.54, 23253.66, 20332.53, 10932.48, 28892.76, 101564.34, 74454.73, 0.00, 0.00, 0.00
250, 99242.84, 125989.49, 23253.17, 20337.09, 10924.37, 28892.56, 101562.81, 74454.87, 0.00, 0.00, 0.00
251, 99243.06, 125983.44, 23244.94, 20334.37, 10926.56, 28892.11, 101565.90, 74451.49, 0.00, 0.00, 0.00
252, 99248.02, 125979.86, 23246.73, 20336.04, 10929.64, 28887.24, 101563.41, 74450.06, 0.00, 0.00, 0.00
253, 99247.33, 125985.18, 23250.26, 20335.39, 10934.34, 28895.15, 101566.91, 74452.16, 0.00, 0.00, 0.00
254, 99241.67, 125990.54, 23253.10, 20340.85, 10933.42, 28896.33, 101570.70, 74446.30, 0.00, 0.00, 0.00
255, 99237.59, 125989.31, 23251.92, 20340.38, 10932.42, 28896.54, 101568.13, 74444.47, 0.00, 0.00, 0.00
0, 99239.38, 125983.75, 23248.52, 20337.20, 10950.63, 28896.74, 101559.20, 74441.56, 0.00, 0.00, 0.00
1, 99237.90, 125980.15, 23245.79, 20337.09, 10938.74, 28887.26, 101551.77, 74436.67, 0.08, -0.20, 0.97
2, 99242.37, 125995.05, 23255.49, 20343.80, 10938.99, 28891.28, 101559.26, 74442.39, 0.00, 0.00, 0.00
3, 99239.84, 126000.38, 23254.66, 20345.32, 10942.41, 28894.28, 101565.95, 74445.23, 0.00, 0.00, 0.00
4, 99245.63, 125995.64, 23252.47, 20345.85, 10953.43, 28898.70, 101570.41, 74452.16, 0.00, 0.00, 0.00
5, 99247.91, 125989.05, 23249.77, 20340.27, 10941.27, 28895.51, 101567.73, 74451.40, 0.00, 0.00, 0.00
6, 99250.62, 125983.88, 23250.15, 20338.43, 10921.98, 28890.93, 101564.18, 74451.58, 0.00, 0.00, 0.00
7, 99245.79, 125993.27, 23256.23, 20339.55, 10939.37, 28890.68, 101557.74, 74449.08, 0.00, 0.00, 0.00
8, 99231.70, 125982.01, 23252.61, 20338.16, 10935.46, 28884.02, 101551.48, 74441.70, 0.00, 0.00, 0.00
9, 99230.25, 125975.48, 23246.46, 20341.52, 10922.72, 28881.87, 101553.65, 74439.71, 0.00, 0.00, 0.00
10, 99243.73, 125987.10, 23252.16, 20351.04, 10918.56, 28889.83, 101563.28, 74448.59, 0.00, 0.00, 0.00
11, 99247.95, 125987.10, 23251.20, 20354.37, 10915.52, 28883.26, 101559.98, 74453.79, 0.09, -0.19, 0.97
12, 99248.52, 125995.23, 23250.08, 20348.29, 10922.13, 28883.41, 101559.02, 74452.83, 0.00, 0.00, 0.00
13, 99251.60, 126004.49, 23249.93, 20347.84, 10933.96, 28888.76, 101562.52, 74454.87, 0.00, 0.00, 0.00
14, 99248.13, 125985.31, 23251.76, 20350.50, 10927.19, 28881.72, 101559.44, 74447.87, 0.00, 0.00, 0.00
15, 99248.41, 125986.97, 23252.99, 20351.35, 10923.65, 28877.96, 101555.80, 74445.19, 0.00, 0.00, 0.00
16, 99243.71, 125976.22, 23245.30, 20348.20, 10915.18, 28875.05, 101548.09, 74440.91, 0.00, 0.00, 0.00
17, 99238.34, 125977.09, 23247.58, 20351.17, 10896.16, 28872.75, 101550.68, 74435.40, 0.00, 0.00, 0.00
18, 99246.59, 125980.26, 23248.72, 20354.57, 10910.42, 28879.48, 101552.76, 74439.29, 0.00, 0.00, 0.00
19, 99252.13, 125982.05, 23251.49, 20362.28, 10948.38, 28890.30, 101552.02, 74445.84, 0.00, 0.00, 0.00
20, 99248.76, 125986.99, 23257.48, 20361.90, 10946.50, 28885.05, 101551.23, 74446.95, 0.00, 0.00, 0.00
21, 99245.30, 125987.95, 23255.71, 20358.44, 10933.11, 28880.02, 101547.37, 74440.52, 0.09, -0.19, 0.98
22, 99247.42, 125984.13, 23252.29, 20361.07, 10918.27, 28880.67, 101546.43, 74444.09, 0.00, 0.00, 0.00
23, 99246.73, 125980.41, 23257.08, 20367.15, 10932.71, 28888.04, 101551.41, 74446.93, 0.00, 0.00, 0.00
24, 99251.55, 125992.31, 23260.59, 20368.81, 10953.81, 28895.57, 101557.45, 74445.90, 0.00, 0.00, 0.00
25, 99245.16, 125998.55, 23256.05, 20373.57, 10950.63, 28891.10, 101555.44, 74438.26, 0.00, 0.00, 0.00
26, 99239.88, 125984.28, 23252.88, 20372.79, 10944.49, 28887.06, 101541.96, 74434.13, 0.00, 0.00, 0.00
27, 99232.94, 125966.58, 23254.93, 20365.14, 10943.95, 28883.68, 101534.56, 74421.94, 0.00, 0.00, 0.00
28, 99236.47, 125976.46, 23263.16, 20372.05, 10956.62, 28892.04, 101551.98, 74430.57, 0.00, 0.00, 0.00
29, 99231.55, 125974.05, 23263.49, 20369.21, 10951.88, 28890.10, 101551.15, 74431.82, 0.00, 0.00, 0.00
30, 99231.64, 125968.57, 23261.13, 20364.88, 10942.41, 28886.81, 101541.20, 74429.16, 0.08, -0.20, 0.98
31, 99239.26, 125973.71, 23262.20, 20370.22, 10935.12, 28886.79, 101547.39, 74435.17, 0.00, 0.00, 0.00
32, 99237.54, 125974.13, 23259.43, 20367.42, 10931.08, 28883.82, 101547.91, 74438.68, 0.00, 0.00, 0.00
33, 99230.92, 125971.74, 23252.16, 20358.10, 10927.99, 28878.54, 101542.43, 74430.68, 0.00, 0.00, 0.00
34, 99243.73, 125992.38, 23265.55, 20375.29, 10940.64, 28892.74, 101558.79, 74441.01, 0.00, 0.00, 0.00
35, 99245.43, 125984.91, 23270.04, 20382.31, 10938.18, 28891.48, 101555.91, 74441.55, 0.00, 0.00, 0.00
36, 99240.73, 125976.75, 23260.77, 20371.85, 10921.26, 28882.21, 101544.09, 74438.21, 0.00, 0.00, 0.00
37, 99244.38, 125985.36, 23260.97, 20367.29, 10914.65, 28888.82, 101548.13, 74444.12, 0.00, 0.00, 0.00
38, 99243.38, 125991.28, 23267.03, 20367.60, 10928.91, 28891.66, 101552.55, 74438.08, 0.00, 0.00, 0.00
39, 99239.02, 125983.32, 23267.12, 20376.25, 10947.06, 28890.43, 101550.23, 74429.83, 0.00, 0.00, 0.00
40, 99237.45, 125980.41, 23261.55, 20371.02, 10927.32, 28884.89, 101548.20, 74431.15, 0.08, -0.19, 0.98
41, 99232.89, 125986.32, 23261.82, 20365.77, 10935.61, 28886.25, 101550.56, 74431.40, 0.00, 0.00, 0.00
42, 99232.76, 125987.32, 23266.42, 20370.44, 10936.10, 28888.82, 101548.87, 74433.92, 0.00, 0.00, 0.00
43, 99243.40, 125987.62, 23268.05, 20378.67, 10931.08, 28891.95, 101549.80, 74438.66, 0.00, 0.00, 0.00
44, 99244.73, 125987.52, 23270.91, 20380.05, 10949.90, 28898.14, 101556.04, 74442.88, 0.00, 0.00, 0.00
45, 99234.26, 125997.30, 23267.43, 20375.43, 10945.40, 28897.09, 101559.48, 74438.10, 0.00, 0.00, 0.00
46, 99229.25, 125989.13, 23264.57, 20374.69, 10933.53, 28892.74, 101555.80, 74434.39, 0.00, 0.00, 0.00
47, 99230.48, 125978.30, 23267.67, 20376.81, 10919.61, 28888.62, 101552.06, 74436.25, 0.00, 0.00, 0.00
48, 99234.43, 125991.48, 23273.91, 20378.29, 10944.71, 28890.25, 101546.48, 74435.71, 0.00, 0.00, 0.00
49, 99235.44, 125998.63, 23274.42, 20380.74, 10965.54, 28893.67, 101542.41, 74435.30, 0.00, 0.00, 0.00
50, 99234.95, 125988.53, 23273.51, 20380.92, 10954.66, 28891.75, 101545.38, 74439.48, 0.08, -0.20, 0.98
51, 99234.66, 125984.42, 23269.62, 20375.85, 10945.85, 28888.82, 101546.05, 74441.79, 0.00, 0.00, 0.00
52, 99245.72, 125990.09, 23274.09, 20382.87, 10950.14, 28891.66, 101549.11, 74446.33, 0.00, 0.00, 0.00
53, 99247.28, 125992.84, 23273.48, 20385.93, 10947.91, 28892.38, 101548.48, 74448.36, 0.00, 0.00, 0.00
54, 99244.78, 125993.45, 23270.71, 20384.39, 10952.02, 28897.99, 101547.97, 74446.86, 0.00, 0.00, 0.00
55, 99242.21, 125993.07, 23264.66, 20373.46, 10944.53, 28892.78, 101547.37, 74445.52, 0.00, 0.00, 0.00
56, 99248.85, 125997.92, 23277.69, 20378.02, 10933.56, 28893.74, 101554.56, 74450.38, 0.00, 0.00, 0.00
57, 99247.51, 126000.78, 23280.15, 20378.44, 10931.79, 28892.94, 101558.52, 74452.16, 0.00, 0.00, 0.00
58, 99246.62, 126002.77, 23276.53, 20379.22, 10943.15, 28894.84, 101561.98, 74455.18, 0.00, 0.00, 0.00
59, 99246.21, 125996.73, 23269.35, 20376.92, 10941.80, 28893.34, 101556.69, 74452.12, 0.00, 0.00, 0.00
60, 99242.03, 125996.87, 23266.71, 20373.03, 10922.60, 28888.85, 101549.31, 74448.07, 0.09, -0.20, 0.99
61, 99250.21, 126004.34, 23267.56, 20371.74, 10903.54, 28889.49, 101549.72, 74453.93, 0.00, 0.00, 0.00
62, 99261.81, 126006.26, 23268.39, 20372.45, 10932.93, 28896.80, 101560.60, 74463.41, 0.00, 0.00, 0.00
63, 99254.30, 125998.68, 23267.23, 20370.91, 10940.75, 28892.51, 101560.27, 74458.98, 0.00, 0.00, 0.00
64, 99248.54, 125997.67, 23268.50, 20370.89, 10938.43, 28890.97, 101554.32, 74455.63, 0.00, 0.00, 0.00
65, 99242.88, 125999.46, 23266.71, 20363.73, 10928.71, 28888.58, 101548.58, 74451.67, 0.00, 0.00, 0.00
66, 99239.13, 125986.03, 23262.31, 20361.34, 10916.88, 28884.35, 101545.72, 74446.26, 0.00, 0.00, 0.00
67, 99245.43, 125982.90, 23259.36, 20361.68, 10922.09, 28888.40, 101550.12, 74448.02, 0.00, 0.00, 0.00
68, 99242.50, 125985.83, 23260.74, 20365.08, 10927.68, 28890.25, 101548.69, 74445.14, 0.00, 0.00, 0.00
69, 99241.48, 125987.84, 23262.60, 20367.74, 10930.72, 28892.60, 101550.84, 74451.24, 0.00, 0.00, 0.00
70, 99228.73, 125991.02, 23268.17, 20361.57, 10923.05, 28886.41, 101550.79, 74446.26, 0.09, -0.20, 0.99
71, 99227.33, 125988.82, 23263.05, 20357.14, 10918.54, 28881.65, 101542.48, 74439.95, 0.00, 0.00, 0.00
72, 99229.13, 125991.10, 23263.34, 20361.25, 10918.25, 28881.65, 101536.44, 74438.88, 0.00, 0.00, 0.00
73, 99227.75, 125999.75, 23266.40, 20367.78, 10920.66, 28885.07, 101537.91, 74431.98, 0.00, 0.00, 0.00
74, 99231.64, 126003.10, 23270.13, 20363.40, 10932.51, 28885.72, 101540.98, 74436.63, 0.00, 0.00, 0.00
75, 99222.48, 125984.06, 23260.37, 20346.57, 10929.22, 28874.77, 101532.33, 74428.06, 0.00, 0.00, 0.00
76, 99231.10, 125997.31, 23266.02, 20348.67, 10918.40, 28874.07, 101537.78, 74434.80, 0.00, 0.00, 0.00
77, 99235.06, 125991.46, 23260.81, 20347.46, 10908.63, 28868.15, 101531.99, 74433.12, 0.00, 0.00, 0.00
78, 99228.20, 125986.43, 23259.63, 20356.92, 10919.34, 28872.02, 101525.27, 74429.48, 0.00, 0.00, 0.00
79, 99226.19, 125993.16, 23265.71, 20356.49, 10919.85, 28876.51, 101528.19, 74432.40, 0.00, 0.00, 0.00
80, 99236.55, 125997.05, 23268.34, 20359.00, 10940.08, 28886.77, 101538.45, 74437.07, 0.09, -0.20, 0.99
81, 99239.04, 125999.66, 23266.78, 20357.41, 10920.68, 28883.68, 101533.31, 74438.66, 0.00, 0.00, 0.00
82, 99236.87, 126005.70, 23269.75, 20359.26, 10912.46, 28880.42, 101530.65, 74439.20, 0.00, 0.00, 0.00
83, 99238.08, 126017.99, 23273.15, 20357.05, 10945.11, 28885.81, 101532.70, 74431.06, 0.00, 0.00, 0.00
84, 99239.13, 126020.45, 23272.77, 20357.01, 10956.06, 28895.31, 101536.53, 74431.95, 0.00, 0.00, 0.00
85, 99234.88, 126007.59, 23269.86, 20357.39, 10946.34, 28894.57, 101536.08, 74435.80, 0.00, 0.00, 0.00
86, 99238.48, 126009.95, 23272.88, 20362.37, 10942.07, 28897.59, 101538.85, 74436.85, 0.00, 0.00, 0.00
87, 99234.84, 125988.64, 23274.51, 20360.36, 10936.08, 28894.12, 101538.48, 74433.90, 0.00, 0.00, 0.00
88, 99228.30, 125986.14, 23269.21, 20356.11, 10933.31, 28890.48, 101535.01, 74431.48, 0.00, 0.00, 0.00
89, 99223.99, 125993.16, 23271.90, 20363.51, 10940.35, 28894.79, 101532.41, 74431.59, 0.00, 0.00, 0.00
90, 99226.70, 126000.49, 23273.66, 20364.85, 10937.65, 28896.71, 101528.52, 74434.28, 0.09, -0.20, 0.99
91, 99233.16, 126001.56, 23269.91, 20361.86, 10923.01, 28890.14, 101526.00, 74436.45, 0.00, 0.00, 0.00
92, 99233.74, 126000.45, 23267.67, 20360.85, 10925.67, 28893.00, 101525.11, 74432.87, 0.00, 0.00, 0.00
93, 99236.65, 126005.27, 23278.34, 20362.51, 10946.34, 28896.09, 101531.05, 74440.70, 0.00, 0.00, 0.00
94, 99231.26, 126001.95, 23275.81, 20357.95, 10948.31, 28891.75, 101528.05, 74435.84, 0.00, 0.00, 0.00
95, 99235.22, 126009.95, 23277.71, 20359.13, 10942.63, 28892.80, 101528.10, 74436.89, 0.00, 0.00, 0.00
96, 99236.29, 126016.02, 23278.98, 20365.43, 10932.71, 28892.40, 101532.70, 74435.69, 0.00, 0.00, 0.00
97, 99235.82, 126022.98, 23281.55, 20365.84, 10931.92, 28894.41, 101534.13, 74442.17, 0.00, 0.00, 0.00
98, 99236.29, 126008.76, 23278.76, 20364.07, 10938.03, 28893.54, 101534.61, 74441.99, 0.00, 0.00, 0.00
99, 99231.75, 126000.20, 23279.50, 20364.16, 10932.17, 28889.16, 101531.73, 74433.45, 0.00, 0.00, 0.00
100, 99223.93, 126002.73, 23276.23, 20361.90, 10948.26, 28894.23, 101529.84, 74430.88, 0.08, -0.19, 0.99
101, 99225.41, 126006.75, 23281.42, 20364.27, 10953.27, 28894.90, 101524.19, 74427.98, 0.00, 0.00, 0.00
102, 99228.51, 126017.92, 23285.13, 20366.46, 10940.31, 28890.28, 101522.20, 74429.52, 0.00, 0.00, 0.00
103, 99229.13, 126019.60, 23283.25, 20368.12, 10937.00, 28890.03, 101520.21, 74432.42, 0.00, 0.00, 0.00
104, 99229.98, 126010.70, 23283.30, 20364.14, 10956.11, 28892.29, 101521.98, 74428.29, 0.00, 0.00, 0.00
105, 99228.55, 126007.35, 23283.23, 20359.69, 10935.84, 28888.20, 101522.63, 74425.56, 0.00, 0.00, 0.00
106, 99228.06, 126013.50, 23281.15, 20360.96, 10943.15, 28891.95, 101519.18, 74427.71, 0.00, 0.00, 0.00
107, 99232.47, 126017.56, 23280.77, 20360.67, 10936.86, 28888.53, 101516.13, 74431.10, 0.00, 0.00, 0.00
108, 99232.04, 126004.78, 23279.41, 20354.66, 10915.38, 28881.22, 101514.06, 74429.52, 0.00, 0.00, 0.00
109, 99228.09, 125998.86, 23278.25, 20352.74, 10932.66, 28892.56, 101521.35, 74429.72, 0.00, 0.00, 0.00
110, 99230.01, 126003.84, 23278.20, 20364.12, 10946.65, 28898.26, 101522.80, 74436.11, 0.08, -0.19, 0.99
111, 99232.84, 126008.83, 23281.60, 20365.32, 10936.64, 28896.85, 101522.94, 74440.91, 0.00, 0.00, 0.00
112, 99232.11, 126008.02, 23274.83, 20358.55, 10923.27, 28890.72, 101522.42, 74437.43, 0.00, 0.00, 0.00
113, 99239.98, 126002.01, 23267.90, 20354.91, 10923.27, 28889.88, 101525.48, 74435.27, 0.00, 0.00, 0.00
114, 99236.29, 126008.02, 23272.61, 20354.53, 10923.45, 28888.29, 101516.37, 74434.34, 0.00, 0.00, 0.00
115, 99229.88, 126011.93, 23283.19, 20354.73, 10915.34, 28885.90, 101514.04, 74431.59, 0.00, 0.00, 0.00
116, 99234.99, 126020.45, 23287.63, 20362.42, 10914.00, 28893.83, 101520.41, 74437.90, 0.00, 0.00, 0.00
117, 99230.56, 126017.88, 23287.77, 20366.10, 10921.00, 28889.36, 101517.51, 74435.11, 0.00, 0.00, 0.00
118, 99234.95, 126017.70, 23285.13, 20364.34, 10948.49, 28898.81, 101523.92, 74436.07, 0.00, 0.00, 0.00
119, 99231.55, 126020.88, 23281.76, 20363.85, 10941.65, 28900.45, 101519.63, 74429.79, 0.00, 0.00, 0.00
120, 99227.05, 126027.96, 23282.67, 20365.25, 10941.69, 28899.96, 101517.77, 74429.09, 0.08, -0.20, 0.99
121, 99225.16, 126021.16, 23284.62, 20363.31, 10942.65, 28900.02, 101522.11, 74427.08, 0.00, 0.00, 0.00
122, 99220.35, 126012.85, 23286.18, 20362.71, 10930.11, 28896.96, 101522.65, 74423.13, 0.00, 0.00, 0.00
123, 99222.92, 126012.96, 23290.43, 20365.79, 10925.69, 28892.89, 101516.05, 74423.15, 0.00, 0.00, 0.00
124, 99225.76, 126020.16, 23295.43, 20371.51, 10946.07, 28896.87, 101514.71, 74426.23, 0.00, 0.00, 0.00
125, 99223.44, 126026.46, 23293.71, 20370.44, 10940.58, 28895.89, 101510.63, 74424.89, 0.00, 0.00, 0.00
126, 99227.39, 126027.76, 23298.00, 20378.33, 10935.32, 28901.27, 101514.91, 74429.38, 0.00, 0.00, 0.00
127, 99226.61, 126018.08, 23299.88, 20379.61, 10946.68, 28901.95, 101518.80, 74432.02, 0.00, 0.00, 0.00
128, 99231.10, 126017.79, 23299.81, 20374.82, 10959.75, 28904.74, 101520.57, 74434.30, 0.00, 0.00, 0.00
129, 99231.82, 126019.09, 23291.10, 20372.14, 10968.54, 28910.88, 101520.14, 74433.01, 0.00, 0.00, 0.00
130, 99232.40, 126019.60, 23293.00, 20370.51, 10958.34, 28910.06, 101520.50, 74434.62, 0.08, -0.20, 0.99
131, 99237.52, 126016.05, 23284.39, 20359.58, 10940.58, 28904.34, 101520.41, 74437.72, 0.00, 0.00, 0.00
132, 99230.07, 126013.92, 23275.72, 20349.03, 10920.26, 28890.08, 101510.09, 74430.05, 0.00, 0.00, 0.00
133, 99224.15, 126018.77, 23279.41, 20349.99, 10909.62, 28883.15, 101503.90, 74421.49, 0.00, 0.00, 0.00
134, 99235.23, 126032.34, 23288.46, 20355.64, 10930.99, 28895.28, 101507.56, 74433.67, 0.00, 0.00, 0.00
135, 99232.48, 126032.36, 23291.25, 20353.21, 10925.73, 28891.08, 101502.91, 74433.07, 0.00, 0.00, 0.00
136, 99228.63, 126022.73, 23291.10, 20351.13, 10912.37, 28885.18, 101503.20, 74429.48, 0.00, 0.00, 0.00
137, 99231.93, 126026.38, 23293.62, 20354.26, 10903.09, 28886.41, 101505.41, 74430.30, 0.00, 0.00, 0.00
138, 99227.55, 126020.00, 23293.09, 20352.96, 10925.08, 28892.27, 101504.27, 74428.96, 0.00, 0.00, 0.00
139, 99227.39, 126021.23, 23287.77, 20347.13, 10927.25, 28893.00, 101502.55, 74430.34, 0.00, 0.00, 0.00
140, 99230.79, 126022.55, 23288.88, 20359.13, 10931.75, 28891.73, 101500.03, 74428.06, 0.08, -0.20, 0.99
141, 99224.17, 126020.96, 23283.63, 20356.29, 10918.02, 28882.12, 101490.98, 74420.33, 0.00, 0.00, 0.00
142, 99223.62, 126021.55, 23285.15, 20348.07, 10904.50, 28879.35, 101491.84, 74421.77, 0.00, 0.00, 0.00
143, 99216.73, 126021.16, 23291.59, 20350.99, 10903.78, 28879.77, 101490.30, 74418.03, 0.00, 0.00, 0.00
144, 99213.91, 126020.34, 23290.54, 20352.74, 10905.93, 28882.21, 101491.34, 74413.73, 0.00, 0.00, 0.00
145, 99218.20, 126020.90, 23285.96, 20350.23, 10915.54, 28886.70, 101488.34, 74418.09, 0.00, 0.00, 0.00
146, 99219.46, 126017.99, 23288.57, 20350.50, 10935.61, 28889.96, 101485.05, 74416.58, 0.00, 0.00, 0.00
147, 99216.87, 126016.20, 23281.40, 20347.26, 10938.70, 28886.30, 101483.47, 74413.13, 0.00, 0.00, 0.00
148, 99215.21, 126019.65, 23285.15, 20346.48, 10937.89, 28884.06, 101480.23, 74410.84, 0.00, 0.00, 0.00
