%OpenBCI Raw EEG Data
%Sample Rate = 250.0 Hz
%First Column = SampleIndex
%Other Columns = EEG data in microvolts followed by Accel Data (in G) interleaved with Aux Data
80, 95794.12, 133442.22, 20362.19, 16860.46, 6973.45, 27913.51, 99662.13, 72448.26, 0.00, 0.00, 0.00
81, 95800.60, 133474.67, 20375.31, 16867.27, 6974.15, 27916.84, 99672.52, 72454.14, 0.00, 0.00, 0.00
82, 95790.43, 133388.08, 20358.19, 16852.59, 6963.37, 27907.63, 99657.59, 72443.66, 0.00, 0.00, 0.00
83, 95783.68, 133376.63, 20348.04, 16838.53, 6961.63, 27902.84, 99636.45, 72439.68, 0.00, 0.00, 0.00
84, 95770.96, 133375.33, 20339.77, 16829.88, 6953.72, 27894.55, 99631.31, 72426.42, 0.00, 0.00, 0.00
85, 95783.05, 133401.13, 20357.41, 16853.97, 6967.31, 27906.67, 99647.56, 72439.63, 0.00, 0.00, 0.00
86, 95785.45, 133461.64, 20359.04, 16847.72, 6961.47, 27906.76, 99646.46, 72444.70, 0.00, 0.00, 0.00
87, 95775.43, 133446.25, 20348.00, 16828.70, 6953.52, 27897.95, 99631.80, 72437.13, 0.00, 0.00, 0.00
88, 95763.50, 133388.97, 20336.60, 16817.14, 6943.66, 27886.46, 99614.01, 72428.84, 0.00, 0.00, 0.00
89, 95781.65, 133400.08, 20356.20, 16849.82, 6962.23, 27904.74, 99645.02, 72448.17, 0.09, -0.21, 0.98
90, 95779.34, 133380.81, 20351.33, 16850.85, 6956.49, 27898.42, 99650.91, 72445.64, 0.00, 0.00, 0.00
91, 95780.71, 133399.63, 20349.81, 16840.50, 6952.44, 27898.96, 99650.24, 72447.09, 0.00, 0.00, 0.00
92, 95778.25, 133404.33, 20344.74, 16828.61, 6933.91, 27889.34, 99636.90, 72440.68, 0.00, 0.00, 0.00
93, 95773.80, 133434.77, 20344.78, 16823.80, 6921.53, 27881.70, 99628.16, 72431.98, 0.00, 0.00, 0.00
94, 95782.90, 133442.06, 20350.62, 16830.01, 6960.20, 27893.30, 99642.71, 72442.00, 0.00, 0.00, 0.00
95, 95774.41, 133376.28, 20341.49, 16820.02, 6943.44, 27882.37, 99645.88, 72434.36, 0.00, 0.00, 0.00
96, 95764.93, 133371.31, 20324.53, 16801.76, 6919.79, 27867.62, 99626.84, 72425.35, 0.00, 0.00, 0.00
97, 95780.48, 133398.17, 20334.25, 16814.41, 6925.82, 27878.37, 99637.59, 72442.27, 0.00, 0.00, 0.00
98, 95779.66, 133383.63, 20336.20, 16815.31, 6937.98, 27883.00, 99643.96, 72442.25, 0.00, 0.00, 0.00
99, 95777.22, 133379.09, 20328.78, 16797.22, 6937.87, 27881.50, 99641.34, 72437.27, 0.09, -0.21, 0.98
100, 95775.30, 133379.00, 20325.96, 16805.58, 6934.87, 27880.47, 99622.41, 72433.26, 0.00, 0.00, 0.00
101, 95777.42, 133409.44, 20338.48, 16827.44, 6943.39, 27886.01, 99625.43, 72437.98, 0.00, 0.00, 0.00
102, 95776.71, 133470.06, 20338.81, 16820.58, 6945.16, 27885.66, 99622.28, 72438.60, 0.00, 0.00, 0.00
103, 95767.56, 133467.58, 20334.65, 16812.47, 6935.59, 27884.69, 99629.43, 72429.22, 0.00, 0.00, 0.00
104, 95756.81, 133424.28, 20326.54, 16802.86, 6920.23, 27879.91, 99637.68, 72421.62, 0.00, 0.00, 0.00
105, 95767.19, 133367.42, 20324.87, 16805.47, 6953.54, 27887.44, 99655.30, 72426.45, 0.00, 0.00, 0.00
106, 95750.98, 133331.48, 20302.27, 16787.48, 6929.29, 27867.55, 99624.23, 72409.28, 0.00, 0.00, 0.00
107, 95747.85, 133327.14, 20296.12, 16790.52, 6918.24, 27860.13, 99606.63, 72406.84, 0.00, 0.00, 0.00
108, 95767.19, 133379.72, 20316.51, 16803.55, 6940.75, 27882.53, 99631.78, 72430.00, 0.00, 0.00, 0.00
109, 95782.67, 133415.61, 20332.35, 16810.77, 6954.30, 27898.24, 99661.98, 72449.24, 0.08, -0.21, 0.98
110, 95767.03, 133380.63, 20321.85, 16795.28, 6936.17, 27883.00, 99643.80, 72430.78, 0.00, 0.00, 0.00
111, 95759.20, 133350.53, 20310.72, 16794.81, 6925.08, 27875.26, 99640.85, 72423.59, 0.00, 0.00, 0.00
112, 95755.07, 133374.23, 20314.58, 16806.52, 6932.95, 27879.82, 99647.85, 72421.05, 0.00, 0.00, 0.00
113, 95747.78, 133369.80, 20311.66, 16799.91, 6934.58, 27878.57, 99655.30, 72411.55, 0.00, 0.00, 0.00
114, 95750.38, 133399.78, 20318.16, 16804.85, 6938.58, 27882.71, 99637.10, 72414.77, 0.00, 0.00, 0.00
115, 95743.45, 133410.31, 20314.49, 16797.31, 6929.35, 27874.41, 99634.24, 72407.53, 0.00, 0.00, 0.00
116, 95736.48, 133424.08, 20305.62, 16782.31, 6913.86, 27863.66, 99629.79, 72402.75, 0.00, 0.00, 0.00
117, 95733.93, 133366.13, 20299.72, 16771.23, 6913.06, 27863.42, 99633.91, 72399.98, 0.00, 0.00, 0.00
118, 95741.05, 133404.84, 20308.32, 16790.43, 6925.38, 27872.49, 99642.58, 72407.09, 0.00, 0.00, 0.00
119, 95741.19, 133374.31, 20305.13, 16798.63, 6927.88, 27872.07, 99629.84, 72407.42, 0.08, -0.21, 0.98
120, 95731.67, 133368.45, 20307.50, 16804.96, 6923.41, 27868.00, 99625.09, 72401.68, 0.00, 0.00, 0.00
121, 95720.52, 133371.25, 20297.55, 16782.31, 6904.32, 27853.60, 99620.13, 72383.75, 0.00, 0.00, 0.00
122, 95697.41, 133365.61, 20281.82, 16764.50, 6890.66, 27837.64, 99598.12, 72360.82, 0.00, 0.00, 0.00
123, 95699.46, 133425.22, 20300.32, 16779.54, 6907.43, 27853.89, 99612.63, 72361.11, 0.00, 0.00, 0.00
124, 95682.05, 133357.64, 20305.75, 16786.38, 6911.45, 27852.93, 99617.16, 72343.23, 0.00, 0.00, 0.00
125, 95674.78, 133284.55, 20298.27, 16782.79, 6906.47, 27850.92, 99632.43, 72332.50, 0.00, 0.00, 0.00
126, 95656.14, 133301.69, 20284.97, 16771.32, 6895.71, 27846.38, 99638.02, 72325.98, 0.00, 0.00, 0.00
127, 95645.81, 133362.80, 20291.54, 16778.25, 6901.79, 27844.46, 99602.45, 72314.33, 0.00, 0.00, 0.00
128, 95623.80, 133416.80, 20299.52, 16784.60, 6894.57, 27843.81, 99571.20, 72289.67, 0.00, 0.00, 0.00
129, 95594.98, 133316.91, 20290.24, 16777.69, 6892.56, 27839.77, 99588.10, 72260.20, 0.08, -0.21, 0.98
130, 95561.33, 133321.00, 20291.38, 16783.01, 6923.34, 27847.70, 99623.98, 72254.45, 0.00, 0.00, 0.00
131, 95547.42, 133387.67, 20305.26, 16790.59, 6920.17, 27852.69, 99624.56, 72222.20, 0.00, 0.00, 0.00
132, 95537.95, 133482.22, 20319.28, 16792.04, 6929.69, 27865.00, 99625.34, 72215.29, 0.00, 0.00, 0.00
133, 95524.49, 133378.39, 20312.86, 16788.08, 6928.73, 27869.58, 99623.29, 72211.73, 0.00, 0.00, 0.00
134, 95498.36, 133301.22, 20300.93, 16801.58, 6926.43, 27870.17, 99619.53, 72184.20, 0.00, 0.00, 0.00
135, 95461.59, 133283.97, 20294.89, 16793.74, 6918.09, 27860.82, 99592.71, 72142.76, 0.00, 0.00, 0.00
136, 95449.86, 133297.11, 20294.65, 16786.72, 6916.28, 27856.98, 99595.13, 72119.82, 0.00, 0.00, 0.00
137, 95410.20, 133341.14, 20298.00, 16791.05, 6911.96, 27854.77, 99601.02, 72092.58, 0.00, 0.00, 0.00
138, 95384.59, 133375.56, 20302.22, 16788.44, 6920.06, 27864.27, 99611.84, 72078.02, 0.00, 0.00, 0.00
139, 95410.83, 133435.42, 20325.58, 16812.89, 6941.76, 27881.95, 99643.96, 72088.40, 0.08, -0.21, 0.98
140, 95412.80, 133399.55, 20322.21, 16810.25, 6935.70, 27876.29, 99617.50, 72087.86, 0.00, 0.00, 0.00
141, 95396.17, 133337.30, 20315.75, 16808.36, 6938.00, 27878.68, 99610.08, 72077.45, 0.00, 0.00, 0.00
142, 95379.88, 133343.42, 20317.96, 16806.25, 6933.87, 27875.37, 99605.29, 72065.77, 0.00, 0.00, 0.00
143, 95379.23, 133423.09, 20324.11, 16817.65, 6942.59, 27887.85, 99611.24, 72073.16, 0.00, 0.00, 0.00
144, 95369.28, 133386.95, 20317.09, 16808.00, 6941.74, 27887.85, 99620.60, 72063.97, 0.00, 0.00, 0.00
145, 95353.97, 133328.75, 20305.33, 16791.55, 6928.77, 27878.19, 99626.04, 72042.82, 0.00, 0.00, 0.00
146, 95357.19, 133377.45, 20315.63, 16805.63, 6919.79, 27881.14, 99634.38, 72038.35, 0.00, 0.00, 0.00
147, 95359.00, 133374.67, 20314.99, 16805.79, 6912.48, 27880.67, 99612.52, 72041.66, 0.00, 0.00, 0.00
148, 95359.45, 133352.78, 20315.03, 16808.24, 6949.98, 27886.01, 99605.16, 72046.02, 0.00, 0.00, 0.00
149, 95346.23, 133325.22, 20298.94, 16793.18, 6928.95, 27873.07, 99605.65, 72036.05, 0.08, -0.21, 0.97
150, 95359.76, 133390.69, 20319.97, 16805.25, 6938.54, 27889.19, 99635.60, 72046.69, 0.00, 0.00, 0.00
151, 95356.56, 133374.44, 20305.60, 16787.21, 6925.04, 27877.65, 99621.41, 72041.77, 0.00, 0.00, 0.00
152, 95378.31, 133397.31, 20321.49, 16807.93, 6943.28, 27892.32, 99625.32, 72061.09, 0.00, 0.00, 0.00
153, 95375.54, 133352.48, 20304.37, 16789.09, 6931.19, 27880.63, 99619.38, 72052.99, 0.00, 0.00, 0.00
154, 95398.23, 133367.69, 20316.35, 16798.30, 6941.76, 27891.42, 99628.27, 72073.64, 0.00, 0.00, 0.00
155, 95404.84, 133399.14, 20323.99, 16806.72, 6931.59, 27884.89, 99633.75, 72070.00, 0.00, 0.00, 0.00
156, 95421.90, 133450.13, 20325.80, 16822.82, 6927.77, 27887.71, 99619.02, 72079.59, 0.00, 0.00, 0.00
157, 95434.46, 133353.36, 20310.83, 16809.43, 6926.92, 27881.74, 99602.39, 72093.29, 0.00, 0.00, 0.00
158, 95452.72, 133361.75, 20304.90, 16798.63, 6927.59, 27879.51, 99613.66, 72112.00, 0.00, 0.00, 0.00
159, 95459.45, 133371.72, 20302.29, 16794.36, 6926.34, 27880.71, 99612.36, 72116.07, 0.08, -0.21, 0.98
160, 95473.95, 133388.33, 20305.46, 16794.63, 6921.51, 27882.04, 99601.18, 72130.02, 0.00, 0.00, 0.00
161, 95501.98, 133385.55, 20319.48, 16804.64, 6934.23, 27880.18, 99621.01, 72157.62, 0.00, 0.00, 0.00
162, 95514.34, 133399.83, 20329.04, 16806.28, 6936.10, 27880.69, 99636.34, 72167.99, 0.00, 0.00, 0.00
163, 95521.70, 133390.72, 20321.45, 16797.65, 6934.38, 27883.85, 99622.39, 72171.81, 0.00, 0.00, 0.00
164, 95531.62, 133422.72, 20324.06, 16805.92, 6933.06, 27886.95, 99633.81, 72183.01, 0.00, 0.00, 0.00
165, 95539.82, 133398.92, 20320.10, 16801.36, 6928.93, 27884.76, 99643.65, 72191.53, 0.00, 0.00, 0.00
166, 95551.23, 133417.42, 20321.20, 16794.90, 6927.16, 27882.84, 99634.55, 72203.38, 0.00, 0.00, 0.00
167, 95555.23, 133439.00, 20326.63, 16802.45, 6925.02, 27881.39, 99621.48, 72210.82, 0.00, 0.00, 0.00
168, 95553.64, 133385.13, 20312.04, 16778.40, 6904.79, 27871.04, 99597.83, 72204.60, 0.00, 0.00, 0.00
169, 95591.37, 133400.97, 20339.77, 16817.03, 6946.09, 27904.86, 99632.43, 72237.91, 0.08, -0.21, 0.97
170, 95605.47, 133435.03, 20343.19, 16810.81, 6958.57, 27905.66, 99655.95, 72251.59, 0.00, 0.00, 0.00
171, 95615.15, 133457.41, 20334.81, 16808.02, 6942.56, 27892.16, 99682.30, 72262.38, 0.00, 0.00, 0.00
172, 95615.44, 133417.52, 20315.46, 16803.46, 6931.59, 27878.86, 99646.73, 72262.02, 0.00, 0.00, 0.00
173, 95630.44, 133349.97, 20321.80, 16812.45, 6941.69, 27889.32, 99635.00, 72280.69, 0.00, 0.00, 0.00
174, 95638.33, 133379.27, 20325.02, 16816.92, 6946.09, 27896.52, 99641.66, 72291.93, 0.00, 0.00, 0.00
175, 95645.59, 133412.89, 20322.12, 16809.99, 6946.30, 27899.31, 99655.72, 72295.77, 0.00, 0.00, 0.00
176, 95648.23, 133432.89, 20322.92, 16802.34, 6937.13, 27892.16, 99638.82, 72299.20, 0.00, 0.00, 0.00
177, 95652.21, 133414.61, 20320.93, 16801.65, 6933.78, 27892.05, 99635.58, 72302.59, 0.00, 0.00, 0.00
178, 95665.71, 133431.89, 20328.93, 16824.18, 6947.35, 27900.59, 99661.13, 72318.46, 0.00, 0.00, 0.00
179, 95672.37, 133399.19, 20327.77, 16819.13, 6950.25, 27899.47, 99658.34, 72329.23, 0.08, -0.21, 0.98
180, 95673.69, 133403.50, 20326.86, 16809.21, 6942.59, 27897.68, 99650.00, 72329.48, 0.00, 0.00, 0.00
181, 95684.64, 133430.36, 20332.42, 16807.71, 6941.56, 27900.99, 99673.89, 72340.81, 0.00, 0.00, 0.00
182, 95692.27, 133451.39, 20343.53, 16817.88, 6947.86, 27903.67, 99685.45, 72349.82, 0.00, 0.00, 0.00
183, 95685.00, 133430.55, 20330.34, 16799.93, 6937.40, 27896.00, 99661.15, 72342.07, 0.00, 0.00, 0.00
184, 95703.86, 133455.47, 20334.50, 16798.36, 6945.69, 27903.54, 99658.80, 72357.31, 0.00, 0.00, 0.00
185, 95709.38, 133435.33, 20329.16, 16806.32, 6940.95, 27898.31, 99654.87, 72364.40, 0.00, 0.00, 0.00
186, 95716.49, 133401.05, 20334.37, 16819.33, 6946.61, 27899.98, 99671.68, 72372.73, 0.00, 0.00, 0.00
187, 95721.32, 133446.13, 20342.03, 16823.76, 6947.59, 27903.04, 99665.55, 72380.38, 0.00, 0.00, 0.00
188, 95726.51, 133470.55, 20339.48, 16821.83, 6952.06, 27904.68, 99670.83, 72384.53, 0.00, 0.00, 0.00
189, 95724.43, 133413.11, 20326.97, 16805.54, 6943.26, 27897.93, 99691.10, 72385.18, 0.07, -0.21, 0.98
190, 95720.74, 133417.36, 20316.93, 16793.02, 6923.97, 27886.95, 99667.74, 72382.95, 0.00, 0.00, 0.00
191, 95733.59, 133421.09, 20325.33, 16808.64, 6911.40, 27889.48, 99655.23, 72396.76, 0.00, 0.00, 0.00
192, 95743.59, 133396.28, 20332.11, 16810.57, 6946.61, 27897.50, 99684.22, 72408.97, 0.00, 0.00, 0.00
193, 95735.89, 133460.20, 20324.80, 16802.03, 6939.61, 27892.16, 99705.61, 72398.70, 0.00, 0.00, 0.00
194, 95761.15, 133583.83, 20352.54, 16821.05, 6957.34, 27919.07, 99715.91, 72426.65, 0.00, 0.00, 0.00
195, 95758.22, 133474.44, 20345.92, 16815.64, 6945.45, 27909.79, 99680.71, 72425.64, 0.00, 0.00, 0.00
196, 95756.45, 133376.63, 20332.44, 16809.58, 6938.25, 27898.57, 99674.54, 72425.59, 0.00, 0.00, 0.00
197, 95757.91, 133339.17, 20319.17, 16804.11, 6931.95, 27893.39, 99680.53, 72427.18, 0.00, 0.00, 0.00
198, 95763.27, 133375.41, 20323.39, 16815.78, 6940.31, 27902.08, 99676.44, 72436.10, 0.00, 0.00, 0.00
199, 95763.56, 133405.95, 20324.87, 16808.94, 6938.07, 27898.13, 99678.25, 72442.18, 0.08, -0.21, 0.98
200, 95767.39, 133433.67, 20328.35, 16804.73, 6935.25, 27899.58, 99684.69, 72443.66, 0.00, 0.00, 0.00
201, 95770.47, 133445.56, 20333.85, 16802.23, 6933.38, 27901.10, 99688.30, 72442.88, 0.00, 0.00, 0.00
202, 95773.40, 133496.23, 20335.82, 16806.46, 6938.41, 27901.79, 99686.79, 72447.41, 0.00, 0.00, 0.00
203, 95776.23, 133469.45, 20334.61, 16823.89, 6946.99, 27908.12, 99694.72, 72450.34, 0.00, 0.00, 0.00
204, 95760.44, 133411.64, 20315.16, 16807.44, 6935.59, 27895.65, 99693.67, 72428.68, 0.00, 0.00, 0.00
205, 95769.94, 133409.64, 20322.52, 16808.20, 6933.76, 27896.96, 99692.15, 72437.60, 0.00, 0.00, 0.00
206, 95774.92, 133457.25, 20329.85, 16813.34, 6938.52, 27901.14, 99696.24, 72441.63, 0.00, 0.00, 0.00
207, 95785.52, 133505.72, 20341.92, 16819.80, 6949.89, 27911.29, 99716.13, 72452.71, 0.00, 0.00, 0.00
208, 95791.77, 133482.31, 20349.05, 16822.93, 6964.54, 27921.08, 99720.36, 72457.06, 0.00, 0.00, 0.00
209, 95778.98, 133376.72, 20331.39, 16816.51, 6946.65, 27911.03, 99664.50, 72446.43, 0.08, -0.20, 0.98
210, 95780.48, 133390.83, 20326.38, 16803.55, 6930.11, 27908.95, 99653.64, 72445.55, 0.00, 0.00, 0.00
211, 95786.19, 133426.34, 20332.22, 16807.95, 6963.24, 27915.16, 99671.39, 72452.17, 0.00, 0.00, 0.00
212, 95787.37, 133472.78, 20340.62, 16823.00, 6971.64, 27919.74, 99678.18, 72456.73, 0.00, 0.00, 0.00
213, 95787.86, 133488.59, 20343.35, 16826.13, 6972.25, 27919.76, 99695.84, 72459.21, 0.00, 0.00, 0.00
214, 95780.64, 133421.09, 20334.50, 16827.35, 6962.19, 27911.23, 99697.41, 72446.77, 0.00, 0.00, 0.00
215, 95780.89, 133446.80, 20336.76, 16824.20, 6958.19, 27912.70, 99695.68, 72445.63, 0.00, 0.00, 0.00
216, 95784.95, 133458.39, 20344.78, 16831.22, 6958.57, 27915.67, 99683.39, 72451.12, 0.00, 0.00, 0.00
217, 95770.83, 133427.02, 20334.21, 16819.64, 6951.95, 27906.04, 99660.30, 72432.93, 0.00, 0.00, 0.00
218, 95764.23, 133393.27, 20323.28, 16809.70, 6947.19, 27899.92, 99662.29, 72428.63, 0.00, 0.00, 0.00
219, 95780.69, 133415.84, 20333.63, 16824.09, 6955.06, 27912.66, 99667.45, 72443.25, 0.08, -0.21, 0.98
220, 95786.74, 133457.55, 20342.12, 16826.46, 6957.85, 27918.91, 99685.67, 72451.01, 0.00, 0.00, 0.00
221, 95782.52, 133496.84, 20342.28, 16821.68, 6953.47, 27911.16, 99691.19, 72445.04, 0.00, 0.00, 0.00
222, 95777.34, 133454.34, 20340.22, 16825.01, 6945.76, 27903.96, 99683.99, 72440.05, 0.00, 0.00, 0.00
223, 95783.50, 133450.53, 20344.60, 16836.47, 6960.65, 27917.06, 99681.76, 72453.00, 0.00, 0.00, 0.00
224, 95781.00, 133469.48, 20350.79, 16839.29, 6948.62, 27915.29, 99681.20, 72449.06, 0.00, 0.00, 0.00
225, 95779.55, 133492.06, 20351.08, 16838.33, 6946.77, 27913.97, 99679.03, 72447.52, 0.00, 0.00, 0.00
226, 95777.31, 133468.23, 20340.65, 16832.58, 6963.13, 27915.65, 99695.82, 72448.23, 0.00, 0.00, 0.00
227, 95780.51, 133406.47, 20336.20, 16826.08, 6961.56, 27919.25, 99692.66, 72450.79, 0.00, 0.00, 0.00
228, 95779.55, 133472.78, 20338.41, 16832.05, 6965.25, 27922.16, 99671.25, 72448.57, 0.00, 0.00, 0.00
229, 95774.41, 133452.97, 20332.17, 16828.99, 6959.53, 27916.72, 99670.02, 72441.98, 0.08, -0.20, 0.97
230, 95787.50, 133427.73, 20340.80, 16840.77, 6965.99, 27927.45, 99701.38, 72456.06, 0.00, 0.00, 0.00
231, 95788.91, 133492.48, 20338.88, 16835.20, 6962.81, 27929.49, 99706.97, 72458.56, 0.00, 0.00, 0.00
232, 95781.47, 133460.55, 20335.46, 16827.64, 6955.84, 27922.76, 99679.61, 72455.13, 0.00, 0.00, 0.00
233, 95781.98, 133474.89, 20341.61, 16839.83, 6958.86, 27924.86, 99696.94, 72453.27, 0.00, 0.00, 0.00
234, 95777.29, 133426.23, 20331.24, 16825.39, 6951.68, 27919.63, 99715.63, 72445.71, 0.00, 0.00, 0.00
235, 95778.48, 133417.47, 20329.49, 16815.98, 6951.01, 27916.32, 99690.34, 72448.23, 0.00, 0.00, 0.00
236, 95781.49, 133403.19, 20337.47, 16829.03, 6953.38, 27919.70, 99664.81, 72448.88, 0.00, 0.00, 0.00
237, 95776.51, 133423.09, 20337.09, 16836.14, 6955.88, 27920.55, 99668.75, 72447.27, 0.00, 0.00, 0.00
238, 95777.76, 133415.72, 20336.49, 16833.34, 6964.38, 27926.09, 99673.11, 72448.44, 0.00, 0.00, 0.00
239, 95782.12, 133428.69, 20336.82, 16832.23, 6963.44, 27927.39, 99687.99, 72452.87, 0.08, -0.21, 0.98
240, 95782.67, 133468.78, 20336.82, 16819.40, 6954.63, 27922.22, 99694.88, 72450.67, 0.00, 0.00, 0.00
241, 95780.10, 133479.05, 20334.12, 16813.34, 6941.76, 27910.49, 99666.42, 72448.23, 0.00, 0.00, 0.00
242, 95784.20, 133498.09, 20344.91, 16837.99, 6945.49, 27911.72, 99664.57, 72452.23, 0.00, 0.00, 0.00
243, 95784.22, 133486.80, 20336.53, 16830.06, 6944.31, 27907.89, 99668.91, 72449.29, 0.00, 0.00, 0.00
244, 95782.30, 133432.89, 20331.91, 16824.07, 6941.42, 27907.92, 99674.47, 72448.46, 0.00, 0.00, 0.00
245, 95777.45, 133431.13, 20324.87, 16812.94, 6915.99, 27899.51, 99665.91, 72445.06, 0.00, 0.00, 0.00
246, 95778.56, 133438.44, 20326.36, 16814.50, 6926.81, 27904.59, 99676.15, 72444.05, 0.00, 0.00, 0.00
247, 95790.43, 133471.89, 20338.97, 16819.15, 6967.24, 27917.84, 99678.18, 72458.19, 0.00, 0.00, 0.00
248, 95785.00, 133448.50, 20338.48, 16825.50, 6958.25, 27915.63, 99670.43, 72454.09, 0.00, 0.00, 0.00
249, 95784.17, 133448.92, 20331.59, 16817.03, 6951.59, 27914.85, 99686.52, 72450.14, 0.08, -0.20, 0.98
250, 95792.16, 133489.16, 20340.96, 16833.61, 6955.42, 27920.77, 99686.23, 72459.91, 0.00, 0.00, 0.00
251, 95790.09, 133450.28, 20339.35, 16836.54, 6952.67, 27915.38, 99674.45, 72455.21, 0.00, 0.00, 0.00
252, 95779.01, 133399.34, 20323.64, 16816.58, 6943.21, 27905.30, 99652.48, 72445.55, 0.00, 0.00, 0.00
253, 95787.86, 133436.02, 20333.02, 16817.34, 6948.53, 27912.92, 99660.26, 72453.98, 0.00, 0.00, 0.00
254, 95784.95, 133447.80, 20331.88, 16820.80, 6948.35, 27913.66, 99672.80, 72449.18, 0.00, 0.00, 0.00
255, 95777.91, 133427.91, 20316.46, 16815.82, 6934.87, 27902.33, 99683.50, 72443.14, 0.00, 0.00, 0.00
0, 95789.98, 133480.72, 20331.17, 16826.93, 6943.84, 27911.92, 99687.55, 72456.71, 0.00, 0.00, 0.00
1, 95791.77, 133481.27, 20335.59, 16825.61, 6943.08, 27912.05, 99681.98, 72458.92, 0.00, 0.00, 0.00
2, 95793.27, 133460.14, 20335.19, 16824.47, 6950.68, 27916.01, 99668.75, 72460.42, 0.00, 0.00, 0.00
3, 95794.63, 133507.34, 20330.99, 16810.19, 6949.72, 27915.07, 99668.30, 72461.20, 0.08, -0.21, 0.98
4, 95789.36, 133434.23, 20329.04, 16815.37, 6940.33, 27906.24, 99675.30, 72459.28, 0.00, 0.00, 0.00
5, 95781.89, 133401.75, 20327.77, 16820.60, 6933.96, 27899.92, 99680.53, 72455.14, 0.00, 0.00, 0.00
6, 95765.89, 133456.25, 20321.18, 16804.69, 6925.42, 27891.38, 99692.91, 72442.00, 0.00, 0.00, 0.00
7, 95778.18, 133490.42, 20325.87, 16804.80, 6935.23, 27905.41, 99674.56, 72456.15, 0.00, 0.00, 0.00
8, 95791.51, 133477.03, 20333.58, 16819.71, 6950.81, 27918.20, 99676.44, 72462.41, 0.00, 0.00, 0.00
9, 95787.98, 133413.83, 20322.41, 16804.85, 6939.72, 27912.14, 99661.93, 72455.39, 0.00, 0.00, 0.00
10, 95793.90, 133468.03, 20326.01, 16809.32, 6930.14, 27916.50, 99687.13, 72464.45, 0.00, 0.00, 0.00
11, 95789.90, 133560.08, 20329.27, 16823.11, 6934.96, 27914.06, 99689.65, 72459.73, 0.00, 0.00, 0.00
12, 95765.30, 133541.52, 20309.38, 16798.56, 6943.48, 27893.66, 99656.08, 72432.59, 0.00, 0.00, 0.00
13, 95790.70, 133434.66, 20322.18, 16807.46, 6946.32, 27908.86, 99674.09, 72463.66, 0.08, -0.21, 0.98
14, 95785.78, 133352.88, 20315.86, 16807.01, 6940.60, 27911.43, 99693.45, 72467.68, 0.00, 0.00, 0.00
15, 95778.49, 133345.66, 20306.40, 16792.96, 6929.24, 27902.60, 99693.59, 72459.32, 0.00, 0.00, 0.00
16, 95775.70, 133394.25, 20301.17, 16779.16, 6919.45, 27892.99, 99674.61, 72450.95, 0.00, 0.00, 0.00
17, 95771.97, 133422.66, 20306.20, 16786.45, 6921.53, 27890.60, 99647.96, 72444.46, 0.00, 0.00, 0.00
18, 95767.72, 133444.56, 20308.82, 16794.05, 6923.85, 27894.26, 99649.84, 72442.13, 0.00, 0.00, 0.00
19, 95773.66, 133490.83, 20314.18, 16806.37, 6926.29, 27898.96, 99668.50, 72447.45, 0.00, 0.00, 0.00
20, 95778.20, 133490.00, 20311.97, 16802.23, 6925.75, 27900.77, 99700.18, 72451.86, 0.00, 0.00, 0.00
21, 95777.84, 133437.97, 20315.90, 16804.13, 6931.61, 27900.25, 99695.10, 72456.13, 0.00, 0.00, 0.00
22, 95777.98, 133438.91, 20317.87, 16801.92, 6938.34, 27899.47, 99664.59, 72454.74, 0.00, 0.00, 0.00
23, 95774.52, 133402.72, 20305.73, 16789.00, 6928.15, 27890.24, 99669.17, 72447.66, 0.07, -0.21, 0.98
24, 95781.83, 133451.05, 20319.57, 16807.53, 6928.95, 27895.27, 99669.53, 72455.05, 0.00, 0.00, 0.00
25, 95779.37, 133455.11, 20322.12, 16799.84, 6924.15, 27894.08, 99665.73, 72453.94, 0.00, 0.00, 0.00
26, 95775.08, 133397.02, 20310.00, 16789.94, 6928.08, 27893.72, 99677.27, 72448.51, 0.00, 0.00, 0.00
27, 95772.02, 133383.88, 20299.12, 16785.27, 6928.59, 27891.78, 99664.59, 72448.55, 0.00, 0.00, 0.00
28, 95780.10, 133435.58, 20310.69, 16798.03, 6936.73, 27899.25, 99668.39, 72456.26, 0.00, 0.00, 0.00
29, 95778.67, 133446.41, 20304.90, 16786.56, 6923.16, 27890.57, 99670.00, 72452.64, 0.00, 0.00, 0.00
30, 95780.71, 133450.86, 20311.28, 16791.39, 6922.07, 27889.81, 99686.48, 72456.59, 0.00, 0.00, 0.00
31, 95774.05, 133425.30, 20309.49, 16796.46, 6924.70, 27886.62, 99693.91, 72447.73, 0.00, 0.00, 0.00
32, 95777.80, 133448.50, 20307.65, 16788.06, 6924.79, 27888.52, 99696.22, 72450.98, 0.00, 0.00, 0.00
33, 95782.09, 133483.58, 20314.14, 16792.71, 6929.85, 27892.54, 99680.69, 72457.27, 0.07, -0.21, 0.98
34, 95766.45, 133442.44, 20297.02, 16778.65, 6908.88, 27876.38, 99655.05, 72439.14, 0.00, 0.00, 0.00
35, 95778.43, 133420.53, 20300.97, 16783.34, 6907.49, 27882.79, 99689.29, 72450.63, 0.00, 0.00, 0.00
36, 95781.54, 133415.61, 20306.69, 16794.97, 6900.48, 27883.22, 99683.19, 72457.18, 0.00, 0.00, 0.00
37, 95773.29, 133416.27, 20300.66, 16783.61, 6923.43, 27881.10, 99660.75, 72450.90, 0.00, 0.00, 0.00
38, 95772.17, 133441.20, 20298.51, 16772.30, 6933.20, 27882.15, 99661.55, 72450.92, 0.00, 0.00, 0.00
39, 95776.06, 133496.81, 20313.06, 16786.58, 6929.17, 27883.38, 99675.77, 72453.80, 0.00, 0.00, 0.00
40, 95774.31, 133540.92, 20309.71, 16776.46, 6920.75, 27876.40, 99682.43, 72451.03, 0.00, 0.00, 0.00
41, 95775.39, 133405.67, 20309.06, 16785.87, 6928.91, 27883.64, 99689.78, 72453.47, 0.00, 0.00, 0.00
42, 95765.64, 133365.23, 20300.37, 16789.45, 6928.21, 27880.29, 99683.63, 72444.51, 0.00, 0.00, 0.00
43, 95767.27, 133368.94, 20297.55, 16789.47, 6930.99, 27882.84, 99679.68, 72445.96, 0.08, -0.21, 0.98
44, 95767.16, 133419.55, 20297.39, 16784.19, 6927.61, 27880.40, 99665.71, 72447.57, 0.00, 0.00, 0.00
45, 95771.19, 133459.25, 20309.91, 16796.06, 6932.68, 27886.57, 99683.55, 72451.77, 0.00, 0.00, 0.00
46, 95770.49, 133437.30, 20319.43, 16810.54, 6939.08, 27889.30, 99684.04, 72450.41, 0.00, 0.00, 0.00
47, 95763.30, 133454.28, 20313.53, 16796.08, 6935.30, 27887.13, 99682.83, 72441.95, 0.00, 0.00, 0.00
48, 95763.07, 133452.45, 20309.24, 16791.95, 6932.86, 27886.28, 99662.06, 72443.55, 0.00, 0.00, 0.00
49, 95763.12, 133405.64, 20300.66, 16792.11, 6929.85, 27882.71, 99656.48, 72443.48, 0.00, 0.00, 0.00
50, 95769.22, 133460.41, 20310.40, 16803.79, 6936.66, 27890.44, 99669.15, 72448.13, 0.00, 0.00, 0.00
51, 95766.90, 133446.03, 20312.84, 16802.10, 6941.33, 27892.14, 99677.55, 72444.15, 0.00, 0.00, 0.00
52, 95747.47, 133364.45, 20286.93, 16778.92, 6926.00, 27873.12, 99648.90, 72425.62, 0.00, 0.00, 0.00
53, 95758.54, 133387.73, 20294.27, 16786.58, 6934.32, 27882.04, 99659.61, 72437.80, 0.07, -0.21, 0.98
54, 95772.75, 133465.38, 20309.82, 16794.29, 6939.10, 27892.52, 99698.48, 72453.16, 0.00, 0.00, 0.00
55, 95765.71, 133464.55, 20311.37, 16794.54, 6931.03, 27882.82, 99691.28, 72447.09, 0.00, 0.00, 0.00
56, 95774.49, 133477.86, 20322.16, 16807.46, 6946.01, 27894.66, 99703.55, 72455.23, 0.00, 0.00, 0.00
57, 95777.06, 133512.95, 20326.47, 16812.11, 6951.82, 27896.61, 99724.43, 72460.62, 0.00, 0.00, 0.00
58, 95767.61, 133395.67, 20314.11, 16799.39, 6941.13, 27887.91, 99685.83, 72447.66, 0.00, 0.00, 0.00
59, 95763.38, 133341.98, 20301.62, 16788.98, 6929.51, 27878.17, 99676.98, 72441.35, 0.00, 0.00, 0.00
60, 95756.73, 133367.22, 20301.40, 16783.88, 6924.37, 27873.85, 99660.03, 72433.33, 0.00, 0.00, 0.00
61, 95751.72, 133408.50, 20298.83, 16774.20, 6929.69, 27875.69, 99669.84, 72431.61, 0.00, 0.00, 0.00
62, 95750.76, 133435.58, 20300.86, 16780.64, 6931.34, 27877.16, 99665.73, 72432.57, 0.00, 0.00, 0.00
63, 95750.02, 133449.47, 20309.22, 16800.24, 6936.71, 27874.03, 99666.52, 72429.35, 0.08, -0.21, 0.98
64, 95752.43, 133449.44, 20312.44, 16793.45, 6928.97, 27873.16, 99677.76, 72429.95, 0.00, 0.00, 0.00
65, 95763.09, 133424.47, 20312.75, 16791.75, 6919.03, 27880.74, 99705.72, 72442.25, 0.00, 0.00, 0.00
66, 95764.26, 133454.23, 20305.11, 16783.61, 6919.50, 27879.58, 99699.91, 72445.17, 0.00, 0.00, 0.00
67, 95762.31, 133416.53, 20300.99, 16787.68, 6946.77, 27879.73, 99675.73, 72441.76, 0.00, 0.00, 0.00
68, 95775.23, 133398.97, 20315.61, 16795.53, 6953.07, 27891.22, 99687.08, 72452.91, 0.00, 0.00, 0.00
69, 95773.16, 133434.36, 20315.46, 16789.98, 6944.82, 27886.93, 99692.04, 72453.94, 0.00, 0.00, 0.00
70, 95771.77, 133412.59, 20300.81, 16777.22, 6934.05, 27883.11, 99687.86, 72452.82, 0.00, 0.00, 0.00
71, 95777.94, 133435.44, 20303.29, 16788.89, 6938.52, 27887.85, 99714.21, 72457.38, 0.00, 0.00, 0.00
72, 95781.09, 133468.09, 20313.00, 16794.34, 6943.70, 27893.99, 99736.81, 72465.16, 0.00, 0.00, 0.00
73, 95768.86, 133456.94, 20299.18, 16771.09, 6929.69, 27882.59, 99676.33, 72452.53, 0.08, -0.21, 0.98
74, 95744.23, 133416.58, 20272.49, 16750.58, 6898.51, 27855.03, 99652.52, 72425.80, 0.00, 0.00, 0.00
75, 95781.18, 133443.16, 20308.93, 16794.74, 6930.05, 27889.30, 99699.59, 72460.71, 0.00, 0.00, 0.00
76, 95781.42, 133441.25, 20311.77, 16794.72, 6938.76, 27894.73, 99725.10, 72460.55, 0.00, 0.00, 0.00
77, 95775.14, 133437.47, 20304.75, 16784.06, 6936.55, 27892.16, 99717.52, 72457.60, 0.00, 0.00, 0.00
78, 95774.34, 133441.50, 20302.22, 16777.58, 6931.39, 27888.58, 99683.70, 72459.41, 0.00, 0.00, 0.00
79, 95775.68, 133415.84, 20302.45, 16778.85, 6925.98, 27887.22, 99693.09, 72462.59, 0.00, 0.00, 0.00
80, 95773.66, 133446.13, 20302.67, 16776.64, 6903.29, 27880.58, 99700.09, 72458.67, 0.00, 0.00, 0.00
81, 95764.86, 133434.28, 20287.87, 16770.16, 6915.38, 27870.41, 99699.48, 72445.24, 0.00, 0.00, 0.00
82, 95770.18, 133432.48, 20293.08, 16776.57, 6932.75, 27880.36, 99712.16, 72454.14, 0.00, 0.00, 0.00
83, 95789.94, 133490.16, 20311.52, 16788.86, 6944.55, 27897.79, 99704.27, 72474.59, 0.09, -0.21, 0.97
84, 95777.11, 133481.16, 20304.53, 16787.08, 6930.25, 27886.97, 99686.66, 72457.65, 0.00, 0.00, 0.00
85, 95767.90, 133461.86, 20297.57, 16776.86, 6915.47, 27875.53, 99689.02, 72450.45, 0.00, 0.00, 0.00
86, 95774.80, 133470.64, 20307.16, 16782.43, 6927.68, 27882.84, 99704.29, 72456.77, 0.00, 0.00, 0.00
87, 95766.54, 133383.67, 20294.40, 16777.38, 6921.62, 27875.82, 99704.16, 72450.18, 0.00, 0.00, 0.00
88, 95775.41, 133387.94, 20297.69, 16787.25, 6930.69, 27886.26, 99695.52, 72461.70, 0.00, 0.00, 0.00
89, 95780.26, 133434.02, 20309.31, 16798.72, 6932.82, 27891.91, 99709.79, 72468.06, 0.00, 0.00, 0.00
90, 95771.88, 133449.59, 20300.99, 16777.73, 6927.72, 27883.80, 99687.08, 72458.07, 0.00, 0.00, 0.00
91, 95774.45, 133480.45, 20305.40, 16782.43, 6935.39, 27888.54, 99715.78, 72459.39, 0.00, 0.00, 0.00
92, 95777.53, 133443.73, 20304.12, 16792.66, 6939.84, 27891.94, 99709.01, 72463.26, 0.00, 0.00, 0.00
93, 95766.36, 133378.42, 20287.36, 16786.58, 6920.50, 27876.40, 99652.43, 72451.52, 0.09, -0.21, 0.98
94, 95769.96, 133395.23, 20294.65, 16794.79, 6921.42, 27883.06, 99665.84, 72456.44, 0.00, 0.00, 0.00
95, 95790.92, 133477.61, 20314.63, 16803.57, 6936.89, 27898.40, 99713.09, 72475.06, 0.00, 0.00, 0.00
96, 95784.76, 133488.56, 20312.44, 16800.82, 6934.47, 27889.79, 99744.25, 72464.11, 0.00, 0.00, 0.00
97, 95768.10, 133428.59, 20299.16, 16789.89, 6924.32, 27877.43, 99702.26, 72451.12, 0.00, 0.00, 0.00
98, 95768.39, 133397.98, 20297.75, 16781.78, 6919.52, 27878.32, 99691.99, 72453.20, 0.00, 0.00, 0.00
99, 95772.28, 133416.78, 20294.47, 16779.70, 6914.15, 27874.44, 99691.98, 72454.38, 0.00, 0.00, 0.00
100, 95773.00, 133470.39, 20301.17, 16780.88, 6911.09, 27870.48, 99652.99, 72450.25, 0.00, 0.00, 0.00
101, 95789.67, 133502.20, 20320.39, 16799.03, 6914.31, 27883.64, 99667.37, 72465.94, 0.00, 0.00, 0.00
102, 95784.98, 133440.38, 20304.64, 16793.33, 6944.22, 27885.79, 99692.94, 72461.02, 0.00, 0.00, 0.00
103, 95783.73, 133354.73, 20294.31, 16787.48, 6941.36, 27885.57, 99692.89, 72459.73, 0.09, -0.22, 0.98
104, 95781.71, 133396.97, 20295.81, 16778.16, 6933.58, 27884.20, 99696.64, 72456.13, 0.00, 0.00, 0.00
105, 95783.37, 133457.20, 20303.41, 16781.85, 6930.67, 27882.10, 99678.96, 72461.91, 0.00, 0.00, 0.00
106, 95781.78, 133504.11, 20305.75, 16799.73, 6929.85, 27881.54, 99667.66, 72461.85, 0.00, 0.00, 0.00
107, 95774.49, 133439.44, 20294.13, 16782.56, 6922.80, 27876.74, 99683.45, 72447.79, 0.00, 0.00, 0.00
108, 95790.34, 133380.39, 20302.58, 16782.56, 6934.49, 27890.35, 99714.05, 72462.30, 0.00, 0.00, 0.00
109, 95787.59, 133397.36, 20301.48, 16782.43, 6932.80, 27887.91, 99702.88, 72459.41, 0.00, 0.00, 0.00
110, 95777.91, 133408.59, 20293.77, 16771.54, 6918.94, 27876.65, 99684.28, 72451.41, 0.00, 0.00, 0.00
111, 95773.49, 133419.14, 20293.57, 16782.27, 6913.17, 27871.17, 99692.94, 72447.23, 0.00, 0.00, 0.00
112, 95776.10, 133432.27, 20290.64, 16782.94, 6918.02, 27875.37, 99653.30, 72450.85, 0.00, 0.00, 0.00
113, 95792.55, 133445.25, 20308.10, 16805.76, 6944.75, 27891.76, 99678.74, 72467.05, 0.09, -0.21, 0.98
114, 95791.30, 133457.61, 20310.20, 16803.91, 6936.55, 27889.43, 99690.14, 72463.19, 0.00, 0.00, 0.00
115, 95785.72, 133493.98, 20309.78, 16792.89, 6927.23, 27882.86, 99691.55, 72461.20, 0.00, 0.00, 0.00
116, 95779.81, 133469.33, 20303.90, 16785.85, 6919.61, 27872.31, 99669.06, 72456.26, 0.00, 0.00, 0.00
117, 95783.55, 133470.70, 20311.61, 16792.55, 6929.13, 27877.83, 99690.25, 72458.43, 0.00, 0.00, 0.00
118, 95782.67, 133427.58, 20302.45, 16783.79, 6926.85, 27876.89, 99697.27, 72457.67, 0.00, 0.00, 0.00
119, 95769.09, 133372.72, 20283.60, 16777.87, 6915.56, 27869.85, 99673.87, 72447.21, 0.00, 0.00, 0.00
120, 95781.31, 133380.39, 20293.15, 16790.41, 6910.44, 27880.87, 99674.98, 72459.84, 0.00, 0.00, 0.00
121, 95777.40, 133417.06, 20291.23, 16777.84, 6911.81, 27878.35, 99703.02, 72458.85, 0.00, 0.00, 0.00
122, 95775.21, 133423.38, 20292.43, 16775.68, 6945.54, 27882.21, 99715.95, 72455.16, 0.00, 0.00, 0.00
123, 95767.68, 133413.78, 20284.81, 16770.58, 6928.84, 27873.23, 99648.16, 72447.41, 0.08, -0.21, 0.98
124, 95778.36, 133432.80, 20295.47, 16777.20, 6927.72, 27880.71, 99644.19, 72458.84, 0.00, 0.00, 0.00
125, 95785.52, 133459.72, 20300.99, 16778.92, 6935.43, 27885.07, 99682.67, 72469.12, 0.00, 0.00, 0.00
126, 95785.73, 133457.34, 20306.31, 16796.35, 6939.08, 27881.39, 99676.44, 72470.14, 0.00, 0.00, 0.00
127, 95788.64, 133476.48, 20311.21, 16802.50, 6943.59, 27890.17, 99682.95, 72470.97, 0.00, 0.00, 0.00
128, 95786.37, 133489.03, 20304.06, 16789.82, 6936.98, 27889.25, 99692.94, 72467.70, 0.00, 0.00, 0.00
129, 95781.76, 133455.28, 20298.83, 16781.58, 6927.72, 27881.34, 99669.42, 72463.34, 0.00, 0.00, 0.00
130, 95777.84, 133392.84, 20291.00, 16776.66, 6925.60, 27880.13, 99680.13, 72462.79, 0.00, 0.00, 0.00
131, 95776.22, 133401.20, 20290.89, 16780.30, 6930.78, 27884.16, 99723.94, 72460.42, 0.00, 0.00, 0.00
132, 95754.71, 133391.25, 20267.55, 16755.83, 6910.02, 27861.00, 99669.95, 72442.38, 0.00, 0.00, 0.00
133, 95787.70, 133453.30, 20307.77, 16800.17, 6939.30, 27890.93, 99650.84, 72473.25, 0.08, -0.21, 0.98
134, 95793.85, 133490.06, 20321.00, 16805.36, 6946.83, 27901.41, 99684.55, 72479.59, 0.00, 0.00, 0.00
135, 95781.29, 133457.97, 20305.15, 16784.77, 6927.34, 27882.30, 99694.16, 72464.78, 0.00, 0.00, 0.00
136, 95784.44, 133444.78, 20301.08, 16789.96, 6932.84, 27879.62, 99700.16, 72467.05, 0.00, 0.00, 0.00
137, 95790.52, 133451.56, 20308.59, 16788.62, 6945.98, 27892.56, 99694.05, 72473.14, 0.00, 0.00, 0.00
138, 95785.02, 133419.75, 20304.30, 16786.54, 6935.50, 27889.23, 99678.25, 72466.88, 0.00, 0.00, 0.00
139, 95786.43, 133407.36, 20300.23, 16790.92, 6934.63, 27883.58, 99675.01, 72465.56, 0.00, 0.00, 0.00
140, 95786.74, 133424.78, 20296.41, 16788.98, 6925.60, 27883.15, 99686.07, 72466.14, 0.00, 0.00, 0.00
141, 95780.71, 133459.73, 20293.66, 16779.01, 6913.66, 27875.78, 99688.87, 72462.25, 0.00, 0.00, 0.00
142, 95787.91, 133471.61, 20302.27, 16783.83, 6957.83, 27889.90, 99665.17, 72469.36, 0.00, 0.00, 0.00
143, 95775.45, 133445.81, 20291.61, 16776.84, 6942.61, 27881.61, 99660.01, 72460.13, 0.08, -0.21, 0.98
144, 95775.16, 133423.13, 20292.92, 16774.00, 6934.99, 27883.89, 99694.61, 72456.93, 0.00, 0.00, 0.00
145, 95772.73, 133405.44, 20286.33, 16770.45, 6926.65, 27881.74, 99715.78, 72455.39, 0.00, 0.00, 0.00
146, 95787.13, 133461.95, 20303.81, 16790.79, 6946.94, 27896.09, 99720.61, 72471.98, 0.00, 0.00, 0.00
147, 95782.50, 133518.09, 20302.49, 16779.45, 6943.66, 27890.19, 99682.97, 72460.24, 0.00, 0.00, 0.00
148, 95777.31, 133449.66, 20299.23, 16786.85, 6941.67, 27886.33, 99677.73, 72457.71, 0.00, 0.00, 0.00
149, 95769.13, 133365.83, 20291.54, 16793.36, 6931.01, 27876.40, 99691.21, 72453.27, 0.00, 0.00, 0.00
150, 95778.52, 133422.77, 20296.75, 16789.62, 6934.43, 27882.66, 99701.83, 72460.28, 0.00, 0.00, 0.00
151, 95782.12, 133471.47, 20303.83, 16790.25, 6939.72, 27883.38, 99670.25, 72459.97, 0.00, 0.00, 0.00
152, 95781.78, 133484.45, 20307.79, 16788.86, 6940.66, 27891.02, 99681.87, 72460.51, 0.00, 0.00, 0.00
153, 95775.59, 133447.59, 20293.62, 16777.80, 6927.90, 27876.92, 99679.16, 72458.50, 0.08, -0.20, 0.97
154, 95764.91, 133398.14, 20275.80, 16762.78, 6916.32, 27862.21, 99665.17, 72447.16, 0.00, 0.00, 0.00
155, 95767.14, 133422.16, 20281.32, 16777.58, 6915.27, 27862.88, 99682.41, 72449.18, 0.00, 0.00, 0.00
156, 95780.48, 133470.42, 20298.11, 16786.25, 6940.02, 27883.26, 99676.22, 72457.58, 0.00, 0.00, 0.00
157, 95774.20, 133474.05, 20294.06, 16776.55, 6935.97, 27882.06, 99692.38, 72450.88, 0.00, 0.00, 0.00
158, 95771.50, 133438.88, 20288.25, 16785.06, 6930.92, 27878.73, 99705.49, 72449.65, 0.00, 0.00, 0.00
159, 95773.78, 133431.38, 20284.99, 16779.14, 6917.35, 27881.36, 99710.86, 72451.48, 0.00, 0.00, 0.00
160, 95772.23, 133437.63, 20286.17, 16773.29, 6929.24, 27879.87, 99705.95, 72451.34, 0.00, 0.00, 0.00
161, 95767.86, 133397.47, 20290.49, 16784.44, 6948.04, 27876.33, 99634.35, 72448.75, 0.00, 0.00, 0.00
162, 95773.00, 133438.23, 20296.75, 16791.30, 6950.86, 27886.01, 99675.21, 72453.38, 0.08, -0.20, 0.98
163, 95775.91, 133456.16, 20297.51, 16786.03, 6949.45, 27892.14, 99708.11, 72462.03, 0.00, 0.00, 0.00
164, 95769.47, 133424.44, 20291.34, 16781.67, 6938.07, 27889.23, 99708.06, 72453.47, 0.00, 0.00, 0.00
165, 95777.40, 133455.73, 20301.35, 16789.94, 6943.08, 27893.23, 99699.30, 72457.00, 0.00, 0.00, 0.00
166, 95772.13, 133466.95, 20300.88, 16782.94, 6942.68, 27887.11, 99677.91, 72446.07, 0.00, 0.00, 0.00
167, 95761.89, 133477.53, 20284.77, 16769.20, 6936.22, 27883.08, 99705.14, 72438.56, 0.00, 0.00, 0.00
168, 95772.02, 133475.69, 20290.94, 16783.92, 6939.81, 27890.30, 99675.92, 72445.82, 0.00, 0.00, 0.00
169, 95761.64, 133416.02, 20279.09, 16772.48, 6931.07, 27884.25, 99662.34, 72433.26, 0.00, 0.00, 0.00
170, 95775.50, 133421.11, 20291.43, 16787.79, 6946.68, 27894.17, 99672.86, 72444.59, 0.00, 0.00, 0.00
171, 95770.94, 133414.00, 20283.78, 16774.71, 6934.36, 27883.20, 99684.84, 72443.72, 0.00, 0.00, 0.00
172, 95779.66, 133446.38, 20296.14, 16777.58, 6947.68, 27892.21, 99691.88, 72452.73, 0.08, -0.20, 0.97
173, 95770.88, 133453.23, 20283.83, 16768.90, 6938.72, 27884.76, 99681.76, 72443.55, 0.00, 0.00, 0.00
174, 95773.16, 133408.44, 20281.03, 16776.64, 6938.61, 27886.66, 99669.30, 72449.42, 0.00, 0.00, 0.00
175, 95775.26, 133425.02, 20286.29, 16784.21, 6940.57, 27892.36, 99707.38, 72450.77, 0.00, 0.00, 0.00
176, 95763.32, 133441.47, 20275.18, 16762.53, 6931.68, 27884.63, 99715.91, 72434.24, 0.00, 0.00, 0.00
177, 95776.10, 133476.09, 20289.15, 16768.55, 6945.22, 27895.00, 99701.16, 72450.36, 0.00, 0.00, 0.00
178, 95780.44, 133501.06, 20305.80, 16795.10, 6951.46, 27898.57, 99659.30, 72453.83, 0.00, 0.00, 0.00
179, 95765.09, 133437.73, 20292.14, 16780.88, 6929.82, 27882.66, 99654.45, 72437.73, 0.00, 0.00, 0.00
180, 95773.65, 133428.95, 20290.69, 16785.06, 6928.39, 27881.19, 99688.40, 72444.66, 0.00, 0.00, 0.00
181, 95772.51, 133435.23, 20285.57, 16786.52, 6936.95, 27882.84, 99689.42, 72439.34, 0.00, 0.00, 0.00
182, 95761.66, 133405.73, 20273.39, 16767.85, 6928.79, 27873.47, 99681.29, 72429.10, 0.08, -0.21, 0.98
183, 95766.80, 133415.50, 20279.60, 16765.82, 6927.01, 27877.36, 99662.06, 72435.72, 0.00, 0.00, 0.00
184, 95778.85, 133438.23, 20291.67, 16782.52, 6920.12, 27886.48, 99677.47, 72448.57, 0.00, 0.00, 0.00
185, 95771.61, 133430.23, 20287.98, 16778.74, 6940.08, 27884.16, 99688.98, 72446.13, 0.00, 0.00, 0.00
186, 95772.28, 133437.09, 20284.30, 16763.49, 6944.24, 27878.30, 99687.41, 72442.59, 0.00, 0.00, 0.00
187, 95777.65, 133465.86, 20295.81, 16779.57, 6946.45, 27885.77, 99699.13, 72443.84, 0.00, 0.00, 0.00
188, 95764.75, 133442.77, 20279.47, 16764.50, 6929.26, 27872.24, 99695.73, 72435.36, 0.00, 0.00, 0.00
189, 95775.84, 133456.09, 20288.70, 16774.85, 6936.06, 27880.25, 99697.74, 72451.63, 0.00, 0.00, 0.00
190, 95782.66, 133485.64, 20299.09, 16789.91, 6946.12, 27888.74, 99714.99, 72456.28, 0.00, 0.00, 0.00
191, 95771.09, 133449.97, 20287.40, 16777.06, 6931.16, 27881.23, 99673.16, 72445.38, 0.00, 0.00, 0.00
192, 95770.31, 133404.80, 20283.56, 16779.70, 6934.49, 27884.56, 99655.72, 72441.30, 0.09, -0.21, 0.98
193, 95777.53, 133422.61, 20283.49, 16776.84, 6936.89, 27877.16, 99671.97, 72449.02, 0.00, 0.00, 0.00
194, 95785.40, 133473.34, 20294.80, 16785.51, 6940.06, 27883.78, 99679.26, 72458.01, 0.00, 0.00, 0.00
195, 95777.71, 133456.55, 20288.92, 16776.48, 6928.68, 27873.99, 99706.97, 72449.16, 0.00, 0.00, 0.00
196, 95763.56, 133386.11, 20273.05, 16767.45, 6920.86, 27867.33, 99682.52, 72437.38, 0.00, 0.00, 0.00
197, 95756.28, 133400.22, 20263.26, 16750.22, 6919.36, 27864.55, 99674.77, 72428.95, 0.00, 0.00, 0.00
198, 95757.46, 133416.84, 20266.59, 16750.46, 6922.09, 27862.86, 99694.21, 72430.55, 0.00, 0.00, 0.00
199, 95785.20, 133453.98, 20301.15, 16798.32, 6935.25, 27886.46, 99711.27, 72460.44, 0.00, 0.00, 0.00
200, 95777.80, 133453.45, 20293.48, 16788.44, 6923.85, 27890.42, 99721.01, 72452.41, 0.00, 0.00, 0.00
201, 95779.10, 133475.81, 20292.41, 16781.31, 6951.17, 27890.77, 99690.25, 72453.42, 0.00, 0.00, 0.00
202, 95765.06, 133452.45, 20284.05, 16768.57, 6949.36, 27880.11, 99642.30, 72435.32, 0.07, -0.20, 0.98
203, 95772.44, 133461.80, 20281.10, 16769.62, 6944.71, 27883.29, 99660.52, 72442.38, 0.00, 0.00, 0.00
204, 95775.91, 133472.56, 20283.27, 16775.88, 6939.46, 27878.97, 99701.95, 72443.81, 0.00, 0.00, 0.00
205, 95771.77, 133399.56, 20278.44, 16764.46, 6929.22, 27875.66, 99709.30, 72438.52, 0.00, 0.00, 0.00
206, 95770.45, 133431.95, 20281.06, 16779.07, 6933.20, 27871.73, 99713.37, 72437.06, 0.00, 0.00, 0.00
207, 95774.72, 133451.20, 20286.64, 16782.07, 6939.97, 27892.14, 99791.38, 72447.61, 0.00, 0.00, 0.00
208, 95775.21, 133422.45, 20287.58, 16772.82, 6949.94, 27893.43, 99620.52, 72442.25, 0.00, 0.00, 0.00
209, 95769.29, 133415.39, 20276.85, 16774.25, 6936.93, 27895.56, 99710.97, 72437.82, 0.00, 0.00, 0.00
210, 95768.59, 133434.41, 20273.68, 16774.22, 6920.12, 27865.79, 99861.29, 72443.90, 0.00, 0.00, 0.00
211, 95782.56, 133475.88, 20287.34, 16775.32, 6940.62, 27893.54, 99601.34, 72450.98, 0.00, 0.00, 0.00
212, 95776.08, 133460.66, 20275.00, 16770.16, 6935.57, 27879.96, 99633.97, 72446.20, 0.09, -0.21, 0.98
213, 95784.06, 133431.50, 20277.95, 16777.38, 6940.17, 27886.44, 99632.56, 72447.37, 0.00, 0.00, 0.00
214, 95786.63, 133418.77, 20277.75, 16774.07, 6933.35, 27886.39, 99684.80, 72446.67, 0.00, 0.00, 0.00
215, 95783.21, 133429.84, 20273.68, 16763.67, 6908.79, 27880.74, 99704.69, 72449.55, 0.00, 0.00, 0.00
216, 95781.55, 133443.52, 20270.82, 16761.86, 6927.23, 27875.82, 99679.57, 72444.33, 0.00, 0.00, 0.00
217, 95770.05, 133437.94, 20265.70, 16761.35, 6931.19, 27869.00, 99675.16, 72434.29, 0.00, 0.00, 0.00
218, 95773.55, 133443.95, 20270.66, 16763.21, 6925.87, 27867.55, 99682.09, 72442.02, 0.00, 0.00, 0.00
219, 95777.24, 133419.88, 20271.04, 16765.84, 6922.98, 27869.70, 99692.06, 72446.31, 0.00, 0.00, 0.00
220, 95777.02, 133435.02, 20271.00, 16767.12, 6924.59, 27874.05, 99706.23, 72445.89, 0.00, 0.00, 0.00
221, 95775.70, 133443.69, 20268.81, 16762.51, 6923.05, 27870.75, 99747.74, 72441.53, 0.00, 0.00, 0.00
222, 95770.65, 133418.45, 20266.91, 16761.53, 6924.26, 27872.94, 99784.76, 72437.55, 0.08, -0.22, 0.98
223, 95769.94, 133459.06, 20270.86, 16764.08, 6924.44, 27873.05, 99712.16, 72433.09, 0.00, 0.00, 0.00
224, 95782.52, 133463.63, 20275.07, 16764.61, 6924.53, 27874.14, 99721.70, 72447.16, 0.00, 0.00, 0.00
225, 95769.38, 133405.83, 20256.92, 16744.81, 6912.99, 27857.51, 99698.57, 72440.05, 0.00, 0.00, 0.00
226, 95776.80, 133435.19, 20266.91, 16755.00, 6916.86, 27859.21, 99767.63, 72448.88, 0.00, 0.00, 0.00
227, 95780.84, 133444.67, 20273.88, 16764.12, 6936.66, 27889.46, 99685.09, 72454.88, 0.00, 0.00, 0.00
228, 95774.41, 133423.61, 20268.61, 16766.45, 6932.48, 27886.17, 99723.73, 72448.13, 0.00, 0.00, 0.00
229, 95774.74, 133403.44, 20261.28, 16761.01, 6911.90, 27869.81, 99720.12, 72447.61, 0.00, 0.00, 0.00
230, 95780.04, 133431.11, 20271.31, 16770.58, 6928.12, 27879.80, 99687.28, 72447.70, 0.00, 0.00, 0.00
231, 95766.78, 133420.89, 20263.85, 16761.55, 6925.93, 27880.13, 99703.23, 72436.21, 0.00, 0.00, 0.00
232, 95762.42, 133416.42, 20259.98, 16763.70, 6924.37, 27868.56, 99732.32, 72436.37, 0.08, -0.21, 0.98
233, 95778.38, 133478.94, 20280.36, 16784.10, 6942.25, 27886.71, 99741.64, 72446.78, 0.00, 0.00, 0.00
234, 95779.86, 133460.66, 20283.18, 16782.76, 6943.44, 27889.01, 99776.20, 72447.90, 0.00, 0.00, 0.00
235, 95766.83, 133429.38, 20265.57, 16767.63, 6927.88, 27877.29, 99735.52, 72439.23, 0.00, 0.00, 0.00
236, 95764.55, 133385.19, 20269.63, 16778.87, 6934.43, 27880.92, 99690.59, 72433.93, 0.00, 0.00, 0.00
237, 95767.68, 133402.72, 20268.65, 16778.34, 6925.08, 27886.55, 99702.88, 72439.68, 0.00, 0.00, 0.00
238, 95773.96, 133456.98, 20275.04, 16778.20, 6946.92, 27891.47, 99718.23, 72449.58, 0.00, 0.00, 0.00
239, 95758.24, 133415.41, 20260.38, 16757.75, 6936.71, 27863.26, 99717.63, 72433.35, 0.00, 0.00, 0.00
240, 95765.53, 133444.53, 20266.95, 16758.96, 6937.13, 27881.83, 99705.67, 72436.77, 0.00, 0.00, 0.00
241, 95770.05, 133440.33, 20266.79, 16756.95, 6934.72, 27886.71, 99737.80, 72438.00, 0.00, 0.00, 0.00
242, 95764.26, 133387.27, 20255.33, 16755.94, 6925.53, 27868.53, 99796.04, 72437.77, 0.07, -0.21, 0.97
243, 95770.85, 133437.05, 20271.20, 16760.32, 6931.45, 27874.88, 99703.26, 72442.25, 0.00, 0.00, 0.00
244, 95774.90, 133516.70, 20277.75, 16758.69, 6930.58, 27879.78, 99715.55, 72439.63, 0.00, 0.00, 0.00
245, 95775.21, 133420.33, 20267.24, 16771.77, 6937.22, 27879.62, 99673.63, 72444.04, 0.00, 0.00, 0.00
246, 95775.95, 133412.00, 20265.25, 16780.48, 6944.87, 27885.01, 99696.51, 72446.12, 0.00, 0.00, 0.00
247, 95767.34, 133424.95, 20255.40, 16767.70, 6939.59, 27880.31, 99765.42, 72439.48, 0.00, 0.00, 0.00
248, 95775.27, 133406.22, 20267.20, 16771.61, 6945.94, 27887.22, 99756.81, 72447.12, 0.00, 0.00, 0.00
249, 95778.74, 133443.84, 20272.38, 16769.31, 6941.31, 27882.84, 99723.16, 72444.95, 0.00, 0.00, 0.00
250, 95768.05, 133438.59, 20261.30, 16758.18, 6928.46, 27875.22, 99748.70, 72437.11, 0.00, 0.00, 0.00
251, 95772.69, 133427.38, 20262.82, 16757.88, 6937.60, 27883.62, 99740.03, 72444.21, 0.00, 0.00, 0.00
252, 95767.95, 133455.13, 20261.41, 16755.72, 6939.79, 27878.95, 99719.11, 72442.07, 0.08, -0.21, 0.98
253, 95769.87, 133435.64, 20271.38, 16783.28, 6939.95, 27878.03, 99779.32, 72437.45, 0.00, 0.00, 0.00
254, 95785.65, 133447.89, 20279.11, 16790.14, 6950.52, 27892.05, 99710.03, 72450.00, 0.00, 0.00, 0.00
255, 95779.30, 133437.55, 20268.27, 16777.02, 6946.39, 27892.65, 99697.59, 72446.45, 0.00, 0.00, 0.00
0, 95776.62, 133448.20, 20266.21, 16774.22, 6940.02, 27883.08, 99753.95, 72446.18, 0.00, 0.00, 0.00
1, 95788.69, 133440.67, 20281.30, 16788.60, 6941.85, 27890.57, 99778.41, 72463.55, 0.00, 0.00, 0.00
2, 95778.38, 133384.55, 20277.81, 16778.13, 6960.40, 27892.99, 99763.48, 72453.65, 0.00, 0.00, 0.00
3, 95759.92, 133380.41, 20259.93, 16759.87, 6942.99, 27874.37, 99716.31, 72426.94, 0.00, 0.00, 0.00
4, 95776.44, 133431.80, 20277.93, 16773.40, 6949.85, 27884.98, 99783.80, 72446.52, 0.00, 0.00, 0.00
5, 95764.33, 133440.16, 20268.92, 16764.05, 6939.41, 27878.17, 99787.30, 72434.47, 0.00, 0.00, 0.00
6, 95763.90, 133418.70, 20268.40, 16757.37, 6943.41, 27890.35, 99823.63, 72441.82, 0.08, -0.21, 0.98
7, 95774.27, 133455.58, 20281.53, 16781.69, 6948.91, 27887.24, 99782.99, 72451.41, 0.00, 0.00, 0.00
8, 95771.88, 133424.91, 20278.80, 16783.28, 6945.92, 27874.17, 99699.51, 72438.38, 0.00, 0.00, 0.00
9, 95775.12, 133391.83, 20274.26, 16787.25, 6944.04, 27887.80, 99754.52, 72446.23, 0.00, 0.00, 0.00
10, 95774.02, 133386.16, 20276.23, 16776.57, 6945.54, 27884.07, 99716.56, 72441.71, 0.00, 0.00, 0.00
11, 95758.67, 133390.72, 20254.84, 16747.85, 6929.04, 27874.77, 99764.35, 72428.16, 0.00, 0.00, 0.00
12, 95774.77, 133394.56, 20268.16, 16766.76, 6943.32, 27882.10, 99778.99, 72447.43, 0.00, 0.00, 0.00
13, 95772.21, 133422.25, 20269.95, 16774.18, 6937.85, 27883.67, 99747.79, 72446.18, 0.00, 0.00, 0.00
14, 95760.44, 133396.84, 20252.49, 16751.76, 6919.47, 27869.23, 99821.77, 72438.78, 0.00, 0.00, 0.00
15, 95769.94, 133442.50, 20263.82, 16761.51, 6930.45, 27880.69, 99752.66, 72453.55, 0.00, 0.00, 0.00
16, 95779.45, 133455.09, 20273.57, 16777.62, 6943.70, 27889.92, 99753.28, 72462.52, 0.08, -0.21, 0.98
17, 95780.64, 133417.47, 20271.91, 16778.13, 6945.67, 27897.08, 99784.58, 72462.63, 0.00, 0.00, 0.00
18, 95775.19, 133380.97, 20262.73, 16770.56, 6931.86, 27884.58, 99768.84, 72460.24, 0.00, 0.00, 0.00
19, 95777.53, 133378.89, 20262.59, 16767.61, 6930.81, 27880.83, 99768.44, 72457.23, 0.00, 0.00, 0.00
20, 95771.90, 133399.14, 20261.14, 16761.33, 6937.71, 27885.12, 99769.45, 72449.11, 0.00, 0.00, 0.00
21, 95770.38, 133431.02, 20266.33, 16757.66, 6940.35, 27888.47, 99779.37, 72449.84, 0.00, 0.00, 0.00
22, 95762.09, 133411.34, 20260.20, 16751.00, 6922.67, 27881.56, 99747.77, 72443.56, 0.00, 0.00, 0.00
23, 95753.66, 133435.50, 20257.45, 16756.12, 6910.06, 27870.93, 99745.41, 72431.97, 0.00, 0.00, 0.00
24, 95744.79, 133417.63, 20252.09, 16755.25, 6932.77, 27871.51, 99718.21, 72428.34, 0.00, 0.00, 0.00
25, 95764.17, 133384.88, 20259.35, 16758.91, 6944.82, 27884.16, 99759.50, 72449.34, 0.00, 0.00, 0.00
26, 95763.23, 133366.55, 20255.08, 16751.87, 6939.50, 27882.91, 99779.19, 72446.31, 0.08, -0.21, 0.97
27, 95770.90, 133401.63, 20263.42, 16760.75, 6936.93, 27888.11, 99763.05, 72451.75, 0.00, 0.00, 0.00
28, 95767.50, 133439.78, 20265.16, 16763.45, 6926.72, 27879.64, 99778.12, 72447.19, 0.00, 0.00, 0.00
29, 95758.13, 133455.75, 20254.12, 16750.84, 6915.83, 27861.74, 99768.70, 72436.48, 0.00, 0.00, 0.00
30, 95758.38, 133403.56, 20245.85, 16739.04, 6914.87, 27859.77, 99762.98, 72435.72, 0.00, 0.00, 0.00
31, 95774.85, 133416.53, 20256.92, 16755.89, 6924.57, 27872.15, 99754.05, 72452.69, 0.00, 0.00, 0.00
32, 95773.40, 133443.91, 20259.91, 16760.43, 6928.21, 27879.17, 99723.00, 72450.12, 0.00, 0.00, 0.00
33, 95769.24, 133369.38, 20253.65, 16752.65, 6923.61, 27881.07, 99740.48, 72449.58, 0.00, 0.00, 0.00
34, 95763.85, 133384.56, 20251.30, 16749.44, 6920.61, 27877.90, 99759.32, 72442.94, 0.00, 0.00, 0.00
35, 95765.51, 133395.16, 20253.38, 16751.38, 6924.37, 27876.63, 99731.54, 72443.07, 0.00, 0.00, 0.00
36, 95764.26, 133383.63, 20253.36, 16748.16, 6926.76, 27876.85, 99741.51, 72444.77, 0.08, -0.21, 0.97
37, 95756.08, 133394.92, 20245.38, 16737.14, 6919.30, 27872.94, 99748.43, 72434.54, 0.00, 0.00, 0.00
38, 95757.02, 133417.94, 20250.88, 16747.47, 6917.08, 27872.18, 99748.75, 72433.30, 0.00, 0.00, 0.00
39, 95759.67, 133414.63, 20256.78, 16763.88, 6917.35, 27870.43, 99751.20, 72431.48, 0.00, 0.00, 0.00
40, 95760.66, 133403.72, 20252.91, 16764.66, 6924.06, 27875.49, 99739.45, 72434.83, 0.00, 0.00, 0.00
41, 95756.03, 133398.81, 20248.15, 16757.77, 6923.32, 27876.11, 99754.13, 72431.30, 0.00, 0.00, 0.00
42, 95752.70, 133380.91, 20249.47, 16758.76, 6911.92, 27873.83, 99741.73, 72424.68, 0.00, 0.00, 0.00
43, 95758.76, 133418.03, 20255.46, 16759.90, 6907.38, 27875.31, 99730.93, 72434.71, 0.00, 0.00, 0.00
44, 95759.02, 133406.03, 20253.72, 16756.99, 6935.05, 27880.09, 99761.22, 72434.89, 0.00, 0.00, 0.00
45, 95756.19, 133400.38, 20256.36, 16757.73, 6936.39, 27880.43, 99728.36, 72435.81, 0.00, 0.00, 0.00
46, 95752.73, 133382.83, 20255.13, 16756.99, 6935.28, 27883.15, 99751.97, 72433.91, 0.08, -0.21, 0.98
47, 95733.95, 133367.58, 20237.78, 16735.96, 6916.28, 27858.90, 99735.85, 72411.23, 0.00, 0.00, 0.00
48, 95755.98, 133399.97, 20259.24, 16761.75, 6929.06, 27880.36, 99736.30, 72434.31, 0.00, 0.00, 0.00
49, 95747.92, 133415.33, 20250.08, 16755.81, 6922.92, 27879.04, 99757.15, 72427.00, 0.00, 0.00, 0.00
50, 95743.42, 133443.89, 20244.27, 16743.71, 6918.60, 27871.24, 99787.70, 72416.03, 0.00, 0.00, 0.00
51, 95745.68, 133412.11, 20248.36, 16748.56, 6916.57, 27873.68, 99741.33, 72421.05, 0.00, 0.00, 0.00
52, 95748.39, 133361.36, 20251.10, 16754.82, 6923.36, 27882.41, 99697.74, 72421.64, 0.00, 0.00, 0.00
53, 95749.86, 133389.33, 20256.36, 16756.23, 6919.63, 27867.44, 99747.56, 72423.13, 0.00, 0.00, 0.00
54, 95747.47, 133387.27, 20255.93, 16753.73, 6911.36, 27866.61, 99693.45, 72410.44, 0.00, 0.00, 0.00
55, 95744.79, 133435.02, 20257.77, 16750.40, 6916.05, 27870.08, 99697.56, 72411.67, 0.00, 0.00, 0.00
56, 95739.27, 133429.14, 20256.89, 16749.30, 6917.19, 27868.06, 99769.24, 72408.45, 0.08, -0.21, 0.98
57, 95720.27, 133382.64, 20232.02, 16726.68, 6900.72, 27851.48, 99714.05, 72390.75, 0.00, 0.00, 0.00
58, 95722.62, 133373.03, 20234.38, 16730.97, 6895.04, 27859.06, 99671.21, 72392.07, 0.00, 0.00, 0.00
59, 95712.91, 133346.64, 20238.90, 16732.89, 6900.90, 27863.42, 99713.61, 72376.22, 0.00, 0.00, 0.00
60, 95699.05, 133371.27, 20241.98, 16744.72, 6911.36, 27866.28, 99758.60, 72365.09, 0.00, 0.00, 0.00
61, 95692.04, 133397.69, 20250.08, 16752.30, 6921.62, 27878.28, 99825.48, 72353.89, 0.00, 0.00, 0.00
62, 95663.61, 133381.48, 20246.61, 16749.93, 6910.67, 27872.11, 99713.97, 72328.21, 0.00, 0.00, 0.00
63, 95632.78, 133392.66, 20242.03, 16738.01, 6905.46, 27868.42, 99650.27, 72301.21, 0.00, 0.00, 0.00
64, 95612.55, 133395.16, 20243.73, 16737.10, 6906.33, 27855.84, 99663.32, 72277.72, 0.00, 0.00, 0.00
65, 95583.08, 133390.36, 20244.73, 16737.34, 6912.46, 27871.30, 99709.99, 72245.95, 0.00, 0.00, 0.00
66, 95545.41, 133383.41, 20240.67, 16731.78, 6910.80, 27868.40, 99734.27, 72214.66, 0.07, -0.21, 0.98
67, 95515.41, 133372.31, 20238.16, 16733.16, 6903.92, 27859.84, 99676.95, 72185.31, 0.00, 0.00, 0.00
68, 95482.31, 133379.45, 20242.41, 16736.27, 6905.15, 27862.25, 99654.89, 72152.68, 0.00, 0.00, 0.00
69, 95465.28, 133401.11, 20248.62, 16739.85, 6904.92, 27867.64, 99697.78, 72139.42, 0.00, 0.00, 0.00
70, 95431.69, 133402.61, 20237.69, 16730.55, 6889.23, 27864.02, 99744.41, 72109.16, 0.00, 0.00, 0.00
71, 95414.85, 133368.78, 20228.46, 16718.54, 6908.12, 27851.70, 99732.79, 72097.00, 0.00, 0.00, 0.00
72, 95406.16, 133347.83, 20221.64, 16723.55, 6913.91, 27856.73, 99657.35, 72084.73, 0.00, 0.00, 0.00
73, 95410.36, 133372.31, 20232.11, 16732.20, 6907.16, 27861.67, 99674.38, 72089.11, 0.00, 0.00, 0.00
74, 95406.36, 133412.19, 20234.56, 16725.92, 6907.16, 27862.66, 99692.60, 72083.62, 0.00, 0.00, 0.00
75, 95399.01, 133373.17, 20230.29, 16734.59, 6902.42, 27851.19, 99706.37, 72075.01, 0.00, 0.00, 0.00
76, 95398.43, 133356.61, 20224.35, 16738.73, 6904.43, 27833.13, 99770.88, 72076.08, 0.08, -0.21, 0.98
77, 95399.39, 133330.56, 20222.88, 16727.55, 6907.76, 27867.39, 99641.57, 72079.81, 0.00, 0.00, 0.00
78, 95403.08, 133343.03, 20223.70, 16725.32, 6898.49, 27856.06, 99640.30, 72083.66, 0.00, 0.00, 0.00
79, 95420.47, 133328.22, 20221.06, 16712.87, 6893.46, 27848.66, 99710.97, 72097.80, 0.00, 0.00, 0.00
80, 95431.71, 133308.84, 20219.30, 16717.38, 6892.61, 27844.71, 99727.55, 72107.77, 0.00, 0.00, 0.00
81, 95446.77, 133342.55, 20227.01, 16733.16, 6903.29, 27852.73, 99687.10, 72119.47, 0.00, 0.00, 0.00
82, 95455.85, 133372.61, 20228.35, 16734.33, 6894.31, 27848.13, 99680.95, 72130.89, 0.00, 0.00, 0.00
83, 95473.71, 133410.61, 20232.26, 16730.53, 6891.29, 27843.46, 99729.62, 72139.07, 0.00, 0.00, 0.00
84, 95478.06, 133335.89, 20216.30, 16717.09, 6882.03, 27839.99, 99693.43, 72140.30, 0.00, 0.00, 0.00
85, 95483.66, 133295.47, 20201.91, 16699.61, 6867.98, 27825.60, 99706.34, 72146.20, 0.00, 0.00, 0.00
86, 95519.41, 133401.83, 20231.95, 16731.02, 6885.59, 27852.26, 99686.97, 72180.17, 0.08, -0.21, 0.98
87, 95530.70, 133377.30, 20232.64, 16742.78, 6917.33, 27876.51, 99712.91, 72185.60, 0.00, 0.00, 0.00
88, 95540.80, 133338.02, 20234.07, 16737.23, 6910.56, 27859.53, 99715.46, 72205.01, 0.00, 0.00, 0.00
89, 95540.25, 133322.97, 20229.33, 16725.70, 6895.60, 27840.57, 99630.84, 72203.69, 0.00, 0.00, 0.00
90, 95549.97, 133348.78, 20217.29, 16717.56, 6894.55, 27837.22, 99680.38, 72214.15, 0.00, 0.00, 0.00
91, 95581.89, 133395.41, 20232.82, 16734.53, 6915.96, 27861.16, 99731.40, 72244.26, 0.00, 0.00, 0.00
92, 95578.52, 133345.45, 20221.31, 16724.38, 6895.69, 27848.06, 99784.84, 72241.30, 0.00, 0.00, 0.00
93, 95577.89, 133292.13, 20212.55, 16716.51, 6881.34, 27836.50, 99669.17, 72234.42, 0.00, 0.00, 0.00
94, 95601.54, 133323.34, 20222.90, 16724.67, 6892.45, 27847.72, 99633.41, 72257.17, 0.00, 0.00, 0.00
95, 95610.57, 133362.11, 20228.19, 16725.83, 6902.73, 27855.93, 99747.09, 72268.24, 0.00, 0.00, 0.00
96, 95612.78, 133363.53, 20225.49, 16720.80, 6906.04, 27848.57, 99747.52, 72273.72, 0.09, -0.20, 0.98
97, 95628.25, 133356.88, 20229.74, 16727.91, 6909.04, 27872.76, 99783.50, 72289.67, 0.00, 0.00, 0.00
98, 95634.38, 133333.42, 20226.23, 16726.39, 6908.77, 27871.19, 99686.23, 72294.81, 0.00, 0.00, 0.00
99, 95627.94, 133350.97, 20214.71, 16707.32, 6886.75, 27845.67, 99673.53, 72289.59, 0.00, 0.00, 0.00
100, 95645.10, 133376.05, 20228.69, 16724.00, 6898.04, 27842.38, 99803.64, 72314.41, 0.00, 0.00, 0.00
101, 95654.87, 133361.28, 20231.88, 16726.86, 6899.33, 27844.30, 99805.99, 72317.97, 0.00, 0.00, 0.00
102, 95652.48, 133316.30, 20219.63, 16718.90, 6893.26, 27857.67, 99681.38, 72312.95, 0.00, 0.00, 0.00
103, 95657.55, 133311.03, 20206.47, 16705.04, 6878.23, 27835.54, 99686.95, 72316.23, 0.00, 0.00, 0.00
104, 95674.29, 133351.58, 20221.24, 16711.37, 6895.58, 27858.41, 99670.27, 72332.66, 0.00, 0.00, 0.00
105, 95686.67, 133339.03, 20230.12, 16722.48, 6910.18, 27865.00, 99674.78, 72351.72, 0.00, 0.00, 0.00
106, 95686.65, 133325.45, 20223.88, 16712.42, 6911.40, 27863.04, 99732.95, 72355.68, 0.08, -0.21, 0.98
107, 95689.34, 133343.33, 20224.95, 16715.84, 6906.51, 27859.37, 99789.52, 72359.28, 0.00, 0.00, 0.00
108, 95686.61, 133334.97, 20227.90, 16733.63, 6901.86, 27873.23, 99822.13, 72359.99, 0.00, 0.00, 0.00
109, 95688.04, 133341.25, 20231.14, 16730.46, 6900.41, 27869.34, 99675.73, 72358.25, 0.00, 0.00, 0.00
110, 95690.72, 133323.06, 20225.76, 16723.93, 6901.32, 27862.95, 99708.20, 72357.91, 0.00, 0.00, 0.00
111, 95692.69, 133367.33, 20226.21, 16715.95, 6901.84, 27851.39, 99800.89, 72364.48, 0.00, 0.00, 0.00
112, 95693.72, 133383.53, 20225.94, 16709.69, 6893.14, 27858.56, 99724.49, 72358.31, 0.00, 0.00, 0.00
113, 95690.01, 133355.22, 20213.44, 16699.81, 6863.62, 27850.94, 99686.54, 72359.16, 0.00, 0.00, 0.00
114, 95706.59, 133359.73, 20227.23, 16718.61, 6898.64, 27859.35, 99739.20, 72378.99, 0.00, 0.00, 0.00
115, 95702.70, 133306.27, 20220.35, 16712.82, 6901.46, 27852.53, 99716.98, 72370.79, 0.00, 0.00, 0.00
116, 95717.56, 133310.61, 20230.85, 16726.10, 6908.41, 27857.07, 99741.59, 72387.80, 0.08, -0.21, 0.98
117, 95711.64, 133284.20, 20220.51, 16722.03, 6900.18, 27851.84, 99790.09, 72383.40, 0.00, 0.00, 0.00
118, 95708.27, 133297.03, 20217.13, 16712.53, 6890.13, 27854.27, 99779.48, 72383.55, 0.00, 0.00, 0.00
119, 95714.48, 133359.73, 20226.85, 16710.28, 6890.98, 27852.57, 99699.75, 72388.87, 0.00, 0.00, 0.00
120, 95709.45, 133395.39, 20222.90, 16702.32, 6892.29, 27860.20, 99727.69, 72389.38, 0.00, 0.00, 0.00
121, 95723.42, 133378.16, 20230.21, 16719.64, 6904.52, 27857.07, 99749.20, 72405.30, 0.00, 0.00, 0.00
122, 95725.34, 133303.91, 20228.17, 16724.54, 6907.52, 27861.74, 99724.45, 72407.05, 0.00, 0.00, 0.00
123, 95720.47, 133247.80, 20214.65, 16715.06, 6896.18, 27860.40, 99796.27, 72402.06, 0.00, 0.00, 0.00
124, 95725.61, 133293.89, 20218.25, 16716.58, 6895.31, 27859.73, 99746.06, 72404.30, 0.00, 0.00, 0.00
125, 95724.43, 133320.11, 20223.50, 16714.37, 6905.50, 27853.27, 99728.65, 72399.78, 0.00, 0.00, 0.00
126, 95710.03, 133313.27, 20210.69, 16698.27, 6895.85, 27848.02, 99751.65, 72385.20, 0.08, -0.21, 0.98
127, 95716.98, 133321.95, 20221.31, 16711.28, 6898.71, 27854.92, 99758.72, 72389.16, 0.00, 0.00, 0.00
128, 95732.12, 133327.55, 20230.03, 16717.45, 6907.23, 27884.78, 99760.55, 72399.29, 0.00, 0.00, 0.00
129, 95730.59, 133324.08, 20226.47, 16710.90, 6899.89, 27858.92, 99705.85, 72398.30, 0.00, 0.00, 0.00
130, 95734.10, 133330.88, 20231.05, 16716.67, 6911.79, 27860.93, 99674.23, 72400.65, 0.00, 0.00, 0.00
131, 95724.09, 133328.47, 20222.27, 16713.36, 6909.10, 27856.62, 99752.59, 72389.74, 0.00, 0.00, 0.00
132, 95727.94, 133340.20, 20223.81, 16715.39, 6914.89, 27865.65, 99708.91, 72395.29, 0.00, 0.00, 0.00
133, 95718.91, 133309.55, 20219.81, 16704.15, 6903.00, 27864.27, 99717.63, 72390.26, 0.00, 0.00, 0.00
134, 95722.82, 133283.25, 20224.97, 16716.47, 6890.10, 27864.85, 99753.80, 72389.88, 0.00, 0.00, 0.00
135, 95730.08, 133313.53, 20233.33, 16736.72, 6925.80, 27869.85, 99732.32, 72396.18, 0.00, 0.00, 0.00
136, 95730.22, 133354.48, 20242.97, 16746.24, 6942.14, 27874.77, 99747.18, 72392.36, 0.08, -0.21, 0.98
137, 95724.31, 133351.63, 20233.16, 16732.96, 6921.53, 27869.94, 99790.99, 72387.80, 0.00, 0.00, 0.00
138, 95726.17, 133340.91, 20227.08, 16721.56, 6915.96, 27873.05, 99794.84, 72396.49, 0.00, 0.00, 0.00
139, 95736.97, 133356.16, 20236.35, 16729.54, 6922.25, 27872.76, 99756.93, 72404.36, 0.00, 0.00, 0.00
140, 95729.01, 133332.95, 20222.49, 16723.02, 6915.90, 27872.71, 99736.41, 72393.37, 0.00, 0.00, 0.00
141, 95736.61, 133330.44, 20226.67, 16722.77, 6920.17, 27868.47, 99715.69, 72400.83, 0.00, 0.00, 0.00
142, 95746.87, 133307.16, 20239.53, 16731.35, 6925.73, 27879.33, 99690.63, 72409.91, 0.00, 0.00, 0.00
143, 95727.91, 133262.92, 20218.40, 16717.83, 6903.51, 27864.89, 99725.32, 72390.37, 0.00, 0.00, 0.00
144, 95733.19, 133279.56, 20222.85, 16721.43, 6908.28, 27862.10, 99757.48, 72396.49, 0.00, 0.00, 0.00
145, 95739.98, 133298.28, 20233.49, 16727.87, 6918.96, 27864.49, 99756.05, 72403.09, 0.00, 0.00, 0.00
146, 95735.00, 133285.09, 20228.89, 16724.16, 6921.89, 27865.40, 99710.97, 72390.66, 0.08, -0.21, 0.99
147, 95732.85, 133295.77, 20228.46, 16725.43, 6917.10, 27868.98, 99690.50, 72384.89, 0.00, 0.00, 0.00
148, 95736.09, 133330.00, 20235.39, 16734.73, 6915.27, 27873.79, 99747.12, 72392.94, 0.00, 0.00, 0.00
149, 95735.70, 133350.13, 20229.85, 16717.85, 6905.21, 27863.53, 99744.61, 72390.91, 0.00, 0.00, 0.00
150, 95743.65, 133378.08, 20237.56, 16728.25, 6915.47, 27869.72, 99752.10, 72397.92, 0.00, 0.00, 0.00
151, 95741.41, 133362.14, 20240.22, 16732.25, 6924.01, 27885.19, 99727.98, 72394.84, 0.00, 0.00, 0.00
152, 95726.35, 133278.28, 20218.72, 16709.81, 6903.38, 27860.82, 99656.86, 72380.94, 0.00, 0.00, 0.00
153, 95739.58, 133324.94, 20231.48, 16724.74, 6905.71, 27863.62, 99725.08, 72393.45, 0.00, 0.00, 0.00
154, 95734.89, 133327.59, 20230.41, 16724.74, 6899.00, 27863.24, 99734.89, 72388.29, 0.00, 0.00, 0.00
155, 95734.26, 133254.86, 20224.44, 16720.33, 6904.52, 27858.28, 99696.06, 72392.36, 0.00, 0.00, 0.00
156, 95741.44, 133286.67, 20233.00, 16732.63, 6919.79, 27878.77, 99709.20, 72393.66, 0.08, -0.21, 0.99
157, 95731.02, 133303.92, 20219.16, 16716.62, 6902.67, 27867.15, 99730.40, 72381.05, 0.00, 0.00, 0.00
158, 95740.63, 133335.53, 20224.15, 16718.88, 6899.45, 27871.60, 99695.39, 72390.88, 0.00, 0.00, 0.00
159, 95750.51, 133307.66, 20223.92, 16718.57, 6893.64, 27874.70, 99746.89, 72400.12, 0.00, 0.00, 0.00
160, 95740.99, 133282.75, 20222.03, 16709.67, 6879.80, 27864.09, 99746.42, 72392.00, 0.00, 0.00, 0.00
161, 95735.11, 133287.78, 20210.16, 16695.72, 6898.42, 27851.52, 99787.10, 72381.12, 0.00, 0.00, 0.00
162, 95754.98, 133370.27, 20228.69, 16714.50, 6910.87, 27868.98, 99745.93, 72402.86, 0.00, 0.00, 0.00
163, 95743.49, 133381.14, 20230.32, 16722.10, 6912.21, 27885.86, 99703.84, 72392.56, 0.00, 0.00, 0.00
164, 95735.52, 133272.27, 20217.58, 16716.98, 6907.34, 27868.31, 99668.66, 72380.73, 0.00, 0.00, 0.00
165, 95737.32, 133248.59, 20216.66, 16713.54, 6909.13, 27874.14, 99691.55, 72384.18, 0.00, 0.00, 0.00
166, 95737.28, 133308.19, 20217.71, 16713.03, 6907.00, 27875.66, 99696.06, 72387.02, 0.08, -0.21, 0.99
167, 95745.57, 133277.25, 20228.28, 16731.35, 6915.99, 27874.81, 99695.10, 72395.22, 0.00, 0.00, 0.00
168, 95740.34, 133293.69, 20227.95, 16728.27, 6909.57, 27876.00, 99707.80, 72390.73, 0.00, 0.00, 0.00
169, 95740.37, 133307.63, 20228.24, 16716.33, 6908.32, 27876.40, 99727.27, 72390.39, 0.00, 0.00, 0.00
170, 95738.20, 133268.58, 20228.80, 16730.50, 6913.69, 27878.01, 99723.45, 72388.65, 0.00, 0.00, 0.00
171, 95735.67, 133269.50, 20230.99, 16738.48, 6917.48, 27880.02, 99747.30, 72386.99, 0.00, 0.00, 0.00
172, 95733.32, 133297.11, 20232.51, 16730.41, 6909.95, 27874.84, 99738.20, 72380.67, 0.00, 0.00, 0.00
173, 95738.53, 133311.44, 20235.79, 16727.96, 6903.36, 27867.51, 99705.18, 72385.12, 0.00, 0.00, 0.00
174, 95730.28, 133347.84, 20230.74, 16717.72, 6904.21, 27867.73, 99688.28, 72378.27, 0.00, 0.00, 0.00
175, 95723.29, 133319.59, 20219.41, 16704.71, 6897.75, 27862.57, 99708.76, 72373.45, 0.00, 0.00, 0.00
176, 95734.26, 133290.53, 20226.63, 16721.81, 6917.17, 27874.32, 99736.45, 72387.27, 0.08, -0.21, 0.98
177, 95737.46, 133265.20, 20222.94, 16712.73, 6912.01, 27867.01, 99722.02, 72392.29, 0.00, 0.00, 0.00
178, 95739.05, 133252.33, 20228.46, 16728.11, 6909.15, 27867.24, 99743.34, 72393.19, 0.00, 0.00, 0.00
179, 95739.24, 133265.86, 20220.97, 16716.82, 6905.57, 27873.07, 99775.84, 72396.34, 0.00, 0.00, 0.00
180, 95742.76, 133283.42, 20225.69, 16724.18, 6910.56, 27877.61, 99687.64, 72392.76, 0.00, 0.00, 0.00
181, 95739.89, 133305.78, 20235.79, 16739.24, 6923.65, 27874.39, 99655.79, 72386.01, 0.00, 0.00, 0.00
182, 95730.98, 133296.56, 20223.81, 16719.60, 6908.12, 27861.94, 99692.53, 72381.61, 0.00, 0.00, 0.00
183, 95716.24, 133310.67, 20210.92, 16703.26, 6889.32, 27844.89, 99705.67, 72371.33, 0.00, 0.00, 0.00
184, 95749.75, 133345.86, 20236.60, 16726.17, 6916.10, 27874.03, 99735.88, 72405.86, 0.00, 0.00, 0.00
185, 95742.40, 133320.59, 20234.63, 16723.20, 6919.94, 27888.27, 99736.14, 72398.30, 0.00, 0.00, 0.00
186, 95741.34, 133299.39, 20229.31, 16719.08, 6922.58, 27879.51, 99744.21, 72394.86, 0.08, -0.21, 0.98
187, 95745.28, 133281.39, 20229.80, 16717.45, 6915.83, 27880.07, 99704.13, 72397.48, 0.00, 0.00, 0.00
188, 95738.40, 133246.23, 20228.19, 16722.84, 6891.62, 27865.52, 99717.63, 72390.32, 0.00, 0.00, 0.00
189, 95739.65, 133246.30, 20227.72, 16719.53, 6928.68, 27874.35, 99708.29, 72392.45, 0.00, 0.00, 0.00
190, 95742.66, 133271.27, 20227.63, 16720.11, 6934.27, 27878.12, 99726.77, 72396.72, 0.00, 0.00, 0.00
191, 95729.19, 133275.92, 20214.25, 16706.99, 6919.14, 27867.06, 99718.02, 72385.66, 0.00, 0.00, 0.00
192, 95733.10, 133279.83, 20227.41, 16718.34, 6924.01, 27872.33, 99699.98, 72390.05, 0.00, 0.00, 0.00
193, 95742.42, 133276.94, 20226.88, 16726.35, 6924.12, 27878.55, 99712.20, 72398.66, 0.00, 0.00, 0.00
194, 95733.34, 133263.83, 20214.54, 16715.60, 6912.86, 27866.99, 99697.29, 72390.57, 0.00, 0.00, 0.00
195, 95732.48, 133273.48, 20221.04, 16711.46, 6914.74, 27867.17, 99704.36, 72390.68, 0.00, 0.00, 0.00
196, 95729.57, 133295.34, 20222.49, 16708.62, 6917.89, 27872.24, 99728.72, 72388.05, 0.08, -0.21, 0.98
197, 95733.08, 133341.98, 20227.97, 16718.93, 6913.98, 27870.57, 99741.70, 72391.66, 0.00, 0.00, 0.00
198, 95739.16, 133370.44, 20240.91, 16730.08, 6919.25, 27876.13, 99737.13, 72391.76, 0.00, 0.00, 0.00
199, 95727.69, 133262.95, 20227.05, 16715.95, 6907.38, 27865.09, 99734.46, 72382.21, 0.00, 0.00, 0.00
200, 95720.59, 133229.92, 20216.91, 16706.27, 6904.97, 27858.97, 99668.10, 72376.40, 0.00, 0.00, 0.00
201, 95720.70, 133218.58, 20213.49, 16698.07, 6905.82, 27862.28, 99677.18, 72378.08, 0.00, 0.00, 0.00
202, 95727.06, 133198.25, 20213.89, 16696.60, 6902.38, 27874.10, 99713.95, 72388.71, 0.00, 0.00, 0.00
203, 95728.90, 133207.50, 20212.12, 16698.74, 6904.25, 27860.15, 99727.76, 72388.09, 0.00, 0.00, 0.00
204, 95732.48, 133174.94, 20211.61, 16702.92, 6908.83, 27864.55, 99713.84, 72392.72, 0.00, 0.00, 0.00
205, 95733.97, 133155.84, 20207.85, 16698.38, 6913.10, 27870.19, 99733.99, 72394.59, 0.00, 0.00, 0.00
206, 95740.61, 133187.05, 20222.70, 16709.07, 6923.43, 27880.58, 99727.69, 72401.86, 0.09, -0.21, 0.98
207, 95736.81, 133234.66, 20233.42, 16715.88, 6920.73, 27881.07, 99709.79, 72396.23, 0.00, 0.00, 0.00
208, 95728.09, 133190.94, 20222.05, 16711.44, 6907.43, 27871.42, 99732.23, 72387.89, 0.00, 0.00, 0.00
209, 95725.39, 133140.13, 20215.03, 16709.13, 6897.21, 27868.58, 99716.90, 72381.83, 0.00, 0.00, 0.00
210, 95725.55, 133123.61, 20219.37, 16707.48, 6902.02, 27875.40, 99693.34, 72386.79, 0.00, 0.00, 0.00
211, 95731.65, 133161.11, 20227.61, 16715.46, 6945.67, 27892.56, 99738.91, 72400.63, 0.00, 0.00, 0.00
212, 95728.65, 133197.45, 20228.39, 16719.33, 6931.41, 27892.61, 99767.99, 72399.91, 0.00, 0.00, 0.00
213, 95710.68, 133142.92, 20216.28, 16711.66, 6911.54, 27858.56, 99684.17, 72375.80, 0.00, 0.00, 0.00
214, 95728.70, 133113.69, 20229.98, 16718.86, 6921.46, 27875.13, 99694.79, 72393.92, 0.00, 0.00, 0.00
215, 95727.69, 133103.03, 20219.50, 16701.87, 6915.36, 27873.21, 99698.59, 72390.62, 0.00, 0.00, 0.00
216, 95720.11, 133116.13, 20212.77, 16697.00, 6907.16, 27864.00, 99708.13, 72389.54, 0.08, -0.21, 0.98
217, 95724.00, 133128.23, 20216.84, 16709.07, 6910.78, 27862.59, 99690.37, 72394.59, 0.00, 0.00, 0.00
218, 95741.86, 133146.52, 20232.37, 16721.74, 6919.23, 27878.21, 99721.61, 72413.32, 0.00, 0.00, 0.00
219, 95733.30, 133113.75, 20228.33, 16718.43, 6916.01, 27876.22, 99695.73, 72403.13, 0.00, 0.00, 0.00
220, 95730.08, 133115.00, 20227.05, 16714.86, 6921.35, 27879.53, 99691.70, 72399.91, 0.00, 0.00, 0.00
221, 95731.55, 133126.72, 20227.41, 16722.23, 6928.91, 27883.02, 99702.70, 72400.54, 0.00, 0.00, 0.00
222, 95725.68, 133119.56, 20225.13, 16717.27, 6920.26, 27873.05, 99686.03, 72396.60, 0.00, 0.00, 0.00
223, 95720.56, 133050.31, 20219.12, 16712.64, 6915.81, 27870.70, 99710.19, 72395.35, 0.00, 0.00, 0.00
224, 95715.02, 133068.30, 20210.58, 16696.02, 6907.38, 27861.98, 99699.75, 72389.16, 0.00, 0.00, 0.00
225, 95718.73, 133114.53, 20210.02, 16684.93, 6906.40, 27860.71, 99662.06, 72391.33, 0.00, 0.00, 0.00
226, 95743.65, 133165.75, 20242.88, 16729.83, 6933.53, 27888.14, 99684.26, 72417.62, 0.08, -0.21, 0.98
227, 95732.36, 133103.34, 20236.91, 16738.51, 6925.60, 27878.41, 99706.70, 72408.88, 0.00, 0.00, 0.00
228, 95717.90, 133034.19, 20216.93, 16715.35, 6910.73, 27862.92, 99684.28, 72396.70, 0.00, 0.00, 0.00
229, 95713.61, 133014.72, 20208.30, 16702.86, 6903.51, 27858.36, 99664.64, 72387.10, 0.00, 0.00, 0.00
230, 95729.19, 133042.08, 20227.08, 16718.19, 6925.44, 27876.71, 99659.74, 72401.50, 0.00, 0.00, 0.00
231, 95722.41, 133056.56, 20225.60, 16716.38, 6918.29, 27867.93, 99665.15, 72393.92, 0.00, 0.00, 0.00
232, 95720.94, 133068.00, 20219.25, 16707.84, 6896.05, 27864.42, 99682.02, 72388.87, 0.00, 0.00, 0.00
233, 95733.48, 133129.06, 20235.35, 16725.16, 6935.97, 27882.62, 99687.30, 72401.52, 0.00, 0.00, 0.00
234, 95731.52, 133110.00, 20231.37, 16726.97, 6931.86, 27878.17, 99680.08, 72402.82, 0.00, 0.00, 0.00
235, 95719.84, 133029.63, 20216.44, 16711.64, 6917.66, 27865.72, 99677.02, 72391.06, 0.00, 0.00, 0.00
236, 95713.23, 133013.42, 20204.99, 16697.07, 6906.91, 27855.64, 99674.70, 72381.80, 0.08, -0.21, 0.99
237, 95725.99, 133040.75, 20216.06, 16706.72, 6917.28, 27870.30, 99660.34, 72394.93, 0.00, 0.00, 0.00
238, 95716.38, 133029.38, 20207.45, 16693.91, 6905.75, 27861.98, 99669.84, 72389.77, 0.00, 0.00, 0.00
239, 95725.86, 133076.94, 20220.15, 16712.76, 6916.26, 27873.25, 99710.46, 72392.65, 0.00, 0.00, 0.00
240, 95724.63, 133056.89, 20220.24, 16716.67, 6916.70, 27875.15, 99698.74, 72391.62, 0.00, 0.00, 0.00
241, 95725.39, 133017.91, 20220.79, 16721.45, 6924.82, 27874.68, 99708.70, 72394.21, 0.00, 0.00, 0.00
242, 95723.89, 133013.97, 20218.40, 16713.05, 6918.67, 27872.83, 99660.41, 72396.29, 0.00, 0.00, 0.00
243, 95717.05, 133046.66, 20212.71, 16698.56, 6911.74, 27863.71, 99662.96, 72391.48, 0.00, 0.00, 0.00
244, 95706.55, 132991.63, 20195.65, 16687.01, 6900.48, 27853.20, 99657.15, 72382.59, 0.00, 0.00, 0.00
245, 95709.32, 133030.36, 20203.54, 16701.36, 6906.31, 27864.53, 99644.88, 72383.55, 0.00, 0.00, 0.00
246, 95726.62, 133027.30, 20223.99, 16718.79, 6926.56, 27883.76, 99676.23, 72396.83, 0.08, -0.22, 0.98
247, 95723.11, 132998.55, 20210.11, 16708.69, 6915.16, 27868.51, 99704.16, 72394.05, 0.00, 0.00, 0.00
248, 95720.11, 132965.16, 20212.10, 16714.03, 6911.83, 27864.11, 99643.89, 72394.05, 0.00, 0.00, 0.00
249, 95718.08, 132988.19, 20209.35, 16703.32, 6911.02, 27863.10, 99653.66, 72394.10, 0.00, 0.00, 0.00
250, 95718.30, 132995.63, 20209.24, 16700.55, 6913.51, 27864.47, 99703.33, 72391.77, 0.00, 0.00, 0.00
251, 95719.09, 133007.73, 20216.79, 16723.37, 6920.61, 27868.06, 99675.16, 72392.67, 0.00, 0.00, 0.00
252, 95716.89, 133010.52, 20211.14, 16719.17, 6912.72, 27862.48, 99652.48, 72385.98, 0.00, 0.00, 0.00
253, 95716.96, 133038.45, 20212.57, 16715.71, 6912.43, 27860.53, 99665.51, 72385.30, 0.00, 0.00, 0.00
254, 95700.11, 132972.73, 20195.63, 16695.59, 6895.69, 27840.91, 99618.44, 72369.11, 0.00, 0.00, 0.00
255, 95701.25, 132993.39, 20209.80, 16701.42, 6903.87, 27850.92, 99643.91, 72372.53, 0.08, -0.21, 0.98
0, 95714.55, 133032.77, 20224.55, 16713.58, 6904.83, 27870.14, 99661.33, 72385.38, 0.00, 0.00, 0.00
1, 95697.54, 132959.09, 20195.34, 16694.05, 6899.02, 27850.74, 99659.90, 72368.77, 0.00, 0.00, 0.00
2, 95704.27, 132972.67, 20202.02, 16700.33, 6918.38, 27855.82, 99680.41, 72379.04, 0.00, 0.00, 0.00
3, 95703.30, 132956.83, 20201.86, 16691.46, 6905.57, 27846.07, 99644.99, 72379.59, 0.00, 0.00, 0.00
4, 95707.44, 132986.38, 20208.14, 16700.02, 6908.59, 27851.17, 99639.40, 72383.20, 0.00, 0.00, 0.00
5, 95698.05, 132949.42, 20192.59, 16695.32, 6902.53, 27841.98, 99648.43, 72375.52, 0.00, 0.00, 0.00
6, 95687.55, 132925.53, 20177.46, 16682.87, 6887.98, 27830.51, 99621.23, 72365.40, 0.00, 0.00, 0.00
7, 95707.95, 132995.41, 20199.03, 16699.52, 6905.62, 27848.06, 99634.91, 72382.05, 0.00, 0.00, 0.00
8, 95700.31, 133017.64, 20194.04, 16693.18, 6892.32, 27833.71, 99647.80, 72374.45, 0.00, 0.00, 0.00
9, 95703.70, 132940.86, 20193.10, 16692.10, 6898.71, 27837.55, 99654.53, 72378.55, 0.08, -0.21, 0.98
10, 95707.35, 132965.69, 20193.77, 16692.44, 6907.45, 27847.39, 99665.66, 72383.84, 0.00, 0.00, 0.00
11, 95692.38, 132975.69, 20179.65, 16678.38, 6890.66, 27831.88, 99641.32, 72369.27, 0.00, 0.00, 0.00
12, 95698.68, 132954.94, 20183.20, 16676.50, 6885.61, 27831.30, 99621.03, 72377.09, 0.00, 0.00, 0.00
13, 95702.43, 132908.52, 20184.81, 16682.65, 6887.56, 27841.96, 99625.23, 72377.49, 0.00, 0.00, 0.00
14, 95696.55, 132906.59, 20177.23, 16676.84, 6887.96, 27835.05, 99640.27, 72371.52, 0.00, 0.00, 0.00
15, 95696.22, 132929.64, 20180.92, 16684.97, 6889.72, 27838.78, 99642.82, 72373.05, 0.00, 0.00, 0.00
16, 95678.90, 132925.59, 20166.35, 16668.70, 6864.98, 27816.14, 99654.63, 72357.06, 0.00, 0.00, 0.00
17, 95701.29, 132970.92, 20182.93, 16684.06, 6870.03, 27828.50, 99670.36, 72378.26, 0.00, 0.00, 0.00
18, 95703.23, 132970.64, 20186.17, 16684.26, 6900.65, 27831.07, 99628.52, 72375.91, 0.00, 0.00, 0.00
19, 95697.34, 132984.78, 20182.24, 16669.80, 6889.50, 27825.31, 99609.16, 72372.33, 0.08, -0.21, 0.98
20, 95695.62, 132981.56, 20191.63, 16679.72, 6896.07, 27838.90, 99640.70, 72373.91, 0.00, 0.00, 0.00
21, 95682.74, 132928.23, 20173.19, 16666.29, 6876.76, 27816.14, 99665.33, 72361.53, 0.00, 0.00, 0.00
22, 95692.02, 132920.09, 20187.67, 16687.41, 6883.29, 27821.75, 99628.34, 72368.87, 0.00, 0.00, 0.00
23, 95686.32, 132912.44, 20181.52, 16678.38, 6880.45, 27819.40, 99617.97, 72363.91, 0.00, 0.00, 0.00
24, 95686.34, 132896.34, 20171.38, 16670.22, 6874.68, 27820.68, 99623.35, 72363.41, 0.00, 0.00, 0.00
25, 95687.73, 132887.78, 20173.28, 16676.66, 6883.31, 27822.76, 99640.95, 72362.74, 0.00, 0.00, 0.00
26, 95685.69, 132908.83, 20169.39, 16666.60, 6879.67, 27824.86, 99657.33, 72358.36, 0.00, 0.00, 0.00
27, 95666.11, 132914.27, 20151.19, 16647.40, 6857.49, 27803.31, 99669.64, 72340.86, 0.00, 0.00, 0.00
28, 95684.87, 132926.78, 20172.43, 16670.36, 6873.63, 27815.61, 99638.02, 72362.20, 0.00, 0.00, 0.00
29, 95686.16, 132954.31, 20184.21, 16680.64, 6881.57, 27815.38, 99603.51, 72365.16, 0.07, -0.20, 0.99
30, 95686.23, 132995.83, 20184.03, 16677.93, 6887.78, 27820.95, 99590.74, 72360.06, 0.00, 0.00, 0.00
31, 95684.02, 132914.20, 20167.67, 16660.16, 6873.61, 27814.04, 99630.82, 72356.84, 0.00, 0.00, 0.00
32, 95674.88, 132847.09, 20155.89, 16652.59, 6858.23, 27803.65, 99617.72, 72346.98, 0.00, 0.00, 0.00
33, 95678.41, 132878.75, 20158.79, 16655.92, 6857.20, 27805.44, 99606.95, 72350.09, 0.00, 0.00, 0.00
34, 95684.87, 132898.89, 20168.94, 16661.75, 6865.29, 27810.15, 99617.90, 72355.90, 0.00, 0.00, 0.00
35, 95683.99, 132912.61, 20166.86, 16658.60, 6867.22, 27809.35, 99608.67, 72355.88, 0.00, 0.00, 0.00
36, 95681.87, 132876.36, 20162.75, 16653.10, 6861.43, 27801.17, 99609.38, 72353.35, 0.00, 0.00, 0.00
37, 95667.52, 132874.56, 20143.91, 16634.97, 6833.40, 27775.15, 99599.03, 72339.63, 0.00, 0.00, 0.00
38, 95688.66, 132938.73, 20174.06, 16667.29, 6844.51, 27797.25, 99623.91, 72365.02, 0.00, 0.00, 0.00
39, 95688.77, 132955.30, 20177.77, 16661.50, 6874.41, 27808.01, 99646.84, 72366.38, 0.08, -0.20, 0.98
40, 95672.08, 132937.89, 20162.64, 16642.10, 6866.39, 27794.24, 99600.55, 72346.89, 0.00, 0.00, 0.00
41, 95673.91, 132874.28, 20163.42, 16655.63, 6863.75, 27802.15, 99617.79, 72350.25, 0.00, 0.00, 0.00
42, 95671.61, 132863.34, 20158.34, 16659.89, 6856.87, 27804.27, 99634.10, 72345.84, 0.00, 0.00, 0.00
43, 95668.28, 132828.88, 20149.61, 16650.22, 6849.78, 27783.64, 99621.99, 72344.03, 0.00, 0.00, 0.00
44, 95676.82, 132859.45, 20153.34, 16649.39, 6858.36, 27788.02, 99599.10, 72349.91, 0.00, 0.00, 0.00
45, 95679.73, 132898.19, 20159.73, 16658.62, 6864.98, 27796.65, 99594.84, 72353.63, 0.00, 0.00, 0.00
46, 95679.19, 132902.03, 20164.78, 16671.65, 6872.65, 27805.08, 99612.53, 72354.38, 0.00, 0.00, 0.00
47, 95662.65, 132885.03, 20153.36, 16647.82, 6851.93, 27789.36, 99614.10, 72339.56, 0.00, 0.00, 0.00
48, 95665.28, 132903.25, 20153.29, 16642.30, 6851.01, 27786.08, 99611.53, 72342.05, 0.00, 0.00, 0.00
49, 95672.98, 132933.73, 20158.97, 16648.83, 6860.89, 27792.45, 99591.77, 72343.70, 0.08, -0.21, 0.98
50, 95658.02, 132861.16, 20147.21, 16645.32, 6849.83, 27784.16, 99578.83, 72327.16, 0.00, 0.00, 0.00
51, 95670.58, 132885.59, 20162.55, 16657.88, 6864.65, 27800.79, 99622.34, 72342.00, 0.00, 0.00, 0.00
52, 95669.42, 132871.97, 20156.80, 16648.00, 6857.52, 27794.35, 99615.24, 72345.40, 0.00, 0.00, 0.00
53, 95666.18, 132849.20, 20148.89, 16645.19, 6855.32, 27792.67, 99599.95, 72340.75, 0.00, 0.00, 0.00
54, 95658.45, 132853.48, 20145.27, 16646.10, 6857.67, 27806.42, 99625.32, 72335.45, 0.00, 0.00, 0.00
55, 95654.53, 132854.77, 20143.57, 16633.23, 6847.12, 27789.12, 99621.41, 72335.41, 0.00, 0.00, 0.00
56, 95654.80, 132855.34, 20145.63, 16647.15, 6834.02, 27775.08, 99562.29, 72326.69, 0.00, 0.00, 0.00
57, 95656.09, 132858.27, 20136.37, 16636.43, 6827.41, 27766.81, 99606.81, 72328.21, 0.00, 0.00, 0.00
58, 95646.89, 132885.66, 20123.28, 16615.41, 6839.79, 27760.06, 99622.03, 72321.48, 0.00, 0.00, 0.00
59, 95657.80, 132907.22, 20137.85, 16636.89, 6843.03, 27770.39, 99584.02, 72334.47, 0.07, -0.21, 0.98
60, 95655.02, 132811.94, 20138.21, 16639.78, 6846.00, 27776.82, 99562.27, 72330.27, 0.00, 0.00, 0.00
61, 95645.08, 132795.27, 20130.36, 16622.63, 6836.15, 27772.55, 99581.13, 72323.13, 0.00, 0.00, 0.00
62, 95646.82, 132809.08, 20126.38, 16601.11, 6828.86, 27769.38, 99583.52, 72325.98, 0.00, 0.00, 0.00
63, 95642.27, 132797.09, 20120.88, 16614.23, 6824.75, 27767.26, 99572.57, 72322.06, 0.00, 0.00, 0.00
64, 95647.85, 132845.13, 20136.26, 16647.02, 6838.72, 27775.39, 99595.26, 72324.09, 0.00, 0.00, 0.00
65, 95631.29, 132856.70, 20122.52, 16618.86, 6819.38, 27755.26, 99594.52, 72307.65, 0.00, 0.00, 0.00
66, 95631.55, 132831.41, 20126.20, 16621.34, 6816.54, 27752.64, 99596.45, 72302.39, 0.00, 0.00, 0.00
67, 95630.64, 132838.63, 20123.19, 16612.80, 6812.07, 27753.06, 99580.51, 72303.20, 0.00, 0.00, 0.00
68, 95636.27, 132836.86, 20128.93, 16613.45, 6822.85, 27769.45, 99589.09, 72312.38, 0.00, 0.00, 0.00
69, 95631.80, 132852.19, 20129.82, 16617.36, 6823.63, 27770.39, 99596.84, 72311.71, 0.07, -0.21, 0.98
70, 95629.52, 132854.58, 20127.77, 16617.34, 6820.86, 27751.21, 99554.91, 72304.60, 0.00, 0.00, 0.00
71, 95620.29, 132791.00, 20106.27, 16601.78, 6807.96, 27749.27, 99567.97, 72296.02, 0.00, 0.00, 0.00
72, 95641.30, 132826.98, 20126.20, 16621.03, 6822.40, 27773.74, 99574.25, 72320.84, 0.00, 0.00, 0.00
73, 95632.83, 132812.73, 20122.11, 16618.54, 6817.59, 27768.09, 99587.45, 72315.63, 0.00, 0.00, 0.00
74, 95621.79, 132776.83, 20112.05, 16608.82, 6800.21, 27757.56, 99584.28, 72301.61, 0.00, 0.00, 0.00
75, 95620.78, 132816.11, 20110.22, 16604.24, 6812.32, 27759.14, 99611.80, 72298.16, 0.00, 0.00, 0.00
76, 95611.30, 132815.77, 20104.46, 16593.20, 6821.60, 27755.55, 99591.66, 72290.63, 0.00, 0.00, 0.00
77, 95612.34, 132774.98, 20104.59, 16596.19, 6815.27, 27754.47, 99580.95, 72294.59, 0.00, 0.00, 0.00
78, 95613.18, 132756.53, 20095.60, 16598.27, 6807.85, 27750.70, 99562.09, 72290.59, 0.00, 0.00, 0.00
79, 95639.38, 132813.88, 20120.84, 16624.40, 6834.18, 27774.12, 99641.46, 72317.03, 0.07, -0.21, 0.97
80, 95629.25, 132845.98, 20113.75, 16611.39, 6824.43, 27764.67, 99640.25, 72307.87, 0.00, 0.00, 0.00
81, 95623.11, 132843.97, 20111.00, 16611.12, 6811.40, 27752.28, 99627.27, 72304.13, 0.00, 0.00, 0.00
82, 95621.48, 132816.14, 20110.45, 16603.61, 6803.09, 27738.87, 99626.70, 72299.35, 0.00, 0.00, 0.00
83, 95614.97, 132799.16, 20099.16, 16587.77, 6790.15, 27727.94, 99670.13, 72292.06, 0.00, 0.00, 0.00
84, 95621.01, 132754.63, 20100.45, 16590.65, 6804.07, 27742.78, 99694.41, 72304.02, 0.00, 0.00, 0.00
85, 95613.63, 132773.52, 20098.24, 16591.07, 6807.22, 27750.99, 99686.41, 72301.72, 0.00, 0.00, 0.00
86, 95616.52, 132797.88, 20112.19, 16611.50, 6808.61, 27749.35, 99669.40, 72299.02, 0.00, 0.00, 0.00
87, 95599.66, 132777.42, 20091.94, 16587.45, 6790.30, 27730.45, 99653.55, 72281.27, 0.00, 0.00, 0.00
88, 95615.13, 132780.84, 20104.01, 16606.65, 6800.52, 27743.79, 99709.77, 72296.00, 0.00, 0.00, 0.00
89, 95617.66, 132807.33, 20107.81, 16608.37, 6803.27, 27743.07, 99700.20, 72298.86, 0.08, -0.21, 0.98
90, 95621.84, 132807.22, 20108.03, 16603.50, 6810.35, 27753.13, 99724.38, 72306.28, 0.00, 0.00, 0.00
91, 95626.66, 132778.39, 20111.50, 16602.47, 6805.77, 27752.13, 99706.68, 72308.74, 0.00, 0.00, 0.00
92, 95625.63, 132784.02, 20110.06, 16604.91, 6800.27, 27745.22, 99714.05, 72309.74, 0.00, 0.00, 0.00
93, 95620.71, 132807.22, 20102.22, 16593.76, 6785.65, 27740.26, 99727.65, 72305.50, 0.00, 0.00, 0.00
94, 95616.27, 132795.28, 20098.64, 16582.96, 6798.73, 27744.30, 99707.40, 72306.08, 0.00, 0.00, 0.00
95, 95612.16, 132785.56, 20104.86, 16591.68, 6819.61, 27747.54, 99737.73, 72305.90, 0.00, 0.00, 0.00
96, 95618.93, 132808.73, 20118.09, 16612.02, 6818.80, 27751.66, 99740.50, 72306.95, 0.00, 0.00, 0.00
97, 95617.88, 132770.91, 20104.28, 16591.81, 6806.96, 27747.57, 99752.73, 72305.48, 0.00, 0.00, 0.00
98, 95625.41, 132785.70, 20103.78, 16601.85, 6807.31, 27750.34, 99727.58, 72309.99, 0.00, 0.00, 0.00
99, 95611.91, 132776.23, 20095.36, 16599.05, 6801.48, 27746.54, 99728.32, 72295.59, 0.08, -0.21, 0.98
100, 95622.86, 132762.89, 20100.77, 16604.35, 6805.17, 27746.18, 99780.76, 72305.43, 0.00, 0.00, 0.00
101, 95628.11, 132789.66, 20105.68, 16613.65, 6809.93, 27752.17, 99749.71, 72311.38, 0.00, 0.00, 0.00
102, 95626.26, 132812.86, 20104.07, 16600.86, 6797.32, 27746.61, 99777.20, 72306.05, 0.00, 0.00, 0.00
103, 95620.98, 132789.66, 20101.46, 16595.28, 6794.17, 27742.40, 99756.13, 72306.26, 0.00, 0.00, 0.00
104, 95618.99, 132788.67, 20097.99, 16584.46, 6796.67, 27738.04, 99747.96, 72304.96, 0.00, 0.00, 0.00
105, 95629.77, 132789.39, 20107.88, 16600.26, 6813.30, 27751.43, 99742.78, 72317.48, 0.00, 0.00, 0.00
106, 95634.23, 132784.75, 20104.34, 16602.79, 6811.76, 27759.23, 99734.89, 72320.48, 0.00, 0.00, 0.00
107, 95630.02, 132783.75, 20100.50, 16598.05, 6799.47, 27749.27, 99766.13, 72314.44, 0.00, 0.00, 0.00
108, 95621.50, 132780.78, 20094.62, 16593.42, 6791.44, 27738.22, 99769.18, 72304.72, 0.00, 0.00, 0.00
109, 95624.91, 132808.52, 20100.12, 16590.04, 6796.00, 27746.81, 99760.62, 72310.55, 0.08, -0.20, 0.97
110, 95618.10, 132829.86, 20102.85, 16592.86, 6790.01, 27734.98, 99779.70, 72304.27, 0.00, 0.00, 0.00
111, 95623.11, 132798.42, 20110.49, 16601.73, 6795.13, 27745.33, 99754.45, 72309.74, 0.00, 0.00, 0.00
112, 95611.26, 132741.22, 20093.37, 16586.69, 6778.68, 27733.80, 99737.03, 72295.73, 0.00, 0.00, 0.00
113, 95619.91, 132780.06, 20103.47, 16591.12, 6791.11, 27743.72, 99765.13, 72304.72, 0.00, 0.00, 0.00
114, 95618.81, 132797.94, 20101.62, 16590.87, 6799.83, 27747.10, 99779.84, 72303.87, 0.00, 0.00, 0.00
115, 95627.73, 132786.36, 20109.01, 16606.76, 6797.77, 27754.05, 99766.78, 72313.28, 0.00, 0.00, 0.00
116, 95626.50, 132751.23, 20110.67, 16619.55, 6788.38, 27751.84, 99734.15, 72311.53, 0.00, 0.00, 0.00
117, 95626.37, 132785.61, 20110.09, 16604.13, 6818.80, 27751.39, 99757.06, 72311.96, 0.00, 0.00, 0.00
118, 95623.15, 132762.66, 20104.43, 16604.46, 6808.41, 27743.07, 99777.52, 72309.48, 0.00, 0.00, 0.00
119, 95634.73, 132790.13, 20117.53, 16617.65, 6816.90, 27749.44, 99770.96, 72316.56, 0.08, -0.20, 0.97
120, 95630.46, 132802.75, 20113.22, 16602.00, 6812.65, 27746.92, 99766.12, 72313.10, 0.00, 0.00, 0.00
121, 95623.98, 132821.06, 20101.10, 16600.71, 6800.00, 27737.04, 99733.77, 72306.05, 0.00, 0.00, 0.00
122, 95637.48, 132813.41, 20117.51, 16622.23, 6809.19, 27753.80, 99750.69, 72316.36, 0.00, 0.00, 0.00
123, 95628.29, 132786.17, 20113.66, 16611.62, 6803.22, 27750.25, 99784.24, 72311.13, 0.00, 0.00, 0.00
124, 95617.16, 132757.69, 20100.32, 16593.55, 6796.94, 27736.41, 99762.38, 72301.21, 0.00, 0.00, 0.00
125, 95623.28, 132754.72, 20100.99, 16607.19, 6803.20, 27749.94, 99775.14, 72305.97, 0.00, 0.00, 0.00
126, 95620.89, 132758.50, 20098.78, 16600.51, 6791.47, 27742.22, 99767.48, 72301.66, 0.00, 0.00, 0.00
127, 95637.73, 132826.47, 20118.16, 16610.92, 6808.12, 27758.83, 99768.21, 72320.45, 0.00, 0.00, 0.00
128, 95641.50, 132809.66, 20123.12, 16623.21, 6819.38, 27767.44, 99765.98, 72320.09, 0.00, 0.00, 0.00
129, 95632.94, 132803.58, 20118.16, 16621.25, 6817.97, 27764.40, 99772.69, 72310.73, 0.08, -0.21, 0.97
130, 95614.88, 132759.39, 20102.60, 16591.39, 6801.14, 27752.55, 99753.02, 72291.30, 0.00, 0.00, 0.00
131, 95615.64, 132751.20, 20104.19, 16594.49, 6799.76, 27743.21, 99745.95, 72293.18, 0.00, 0.00, 0.00
132, 95620.00, 132766.14, 20107.72, 16603.08, 6807.11, 27755.03, 99757.73, 72303.84, 0.00, 0.00, 0.00
133, 95618.19, 132753.91, 20102.62, 16608.89, 6800.36, 27747.81, 99760.93, 72302.68, 0.00, 0.00, 0.00
134, 95625.88, 132790.28, 20105.37, 16606.03, 6803.74, 27750.58, 99776.93, 72308.30, 0.00, 0.00, 0.00
135, 95623.98, 132823.22, 20102.71, 16596.91, 6803.56, 27752.73, 99754.54, 72309.95, 0.00, 0.00, 0.00
136, 95625.34, 132777.50, 20100.34, 16589.60, 6797.23, 27754.70, 99771.34, 72312.49, 0.00, 0.00, 0.00
137, 95631.47, 132782.59, 20114.11, 16611.62, 6805.08, 27756.13, 99769.53, 72319.40, 0.00, 0.00, 0.00
138, 95621.63, 132790.03, 20104.83, 16604.26, 6796.79, 27742.65, 99751.01, 72306.13, 0.00, 0.00, 0.00
139, 95621.16, 132796.69, 20094.40, 16587.88, 6794.04, 27743.50, 99740.72, 72299.93, 0.08, -0.21, 0.98
140, 95621.36, 132796.66, 20093.39, 16581.60, 6795.49, 27743.23, 99757.20, 72298.34, 0.00, 0.00, 0.00
141, 95625.52, 132761.22, 20098.67, 16593.17, 6801.21, 27747.68, 99806.21, 72307.60, 0.00, 0.00, 0.00
142, 95620.55, 132745.06, 20096.81, 16594.07, 6789.54, 27742.18, 99742.06, 72302.33, 0.00, 0.00, 0.00
143, 95622.37, 132744.25, 20088.94, 16582.74, 6773.16, 27731.27, 99724.83, 72307.09, 0.00, 0.00, 0.00
144, 95622.37, 132737.66, 20082.26, 16576.46, 6782.15, 27734.24, 99743.78, 72305.81, 0.00, 0.00, 0.00
145, 95630.48, 132761.63, 20088.36, 16583.74, 6812.48, 27749.49, 99775.13, 72310.59, 0.00, 0.00, 0.00
146, 95638.15, 132777.05, 20097.86, 16582.96, 6805.88, 27754.94, 99792.04, 72322.89, 0.00, 0.00, 0.00
147, 95636.00, 132791.47, 20106.24, 16600.66, 6804.05, 27751.01, 99796.38, 72323.05, 0.00, 0.00, 0.00
148, 95626.41, 132818.91, 20101.73, 16599.32, 6801.84, 27745.60, 99751.36, 72312.20, 0.00, 0.00, 0.00
149, 95614.55, 132775.30, 20089.57, 16591.61, 6792.61, 27741.08, 99759.90, 72301.27, 0.08, -0.21, 0.98
150, 95617.98, 132749.20, 20086.33, 16582.80, 6793.61, 27753.89, 99766.88, 72307.42, 0.00, 0.00, 0.00
151, 95622.97, 132762.05, 20090.96, 16590.52, 6793.59, 27749.11, 99767.61, 72309.14, 0.00, 0.00, 0.00
152, 95624.88, 132792.00, 20090.84, 16594.16, 6797.99, 27749.24, 99764.64, 72308.05, 0.00, 0.00, 0.00
153, 95639.52, 132791.52, 20100.52, 16596.51, 6807.63, 27762.68, 99777.20, 72324.21, 0.00, 0.00, 0.00
154, 95626.17, 132735.50, 20088.81, 16584.90, 6802.17, 27761.40, 99743.70, 72312.31, 0.00, 0.00, 0.00
155, 95623.82, 132754.30, 20093.19, 16589.69, 6796.49, 27761.22, 99789.12, 72311.94, 0.00, 0.00, 0.00
156, 95620.11, 132808.45, 20092.90, 16592.68, 6774.50, 27750.47, 99783.75, 72305.79, 0.00, 0.00, 0.00
157, 95636.79, 132791.31, 20104.59, 16605.91, 6814.51, 27762.01, 99796.11, 72326.84, 0.00, 0.00, 0.00
158, 95632.56, 132754.67, 20098.08, 16586.63, 6805.41, 27759.50, 99787.26, 72324.84, 0.00, 0.00, 0.00
159, 95635.76, 132762.88, 20094.73, 16583.23, 6802.13, 27755.99, 99797.83, 72321.73, 0.08, -0.21, 0.99
160, 95637.19, 132764.17, 20098.55, 16593.22, 6800.65, 27752.84, 99777.05, 72327.96, 0.00, 0.00, 0.00
161, 95631.55, 132762.52, 20091.58, 16585.35, 6788.83, 27746.00, 99765.06, 72321.64, 0.00, 0.00, 0.00
162, 95624.96, 132737.64, 20079.80, 16576.08, 6778.23, 27737.82, 99758.36, 72314.95, 0.00, 0.00, 0.00
163, 95627.71, 132751.67, 20080.31, 16572.32, 6777.76, 27739.14, 99758.24, 72318.24, 0.00, 0.00, 0.00
164, 95636.98, 132786.30, 20089.84, 16583.03, 6792.23, 27754.32, 99763.50, 72329.82, 0.00, 0.00, 0.00
165, 95630.93, 132769.56, 20093.95, 16591.63, 6795.78, 27747.54, 99755.36, 72321.59, 0.00, 0.00, 0.00
166, 95633.45, 132731.98, 20091.29, 16584.39, 6791.22, 27748.88, 99782.32, 72320.92, 0.00, 0.00, 0.00
167, 95632.45, 132723.52, 20091.78, 16585.69, 6792.72, 27753.36, 99792.47, 72326.40, 0.00, 0.00, 0.00
168, 95619.77, 132761.47, 20083.96, 16585.17, 6780.04, 27740.66, 99760.21, 72308.61, 0.00, 0.00, 0.00
169, 95616.27, 132751.00, 20073.92, 16566.55, 6771.75, 27727.07, 99765.11, 72302.91, 0.08, -0.22, 0.99
170, 95627.94, 132751.97, 20080.65, 16568.23, 6786.17, 27741.44, 99748.30, 72312.96, 0.00, 0.00, 0.00
171, 95634.98, 132753.67, 20095.56, 16583.59, 6794.28, 27751.57, 99743.45, 72321.05, 0.00, 0.00, 0.00
172, 95624.09, 132741.64, 20085.01, 16576.39, 6780.13, 27735.99, 99751.54, 72310.04, 0.00, 0.00, 0.00
173, 95628.00, 132769.36, 20095.36, 16585.80, 6783.82, 27740.55, 99768.44, 72314.55, 0.00, 0.00, 0.00
174, 95631.63, 132818.69, 20097.79, 16580.52, 6790.68, 27743.45, 99747.85, 72322.17, 0.00, 0.00, 0.00
175, 95631.45, 132816.08, 20098.44, 16583.85, 6792.52, 27747.70, 99741.73, 72320.81, 0.00, 0.00, 0.00
176, 95624.65, 132739.00, 20086.15, 16581.95, 6784.51, 27741.98, 99731.27, 72311.20, 0.00, 0.00, 0.00
177, 95628.45, 132711.31, 20082.24, 16582.47, 6778.52, 27740.62, 99772.35, 72317.01, 0.00, 0.00, 0.00
178, 95614.52, 132715.84, 20073.34, 16567.40, 6753.94, 27722.29, 99755.92, 72307.76, 0.00, 0.00, 0.00
179, 95624.34, 132707.75, 20083.53, 16574.91, 6777.05, 27728.59, 99723.73, 72309.30, 0.08, -0.22, 0.99
180, 95632.70, 132754.06, 20090.17, 16580.28, 6804.63, 27742.72, 99733.52, 72318.64, 0.00, 0.00, 0.00
181, 95636.38, 132841.20, 20099.52, 16582.58, 6799.13, 27751.10, 99769.60, 72322.82, 0.00, 0.00, 0.00
182, 95626.39, 132837.78, 20088.18, 16567.60, 6777.72, 27732.66, 99766.80, 72312.43, 0.00, 0.00, 0.00
183, 95626.48, 132767.48, 20092.12, 16581.57, 6780.56, 27732.28, 99727.63, 72313.66, 0.00, 0.00, 0.00
184, 95622.52, 132705.77, 20082.10, 16582.24, 6787.35, 27732.66, 99728.77, 72309.16, 0.00, 0.00, 0.00
185, 95621.61, 132691.81, 20074.23, 16574.24, 6781.59, 27732.52, 99722.30, 72304.43, 0.00, 0.00, 0.00
186, 95629.37, 132740.33, 20086.64, 16580.34, 6786.62, 27737.57, 99744.05, 72316.25, 0.00, 0.00, 0.00
187, 95623.53, 132715.95, 20083.58, 16576.28, 6779.91, 27734.00, 99747.09, 72313.59, 0.00, 0.00, 0.00
188, 95623.53, 132671.30, 20078.15, 16576.03, 6780.47, 27734.58, 99779.81, 72313.45, 0.00, 0.00, 0.00
189, 95625.07, 132701.36, 20081.79, 16578.09, 6787.11, 27740.73, 99821.19, 72314.57, 0.08, -0.21, 0.98
190, 95615.24, 132730.33, 20072.94, 16570.51, 6779.37, 27737.57, 99762.90, 72303.33, 0.00, 0.00, 0.00
191, 95618.91, 132845.80, 20088.09, 16578.27, 6777.74, 27735.09, 99746.53, 72306.73, 0.00, 0.00, 0.00
192, 95624.63, 132872.47, 20100.72, 16583.94, 6780.04, 27735.81, 99733.95, 72316.90, 0.00, 0.00, 0.00
193, 95606.59, 132666.11, 20061.16, 16553.23, 6762.27, 27720.83, 99708.45, 72299.13, 0.00, 0.00, 0.00
194, 95619.73, 132736.67, 20080.27, 16580.28, 6782.79, 27739.30, 99739.25, 72311.34, 0.00, 0.00, 0.00
195, 95630.75, 132755.39, 20088.05, 16587.14, 6792.90, 27753.74, 99787.21, 72324.05, 0.00, 0.00, 0.00
196, 95626.59, 132757.69, 20083.58, 16581.60, 6784.51, 27744.08, 99766.47, 72316.43, 0.00, 0.00, 0.00
197, 95624.23, 132737.23, 20083.11, 16568.07, 6780.69, 27740.95, 99792.24, 72314.95, 0.00, 0.00, 0.00
198, 95626.50, 132798.91, 20089.17, 16577.91, 6773.00, 27747.41, 99769.51, 72320.16, 0.00, 0.00, 0.00
199, 95611.22, 132677.97, 20064.98, 16566.40, 6765.87, 27730.04, 99730.38, 72302.08, 0.08, -0.21, 0.98
200, 95613.90, 132612.11, 20054.72, 16560.03, 6791.78, 27725.97, 99738.91, 72306.64, 0.00, 0.00, 0.00
201, 95622.37, 132654.11, 20062.99, 16567.40, 6785.12, 27730.56, 99753.13, 72316.14, 0.00, 0.00, 0.00
202, 95625.14, 132696.58, 20074.75, 16580.30, 6778.08, 27731.99, 99752.16, 72320.66, 0.00, 0.00, 0.00
203, 95631.31, 132761.27, 20086.46, 16584.30, 6783.64, 27737.89, 99753.22, 72329.52, 0.00, 0.00, 0.00
204, 95629.68, 132780.28, 20090.69, 16575.29, 6787.53, 27741.17, 99763.14, 72328.39, 0.00, 0.00, 0.00
205, 95612.00, 132753.11, 20069.90, 16562.49, 6770.70, 27721.64, 99765.27, 72308.94, 0.00, 0.00, 0.00
206, 95627.71, 132754.45, 20083.06, 16579.27, 6786.08, 27740.84, 99752.50, 72326.20, 0.00, 0.00, 0.00
207, 95619.33, 132714.17, 20074.97, 16558.82, 6772.44, 27731.47, 99746.00, 72317.79, 0.00, 0.00, 0.00
208, 95626.23, 132722.73, 20081.01, 16570.60, 6776.04, 27735.50, 99769.71, 72322.60, 0.00, 0.00, 0.00
209, 95617.59, 132658.02, 20063.04, 16563.98, 6766.83, 27724.92, 99760.44, 72315.89, 0.08, -0.21, 0.98
210, 95631.02, 132719.47, 20071.24, 16568.21, 6778.35, 27735.70, 99746.84, 72328.77, 0.00, 0.00, 0.00
211, 95631.48, 132796.38, 20081.95, 16567.20, 6774.39, 27734.80, 99752.77, 72325.44, 0.00, 0.00, 0.00
212, 95621.79, 132720.39, 20070.19, 16554.26, 6763.91, 27724.28, 99738.35, 72313.52, 0.00, 0.00, 0.00
213, 95634.23, 132689.11, 20077.57, 16565.48, 6774.93, 27731.79, 99728.01, 72324.68, 0.00, 0.00, 0.00
214, 95635.11, 132776.88, 20080.76, 16570.82, 6780.54, 27734.96, 99748.19, 72324.95, 0.00, 0.00, 0.00
215, 95621.74, 132763.30, 20063.78, 16562.69, 6765.38, 27723.11, 99745.20, 72313.10, 0.00, 0.00, 0.00
216, 95616.87, 132645.81, 20051.99, 16553.99, 6753.38, 27715.69, 99749.82, 72310.55, 0.00, 0.00, 0.00
217, 95627.04, 132707.39, 20062.28, 16561.14, 6764.96, 27729.60, 99751.18, 72323.00, 0.00, 0.00, 0.00
218, 95624.13, 132755.14, 20068.09, 16564.74, 6769.18, 27742.80, 99752.57, 72323.09, 0.00, 0.00, 0.00
219, 95623.55, 132705.08, 20067.78, 16554.26, 6754.97, 27731.72, 99749.84, 72322.84, 0.08, -0.21, 0.98
220, 95618.52, 132704.94, 20062.95, 16551.02, 6757.58, 27725.08, 99736.19, 72311.78, 0.00, 0.00, 0.00
221, 95631.87, 132740.03, 20076.20, 16572.61, 6789.01, 27741.31, 99761.29, 72325.91, 0.00, 0.00, 0.00
222, 95624.47, 132725.02, 20074.84, 16561.14, 6769.23, 27731.83, 99746.45, 72318.69, 0.00, 0.00, 0.00
223, 95618.39, 132701.36, 20068.02, 16551.27, 6762.92, 27725.75, 99707.24, 72315.40, 0.00, 0.00, 0.00
224, 95614.52, 132650.14, 20057.18, 16555.67, 6765.22, 27726.20, 99729.84, 72310.06, 0.00, 0.00, 0.00
225, 95625.30, 132680.75, 20059.93, 16549.19, 6766.36, 27732.23, 99764.91, 72319.78, 0.00, 0.00, 0.00
226, 95622.01, 132755.83, 20075.80, 16560.09, 6772.58, 27732.88, 99727.67, 72316.38, 0.00, 0.00, 0.00
227, 95629.39, 132834.52, 20084.25, 16571.09, 6776.24, 27742.29, 99758.16, 72326.98, 0.00, 0.00, 0.00
228, 95619.27, 132693.09, 20074.97, 16566.71, 6768.31, 27737.91, 99769.55, 72320.14, 0.00, 0.00, 0.00
229, 95617.67, 132665.94, 20078.44, 16573.13, 6768.89, 27742.63, 99726.64, 72319.42, 0.08, -0.21, 0.98
230, 95627.48, 132683.39, 20079.09, 16577.13, 6776.45, 27749.55, 99746.60, 72329.41, 0.00, 0.00, 0.00
231, 95603.28, 132667.67, 20047.84, 16550.21, 6749.98, 27721.62, 99742.16, 72302.15, 0.00, 0.00, 0.00
232, 95605.96, 132703.05, 20052.82, 16547.40, 6749.27, 27718.93, 99777.47, 72301.95, 0.00, 0.00, 0.00
233, 95617.74, 132750.56, 20068.76, 16556.88, 6765.22, 27732.75, 99757.15, 72317.75, 0.00, 0.00, 0.00
234, 95610.01, 132726.36, 20065.34, 16557.01, 6771.19, 27728.63, 99673.60, 72309.57, 0.00, 0.00, 0.00
235, 95608.27, 132673.48, 20061.16, 16556.25, 6767.93, 27726.42, 99716.25, 72306.84, 0.00, 0.00, 0.00
236, 95618.21, 132685.83, 20072.76, 16572.14, 6776.15, 27739.65, 99740.05, 72316.66, 0.00, 0.00, 0.00
237, 95603.21, 132668.50, 20063.17, 16558.39, 6756.62, 27723.96, 99720.38, 72301.27, 0.00, 0.00, 0.00
238, 95599.73, 132735.97, 20063.69, 16556.79, 6746.76, 27720.86, 99724.56, 72296.20, 0.00, 0.00, 0.00
239, 95601.05, 132710.77, 20065.14, 16559.07, 6751.88, 27721.04, 99732.20, 72296.42, 0.08, -0.21, 0.98
240, 95608.66, 132666.45, 20077.39, 16578.69, 6790.33, 27728.54, 99730.30, 72306.35, 0.00, 0.00, 0.00
241, 95609.07, 132666.16, 20067.04, 16571.98, 6773.61, 27726.36, 99729.30, 72305.19, 0.00, 0.00, 0.00
242, 95602.84, 132661.53, 20054.16, 16563.16, 6763.24, 27721.10, 99758.94, 72300.05, 0.00, 0.00, 0.00
243, 95616.06, 132676.08, 20060.47, 16560.50, 6763.88, 27731.54, 99752.10, 72313.16, 0.00, 0.00, 0.00
244, 95623.06, 132719.64, 20068.49, 16565.30, 6769.54, 27735.74, 99753.62, 72313.50, 0.00, 0.00, 0.00
245, 95612.35, 132714.06, 20068.60, 16583.68, 6769.49, 27729.57, 99732.72, 72308.54, 0.00, 0.00, 0.00
246, 95616.63, 132738.02, 20066.88, 16569.75, 6767.35, 27731.54, 99732.07, 72314.35, 0.00, 0.00, 0.00
247, 95603.08, 132651.03, 20047.41, 16543.17, 6746.94, 27715.31, 99741.26, 72303.84, 0.00, 0.00, 0.00
248, 95613.23, 132644.03, 20061.67, 16563.40, 6755.95, 27723.70, 99757.09, 72311.47, 0.00, 0.00, 0.00
249, 95620.34, 132672.70, 20069.77, 16577.15, 6768.89, 27734.07, 99723.73, 72319.91, 0.08, -0.21, 0.98
250, 95618.32, 132678.50, 20057.76, 16570.06, 6769.45, 27735.29, 99726.91, 72317.91, 0.00, 0.00, 0.00
251, 95625.25, 132688.31, 20060.64, 16566.35, 6772.56, 27742.69, 99764.73, 72323.52, 0.00, 0.00, 0.00
252, 95631.22, 132702.77, 20064.47, 16568.48, 6775.37, 27745.76, 99733.88, 72329.66, 0.00, 0.00, 0.00
253, 95624.58, 132715.25, 20063.17, 16569.75, 6770.52, 27736.26, 99743.07, 72321.66, 0.00, 0.00, 0.00
254, 95616.16, 132698.75, 20054.30, 16572.92, 6762.65, 27723.72, 99741.70, 72307.09, 0.00, 0.00, 0.00
255, 95609.09, 132650.11, 20044.20, 16558.75, 6756.71, 27718.98, 99707.66, 72302.46, 0.00, 0.00, 0.00
0, 95612.04, 132701.70, 20053.80, 16559.71, 6761.02, 27726.18, 99712.60, 72307.27, 0.00, 0.00, 0.00
1, 95625.72, 132776.72, 20072.11, 16579.43, 6773.49, 27737.93, 99732.23, 72321.21, 0.00, 0.00, 0.00
2, 95610.45, 132642.05, 20048.93, 16557.81, 6758.68, 27722.60, 99717.77, 72304.38, 0.00, 0.00, 0.00
3, 95617.77, 132641.14, 20063.26, 16569.21, 6777.36, 27743.23, 99755.19, 72313.86, 0.08, -0.21, 0.98
4, 95622.39, 132705.23, 20078.37, 16579.83, 6786.97, 27751.99, 99751.77, 72321.08, 0.00, 0.00, 0.00
5, 95618.21, 132708.52, 20069.21, 16573.21, 6765.47, 27738.16, 99733.34, 72316.20, 0.00, 0.00, 0.00
6, 95617.16, 132710.48, 20060.53, 16563.40, 6751.99, 27729.15, 99729.66, 72313.91, 0.00, 0.00, 0.00
7, 95617.30, 132721.84, 20062.50, 16571.38, 6782.46, 27728.79, 99732.30, 72312.65, 0.00, 0.00, 0.00
8, 95609.16, 132652.08, 20054.65, 16562.89, 6771.97, 27727.96, 99715.27, 72299.09, 0.00, 0.00, 0.00
9, 95616.60, 132670.97, 20065.76, 16576.08, 6781.05, 27737.55, 99729.21, 72307.35, 0.00, 0.00, 0.00
10, 95607.15, 132707.95, 20054.12, 16554.75, 6765.14, 27727.16, 99701.72, 72295.40, 0.00, 0.00, 0.00
11, 95620.80, 132705.41, 20063.10, 16567.36, 6772.38, 27732.19, 99719.96, 72309.27, 0.00, 0.00, 0.00
12, 95613.23, 132660.69, 20055.06, 16566.78, 6770.21, 27728.59, 99717.88, 72300.98, 0.00, 0.00, 0.00
13, 95605.34, 132652.50, 20045.49, 16560.83, 6761.00, 27724.57, 99749.15, 72288.29, 0.09, -0.21, 0.98
14, 95616.31, 132679.58, 20059.68, 16573.06, 6774.77, 27741.24, 99743.23, 72305.79, 0.00, 0.00, 0.00
15, 95616.34, 132735.86, 20060.56, 16568.97, 6775.55, 27742.40, 99741.05, 72307.35, 0.00, 0.00, 0.00
16, 95626.70, 132732.20, 20072.09, 16580.34, 6777.65, 27743.86, 99733.77, 72317.13, 0.00, 0.00, 0.00
17, 95621.16, 132693.39, 20063.51, 16577.30, 6767.30, 27732.55, 99700.83, 72312.70, 0.00, 0.00, 0.00
18, 95623.02, 132726.80, 20066.93, 16576.77, 6774.70, 27738.18, 99716.91, 72313.01, 0.00, 0.00, 0.00
19, 95616.47, 132669.63, 20056.18, 16566.40, 6769.47, 27732.48, 99726.28, 72311.13, 0.00, 0.00, 0.00
20, 95614.34, 132648.86, 20050.27, 16560.61, 6761.54, 27729.97, 99724.65, 72303.69, 0.00, 0.00, 0.00
21, 95620.96, 132679.02, 20057.70, 16567.96, 6766.97, 27736.19, 99722.75, 72306.28, 0.00, 0.00, 0.00
22, 95622.64, 132738.53, 20059.86, 16567.85, 6766.77, 27738.78, 99742.48, 72310.80, 0.00, 0.00, 0.00
23, 95612.71, 132701.88, 20053.94, 16564.38, 6762.52, 27737.49, 99753.10, 72304.96, 0.08, -0.20, 0.98
24, 95621.30, 132679.06, 20060.96, 16571.00, 6770.52, 27741.78, 99713.52, 72311.60, 0.00, 0.00, 0.00
25, 95620.16, 132697.63, 20061.99, 16568.88, 6764.62, 27737.91, 99724.54, 72311.42, 0.00, 0.00, 0.00
26, 95616.20, 132685.97, 20064.09, 16573.75, 6766.01, 27737.08, 99735.56, 72312.07, 0.00, 0.00, 0.00
27, 95599.50, 132699.13, 20048.13, 16552.76, 6741.13, 27716.97, 99704.55, 72294.01, 0.00, 0.00, 0.00
28, 95613.14, 132677.25, 20054.05, 16560.52, 6738.07, 27726.51, 99712.27, 72307.09, 0.00, 0.00, 0.00
29, 95626.37, 132681.05, 20066.30, 16573.04, 6773.34, 27741.71, 99729.75, 72321.05, 0.00, 0.00, 0.00
30, 95616.60, 132708.31, 20058.63, 16573.10, 6782.82, 27736.46, 99718.48, 72310.08, 0.00, 0.00, 0.00
31, 95608.31, 132701.00, 20044.44, 16554.69, 6761.34, 27724.03, 99701.16, 72300.91, 0.00, 0.00, 0.00
32, 95610.45, 132656.41, 20034.99, 16536.00, 6756.17, 27724.05, 99717.30, 72301.50, 0.00, 0.00, 0.00
33, 95612.63, 132727.56, 20047.93, 16546.41, 6761.54, 27731.88, 99732.12, 72307.58, 0.08, -0.21, 0.98
34, 95616.36, 132796.89, 20068.47, 16582.58, 6775.57, 27741.80, 99751.61, 72313.55, 0.00, 0.00, 0.00
35, 95614.27, 132664.45, 20054.61, 16580.70, 6766.07, 27736.84, 99741.37, 72310.98, 0.00, 0.00, 0.00
36, 95607.13, 132595.27, 20039.28, 16563.07, 6755.23, 27725.73, 99702.50, 72302.93, 0.00, 0.00, 0.00
37, 95608.82, 132645.80, 20039.70, 16559.42, 6756.44, 27730.42, 99697.47, 72303.11, 0.00, 0.00, 0.00
38, 95615.46, 132649.48, 20050.36, 16565.23, 6770.90, 27737.13, 99720.38, 72307.20, 0.00, 0.00, 0.00
39, 95620.89, 132675.48, 20052.17, 16561.99, 6771.37, 27739.92, 99704.55, 72307.58, 0.00, 0.00, 0.00
40, 95620.09, 132679.80, 20050.14, 16558.22, 6763.75, 27738.02, 99703.80, 72307.20, 0.00, 0.00, 0.00
41, 95621.50, 132680.42, 20045.33, 16547.11, 6761.80, 27734.98, 99712.80, 72308.72, 0.00, 0.00, 0.00
42, 95623.24, 132695.02, 20047.03, 16557.70, 6763.15, 27734.16, 99715.55, 72308.20, 0.00, 0.00, 0.00
43, 95617.52, 132692.05, 20042.38, 16557.70, 6755.26, 27721.77, 99733.23, 72305.68, 0.08, -0.21, 0.98
44, 95613.12, 132689.55, 20035.39, 16541.36, 6743.86, 27712.90, 99709.45, 72298.68, 0.00, 0.00, 0.00
45, 95614.57, 132641.86, 20023.54, 16525.56, 6731.14, 27706.48, 99698.12, 72299.29, 0.00, 0.00, 0.00
46, 95620.00, 132647.94, 20032.39, 16536.18, 6731.36, 27713.21, 99701.30, 72307.47, 0.00, 0.00, 0.00
47, 95598.38, 132690.30, 20016.05, 16515.97, 6714.46, 27693.59, 99668.57, 72286.68, 0.00, 0.00, 0.00
48, 95618.50, 132766.73, 20042.76, 16542.93, 6739.86, 27713.61, 99691.33, 72308.25, 0.00, 0.00, 0.00
49, 95614.81, 132672.64, 20045.36, 16551.22, 6731.72, 27722.87, 99698.81, 72306.84, 0.00, 0.00, 0.00
50, 95615.02, 132738.44, 20051.03, 16547.94, 6755.21, 27732.84, 99705.54, 72305.66, 0.00, 0.00, 0.00
51, 95618.41, 132709.52, 20056.71, 16550.82, 6763.59, 27731.58, 99720.59, 72310.98, 0.00, 0.00, 0.00
52, 95608.11, 132586.86, 20040.55, 16548.74, 6751.14, 27721.28, 99708.31, 72302.03, 0.00, 0.00, 0.00
53, 95609.56, 132638.88, 20042.38, 16556.12, 6753.38, 27724.16, 99724.79, 72310.53, 0.08, -0.21, 0.98
54, 95610.37, 132668.70, 20043.61, 16561.44, 6752.28, 27723.16, 99708.78, 72314.55, 0.00, 0.00, 0.00
55, 95615.55, 132666.83, 20040.39, 16555.60, 6754.21, 27727.49, 99718.57, 72314.46, 0.00, 0.00, 0.00
56, 95612.49, 132709.88, 20037.51, 16545.01, 6751.23, 27724.01, 99719.66, 72311.35, 0.00, 0.00, 0.00
57, 95605.02, 132723.61, 20035.83, 16547.13, 6745.78, 27716.81, 99720.92, 72303.89, 0.00, 0.00, 0.00
58, 95598.16, 132733.94, 20033.15, 16543.29, 6746.25, 27713.95, 99677.45, 72300.88, 0.00, 0.00, 0.00
59, 95611.70, 132769.09, 20045.96, 16545.77, 6759.01, 27727.20, 99677.42, 72315.70, 0.00, 0.00, 0.00
60, 95613.49, 132652.30, 20042.09, 16555.94, 6748.75, 27722.94, 99688.73, 72311.45, 0.00, 0.00, 0.00
61, 95598.66, 132627.53, 20026.31, 16540.49, 6730.22, 27704.12, 99682.98, 72297.23, 0.00, 0.00, 0.00
62, 95615.38, 132695.47, 20054.59, 16562.35, 6753.31, 27723.22, 99703.28, 72317.41, 0.00, 0.00, 0.00
63, 95605.45, 132673.61, 20038.52, 16554.06, 6746.16, 27711.42, 99708.02, 72309.05, 0.08, -0.21, 0.98
64, 95610.39, 132659.13, 20032.39, 16546.28, 6746.25, 27715.00, 99719.98, 72314.38, 0.00, 0.00, 0.00
65, 95614.73, 132657.63, 20033.44, 16543.93, 6747.79, 27719.40, 99699.46, 72319.02, 0.00, 0.00, 0.00
66, 95608.40, 132645.66, 20026.67, 16531.86, 6740.19, 27713.05, 99687.34, 72312.00, 0.00, 0.00, 0.00
67, 95605.85, 132681.61, 20035.63, 16539.93, 6744.62, 27716.12, 99701.67, 72308.63, 0.00, 0.00, 0.00
68, 95600.27, 132692.16, 20033.15, 16541.01, 6745.71, 27714.87, 99691.75, 72302.77, 0.00, 0.00, 0.00
69, 95605.41, 132690.66, 20035.79, 16544.56, 6750.41, 27719.13, 99687.23, 72312.12, 0.00, 0.00, 0.00
70, 95601.29, 132692.25, 20031.92, 16540.31, 6747.46, 27716.54, 99702.86, 72307.65, 0.00, 0.00, 0.00
71, 95608.00, 132723.69, 20040.60, 16550.37, 6748.10, 27721.39, 99728.77, 72313.66, 0.00, 0.00, 0.00
72, 95607.26, 132705.20, 20035.16, 16542.62, 6748.01, 27720.70, 99699.70, 72315.13, 0.00, 0.00, 0.00
73, 95613.02, 132647.11, 20036.60, 16551.71, 6743.36, 27723.83, 99694.90, 72320.81, 0.08, -0.21, 0.98
74, 95612.63, 132644.20, 20040.64, 16553.10, 6744.95, 27727.52, 99694.39, 72319.31, 0.00, 0.00, 0.00
75, 95610.88, 132668.08, 20038.99, 16542.79, 6765.20, 27726.76, 99735.05, 72316.30, 0.00, 0.00, 0.00
76, 95618.01, 132678.09, 20035.28, 16541.88, 6756.28, 27726.04, 99735.56, 72321.32, 0.00, 0.00, 0.00
77, 95627.11, 132701.59, 20044.73, 16553.59, 6764.04, 27732.88, 99709.34, 72331.09, 0.00, 0.00, 0.00
78, 95616.29, 132715.28, 20041.31, 16549.86, 6760.46, 27730.56, 99681.34, 72320.23, 0.00, 0.00, 0.00
79, 95611.95, 132707.17, 20033.73, 16530.21, 6754.76, 27726.44, 99675.52, 72319.94, 0.00, 0.00, 0.00
80, 95612.63, 132683.44, 20034.18, 16544.60, 6751.86, 27722.04, 99692.87, 72323.76, 0.00, 0.00, 0.00
81, 95617.85, 132706.55, 20040.24, 16559.22, 6754.43, 27725.24, 99692.20, 72330.89, 0.00, 0.00, 0.00
82, 95609.38, 132673.33, 20029.58, 16538.30, 6743.92, 27714.62, 99682.18, 72322.93, 0.00, 0.00, 0.00
83, 95613.30, 132694.28, 20042.72, 16540.20, 6751.08, 27721.10, 99691.80, 72328.86, 0.07, -0.21, 0.98
84, 95620.49, 132680.42, 20043.55, 16548.56, 6762.88, 27730.20, 99695.51, 72338.45, 0.00, 0.00, 0.00
85, 95618.86, 132683.28, 20035.54, 16538.46, 6749.67, 27720.50, 99687.01, 72334.84, 0.00, 0.00, 0.00
86, 95610.27, 132634.36, 20023.38, 16527.51, 6735.16, 27708.00, 99699.44, 72326.98, 0.00, 0.00, 0.00
87, 95614.45, 132674.25, 20032.59, 16539.89, 6743.68, 27716.34, 99699.30, 72335.63, 0.00, 0.00, 0.00
88, 95620.18, 132705.81, 20043.32, 16547.35, 6755.01, 27724.99, 99711.80, 72343.68, 0.00, 0.00, 0.00
89, 95613.05, 132693.39, 20029.64, 16536.69, 6741.53, 27715.47, 99669.51, 72336.81, 0.00, 0.00, 0.00
90, 95622.73, 132723.52, 20037.53, 16548.58, 6739.01, 27722.98, 99673.38, 72348.86, 0.00, 0.00, 0.00
91, 95617.66, 132698.53, 20041.06, 16549.63, 6733.24, 27721.95, 99676.15, 72347.37, 0.00, 0.00, 0.00
92, 95616.69, 132642.31, 20032.21, 16539.57, 6760.53, 27721.33, 99677.47, 72345.02, 0.00, 0.00, 0.00
93, 95616.24, 132697.30, 20034.22, 16542.91, 6760.64, 27725.13, 99668.13, 72345.42, 0.07, -0.21, 0.97
94, 95619.15, 132717.84, 20038.90, 16551.60, 6764.06, 27732.99, 99678.85, 72350.20, 0.00, 0.00, 0.00
95, 95618.73, 132641.50, 20036.15, 16550.08, 6757.13, 27731.72, 99682.95, 72356.44, 0.00, 0.00, 0.00
96, 95619.48, 132651.25, 20031.83, 16540.16, 6750.05, 27734.98, 99682.95, 72360.66, 0.00, 0.00, 0.00
97, 95628.78, 132720.58, 20036.26, 16543.46, 6756.13, 27733.28, 99709.01, 72366.34, 0.00, 0.00, 0.00
98, 95618.59, 132720.98, 20031.01, 16539.66, 6754.16, 27717.48, 99708.65, 72356.48, 0.00, 0.00, 0.00
99, 95622.44, 132707.48, 20037.69, 16556.72, 6759.57, 27727.52, 99708.40, 72359.55, 0.00, 0.00, 0.00
100, 95620.73, 132701.66, 20035.05, 16552.90, 6760.58, 27728.19, 99691.48, 72360.24, 0.00, 0.00, 0.00
101, 95614.23, 132649.73, 20023.92, 16532.04, 6746.78, 27717.82, 99677.09, 72350.09, 0.00, 0.00, 0.00
102, 95629.74, 132613.83, 20033.87, 16542.39, 6755.01, 27728.10, 99655.34, 72361.18, 0.07, -0.21, 0.98
103, 95628.38, 132624.47, 20033.64, 16543.22, 6757.78, 27727.20, 99680.46, 72364.80, 0.00, 0.00, 0.00
104, 95629.25, 132694.20, 20041.87, 16562.33, 6764.49, 27730.11, 99691.02, 72368.45, 0.00, 0.00, 0.00
105, 95626.66, 132707.83, 20038.76, 16559.27, 6757.63, 27725.75, 99677.35, 72366.14, 0.00, 0.00, 0.00
106, 95620.27, 132672.64, 20025.91, 16540.25, 6744.17, 27716.34, 99665.62, 72359.32, 0.00, 0.00, 0.00
107, 95633.59, 132754.03, 20039.88, 16554.73, 6753.89, 27724.59, 99677.40, 72369.36, 0.00, 0.00, 0.00
108, 95631.04, 132783.14, 20040.69, 16552.49, 6755.99, 27724.57, 99699.86, 72367.23, 0.00, 0.00, 0.00
109, 95631.06, 132639.84, 20037.02, 16547.51, 6754.54, 27725.35, 99684.17, 72365.98, 0.00, 0.00, 0.00
110, 95631.96, 132613.39, 20029.82, 16544.40, 6748.48, 27723.22, 99668.70, 72364.30, 0.00, 0.00, 0.00
111, 95631.29, 132624.23, 20026.94, 16536.00, 6744.21, 27721.15, 99660.68, 72363.57, 0.00, 0.00, 0.00
112, 95641.39, 132666.39, 20040.01, 16542.17, 6759.61, 27734.47, 99692.33, 72372.60, 0.08, -0.21, 0.98
113, 95631.29, 132674.88, 20033.22, 16541.83, 6737.84, 27725.64, 99698.21, 72362.85, 0.00, 0.00, 0.00
114, 95636.80, 132701.94, 20041.13, 16554.44, 6755.28, 27732.88, 99678.77, 72367.66, 0.00, 0.00, 0.00
115, 95636.09, 132693.56, 20041.09, 16551.67, 6774.32, 27736.30, 99662.11, 72367.52, 0.00, 0.00, 0.00
116, 95635.04, 132691.42, 20035.79, 16550.71, 6765.52, 27732.66, 99680.46, 72368.89, 0.00, 0.00, 0.00
117, 95624.76, 132733.22, 20028.93, 16542.37, 6758.25, 27723.27, 99666.78, 72359.21, 0.00, 0.00, 0.00
118, 95626.62, 132776.16, 20037.96, 16546.50, 6757.71, 27728.32, 99679.32, 72360.77, 0.00, 0.00, 0.00
119, 95630.21, 132659.45, 20039.97, 16543.40, 6762.86, 27734.98, 99671.72, 72362.72, 0.00, 0.00, 0.00
120, 95619.89, 132686.28, 20030.00, 16542.86, 6753.15, 27724.52, 99674.56, 72350.23, 0.00, 0.00, 0.00
121, 95624.47, 132645.33, 20030.92, 16548.27, 6754.99, 27727.96, 99706.48, 72355.08, 0.00, 0.00, 0.00
122, 95619.77, 132630.03, 20032.37, 16545.59, 6757.11, 27725.73, 99627.96, 72349.64, 0.08, -0.21, 0.98
123, 95616.71, 132642.94, 20026.56, 16543.46, 6760.84, 27729.57, 99660.79, 72345.62, 0.00, 0.00, 0.00
124, 95619.17, 132661.59, 20025.29, 16540.96, 6765.58, 27736.14, 99664.50, 72347.99, 0.00, 0.00, 0.00
125, 95625.09, 132730.20, 20035.41, 16546.68, 6763.53, 27739.79, 99693.56, 72352.77, 0.00, 0.00, 0.00
126, 95626.55, 132795.39, 20038.18, 16539.93, 6760.11, 27740.62, 99694.27, 72353.13, 0.00, 0.00, 0.00
127, 95615.30, 132651.81, 20024.93, 16540.36, 6755.99, 27727.94, 99662.16, 72343.99, 0.00, 0.00, 0.00
128, 95615.91, 132620.70, 20021.20, 16548.94, 6762.27, 27728.14, 99653.59, 72350.65, 0.00, 0.00, 0.00
129, 95624.70, 132685.30, 20032.88, 16554.35, 6768.40, 27736.12, 99698.41, 72356.13, 0.00, 0.00, 0.00
130, 95605.18, 132672.42, 20014.64, 16539.53, 6747.05, 27718.31, 99651.09, 72337.80, 0.00, 0.00, 0.00
131, 95612.67, 132664.94, 20020.93, 16553.61, 6755.59, 27726.20, 99632.61, 72350.72, 0.00, 0.00, 0.00
132, 95624.60, 132722.39, 20035.41, 16563.16, 6769.99, 27738.87, 99663.66, 72360.40, 0.08, -0.21, 0.98
133, 95617.85, 132678.19, 20021.91, 16549.41, 6758.59, 27730.42, 99680.06, 72355.41, 0.00, 0.00, 0.00
134, 95618.88, 132649.64, 20021.11, 16551.22, 6761.58, 27738.13, 99642.82, 72357.76, 0.00, 0.00, 0.00
135, 95616.69, 132676.69, 20017.35, 16536.29, 6750.43, 27727.61, 99695.46, 72356.02, 0.00, 0.00, 0.00
136, 95619.77, 132696.25, 20025.91, 16537.52, 6750.70, 27724.57, 99671.52, 72355.70, 0.00, 0.00, 0.00
137, 95626.10, 132718.47, 20028.59, 16550.30, 6756.62, 27736.93, 99682.77, 72364.75, 0.00, 0.00, 0.00
138, 95627.66, 132675.95, 20028.32, 16557.48, 6761.25, 27732.90, 99694.27, 72363.84, 0.00, 0.00, 0.00
139, 95621.45, 132662.00, 20019.50, 16539.73, 6747.19, 27724.16, 99629.39, 72359.50, 0.00, 0.00, 0.00
140, 95626.30, 132698.48, 20028.53, 16544.52, 6733.55, 27727.47, 99634.13, 72364.80, 0.00, 0.00, 0.00
141, 95625.09, 132691.42, 20023.23, 16541.10, 6761.60, 27730.27, 99644.37, 72361.63, 0.00, 0.00, 0.00
142, 95627.98, 132692.05, 20011.76, 16543.42, 6764.98, 27734.67, 99647.02, 72363.75, 0.08, -0.21, 0.98
143, 95631.40, 132702.28, 20015.29, 16536.92, 6762.59, 27743.63, 99644.32, 72370.07, 0.00, 0.00, 0.00
144, 95627.64, 132664.44, 20013.44, 16538.41, 6762.36, 27735.70, 99698.52, 72368.76, 0.00, 0.00, 0.00
145, 95633.01, 132662.38, 20018.24, 16546.88, 6758.81, 27735.23, 99710.03, 72373.00, 0.00, 0.00, 0.00
146, 95616.87, 132673.33, 20009.64, 16536.40, 6747.50, 27721.04, 99687.97, 72355.45, 0.00, 0.00, 0.00
147, 95622.50, 132683.81, 20015.34, 16533.83, 6753.47, 27727.05, 99656.92, 72361.98, 0.00, 0.00, 0.00
148, 95616.65, 132639.22, 20007.20, 16530.32, 6749.91, 27729.08, 99660.23, 72350.27, 0.00, 0.00, 0.00
149, 95614.32, 132672.39, 20006.64, 16536.89, 6750.47, 27725.97, 99660.70, 72346.13, 0.00, 0.00, 0.00
150, 95630.73, 132729.64, 20025.58, 16559.13, 6762.21, 27740.77, 99668.26, 72364.42, 0.00, 0.00, 0.00
151, 95627.95, 132723.48, 20024.08, 16556.47, 6759.44, 27736.84, 99649.95, 72358.79, 0.00, 0.00, 0.00
152, 95629.50, 132732.55, 20029.15, 16556.25, 6760.33, 27740.03, 99656.73, 72357.02, 0.08, -0.21, 0.98
153, 95624.76, 132723.42, 20025.84, 16550.82, 6758.38, 27730.04, 99704.09, 72357.31, 0.00, 0.00, 0.00
154, 95623.20, 132611.23, 20015.47, 16540.65, 6751.37, 27724.46, 99697.41, 72359.92, 0.00, 0.00, 0.00
155, 95609.20, 132613.31, 19999.47, 16522.30, 6740.17, 27714.20, 99608.04, 72337.26, 0.00, 0.00, 0.00
156, 95623.06, 132666.67, 20011.49, 16539.89, 6751.90, 27725.75, 99654.55, 72349.55, 0.00, 0.00, 0.00
157, 95633.19, 132688.48, 20026.07, 16555.24, 6766.16, 27737.71, 99673.38, 72362.45, 0.00, 0.00, 0.00
158, 95623.30, 132660.75, 20012.10, 16535.93, 6755.23, 27720.37, 99669.69, 72356.75, 0.00, 0.00, 0.00
159, 95620.23, 132693.66, 20015.43, 16530.93, 6751.99, 27729.35, 99622.59, 72350.72, 0.00, 0.00, 0.00
160, 95623.58, 132701.83, 20020.66, 16538.64, 6751.55, 27727.29, 99665.82, 72358.85, 0.00, 0.00, 0.00
161, 95630.55, 132700.16, 20017.89, 16539.15, 6753.24, 27716.01, 99672.39, 72362.63, 0.00, 0.00, 0.00
162, 95631.55, 132697.91, 20009.71, 16534.57, 6759.41, 27735.70, 99659.88, 72364.87, 0.07, -0.21, 0.98
163, 95644.09, 132730.48, 20019.59, 16546.79, 6768.69, 27756.82, 99734.98, 72378.09, 0.00, 0.00, 0.00
164, 95621.34, 132709.33, 20003.09, 16528.60, 6737.89, 27725.04, 99731.49, 72355.43, 0.00, 0.00, 0.00
165, 95626.37, 132659.08, 20005.17, 16527.19, 6738.13, 27718.69, 99616.65, 72355.63, 0.00, 0.00, 0.00
166, 95632.13, 132693.41, 20012.03, 16529.45, 6728.84, 27723.49, 99616.16, 72359.68, 0.00, 0.00, 0.00
167, 95618.59, 132680.78, 20004.01, 16526.30, 6734.63, 27710.28, 99674.05, 72352.44, 0.00, 0.00, 0.00
168, 95629.43, 132656.66, 20013.86, 16542.55, 6770.81, 27729.82, 99689.36, 72365.24, 0.00, 0.00, 0.00
169, 95629.56, 132680.59, 20012.90, 16535.82, 6762.72, 27740.23, 99677.71, 72361.27, 0.00, 0.00, 0.00
170, 95624.18, 132685.89, 20011.61, 16537.09, 6754.36, 27732.88, 99659.49, 72359.32, 0.00, 0.00, 0.00
171, 95623.28, 132667.50, 20015.18, 16536.69, 6751.57, 27725.10, 99645.15, 72355.57, 0.00, 0.00, 0.00
172, 95619.27, 132672.00, 20009.93, 16528.91, 6748.57, 27726.76, 99661.09, 72349.71, 0.08, -0.20, 0.98
173, 95622.13, 132667.05, 20009.33, 16527.19, 6752.48, 27727.40, 99675.90, 72351.34, 0.00, 0.00, 0.00
174, 95616.40, 132722.83, 20007.58, 16520.35, 6750.03, 27732.63, 99699.93, 72349.76, 0.00, 0.00, 0.00
175, 95624.18, 132730.94, 20017.62, 16539.60, 6749.65, 27729.15, 99689.63, 72355.48, 0.00, 0.00, 0.00
176, 95619.71, 132677.41, 20007.22, 16532.22, 6742.29, 27727.14, 99688.45, 72352.46, 0.00, 0.00, 0.00
177, 95624.72, 132675.97, 20007.63, 16531.24, 6746.00, 27715.18, 99705.48, 72357.58, 0.00, 0.00, 0.00
178, 95613.00, 132671.59, 20005.23, 16536.24, 6747.50, 27727.45, 99657.26, 72342.45, 0.00, 0.00, 0.00
179, 95616.80, 132679.13, 20011.90, 16542.88, 6749.38, 27738.51, 99649.26, 72344.95, 0.00, 0.00, 0.00
180, 95619.06, 132698.41, 20016.48, 16538.79, 6751.23, 27730.67, 99664.62, 72347.38, 0.00, 0.00, 0.00
181, 95627.09, 132726.17, 20024.26, 16545.68, 6754.43, 27733.57, 99673.55, 72356.70, 0.00, 0.00, 0.00
182, 95628.31, 132731.53, 20022.56, 16539.87, 6756.40, 27741.58, 99668.57, 72355.34, 0.08, -0.21, 0.98
183, 95626.33, 132662.92, 20020.72, 16537.59, 6753.45, 27735.36, 99704.69, 72357.78, 0.00, 0.00, 0.00
184, 95624.41, 132667.08, 20016.86, 16535.48, 6750.03, 27729.08, 99693.63, 72356.48, 0.00, 0.00, 0.00
185, 95627.55, 132711.22, 20015.96, 16541.74, 6751.43, 27736.14, 99657.80, 72355.74, 0.00, 0.00, 0.00
186, 95625.74, 132687.39, 20011.65, 16537.00, 6747.12, 27732.43, 99654.31, 72356.77, 0.00, 0.00, 0.00
187, 95627.69, 132659.36, 20009.24, 16545.59, 6755.26, 27744.06, 99689.02, 72359.81, 0.00, 0.00, 0.00
188, 95632.70, 132705.34, 20016.23, 16545.97, 6758.74, 27739.88, 99728.63, 72359.50, 0.00, 0.00, 0.00
189, 95624.47, 132696.78, 20007.34, 16536.13, 6745.18, 27725.95, 99644.86, 72345.98, 0.00, 0.00, 0.00
190, 95620.63, 132710.75, 20006.24, 16533.45, 6720.66, 27727.09, 99653.77, 72344.19, 0.00, 0.00, 0.00
191, 95612.02, 132677.00, 19998.46, 16520.33, 6734.20, 27703.85, 99724.41, 72335.88, 0.00, 0.00, 0.00
192, 95618.81, 132657.48, 20007.58, 16533.96, 6757.40, 27722.76, 99669.30, 72342.00, 0.08, -0.20, 0.98
193, 95622.34, 132730.59, 20016.61, 16533.09, 6759.03, 27735.74, 99648.81, 72348.28, 0.00, 0.00, 0.00
194, 95632.77, 132747.77, 20020.48, 16543.17, 6762.77, 27735.05, 99684.73, 72357.11, 0.00, 0.00, 0.00
195, 95627.87, 132717.72, 20015.54, 16536.56, 6754.05, 27728.75, 99680.53, 72352.28, 0.00, 0.00, 0.00
196, 95614.81, 132658.63, 20006.26, 16516.89, 6733.26, 27710.82, 99655.34, 72338.70, 0.00, 0.00, 0.00
197, 95621.07, 132622.84, 20003.45, 16526.50, 6746.58, 27719.34, 99688.45, 72348.88, 0.00, 0.00, 0.00
198, 95625.88, 132680.73, 20015.81, 16549.01, 6759.15, 27742.56, 99725.01, 72359.81, 0.00, 0.00, 0.00
199, 95630.35, 132720.94, 20017.91, 16549.99, 6753.11, 27728.32, 99689.07, 72356.10, 0.00, 0.00, 0.00
200, 95621.63, 132702.09, 20017.19, 16543.33, 6749.35, 27718.82, 99614.70, 72344.15, 0.00, 0.00, 0.00
201, 95614.23, 132724.41, 20013.95, 16534.88, 6738.18, 27715.96, 99668.57, 72339.25, 0.00, 0.00, 0.00
202, 95626.05, 132707.98, 20022.49, 16536.83, 6750.14, 27729.08, 99681.31, 72350.78, 0.09, -0.21, 0.98
203, 95626.19, 132682.31, 20010.42, 16527.77, 6749.98, 27731.12, 99733.63, 72351.41, 0.00, 0.00, 0.00
204, 95614.21, 132666.45, 19997.57, 16524.40, 6742.43, 27726.71, 99718.70, 72344.01, 0.00, 0.00, 0.00
205, 95630.64, 132699.16, 20022.02, 16559.51, 6759.75, 27742.11, 99689.98, 72361.60, 0.00, 0.00, 0.00
206, 95625.84, 132741.00, 20022.60, 16548.92, 6752.19, 27725.73, 99661.59, 72353.42, 0.00, 0.00, 0.00
207, 95614.59, 132697.86, 20016.10, 16533.23, 6742.31, 27722.17, 99653.30, 72343.85, 0.00, 0.00, 0.00
208, 95623.02, 132718.00, 20023.94, 16540.22, 6755.84, 27738.71, 99675.12, 72355.14, 0.00, 0.00, 0.00
209, 95619.22, 132681.31, 20017.73, 16536.78, 6751.28, 27733.60, 99686.84, 72344.84, 0.00, 0.00, 0.00
210, 95618.50, 132661.53, 20010.02, 16531.55, 6743.07, 27727.79, 99681.84, 72340.70, 0.00, 0.00, 0.00
211, 95618.77, 132723.56, 20007.72, 16529.70, 6738.22, 27718.89, 99671.21, 72338.52, 0.00, 0.00, 0.00
212, 95597.05, 132743.23, 19989.57, 16504.10, 6720.92, 27704.09, 99677.02, 72321.39, 0.09, -0.21, 0.98
213, 95604.95, 132651.55, 20000.05, 16515.75, 6731.23, 27717.97, 99701.07, 72329.44, 0.00, 0.00, 0.00
214, 95627.51, 132679.75, 20020.14, 16551.00, 6755.95, 27726.56, 99692.94, 72347.16, 0.00, 0.00, 0.00
215, 95632.31, 132693.41, 20030.98, 16558.53, 6754.34, 27731.21, 99674.78, 72356.73, 0.00, 0.00, 0.00
216, 95629.70, 132677.83, 20016.75, 16542.66, 6729.98, 27724.75, 99700.38, 72356.64, 0.00, 0.00, 0.00
217, 95622.95, 132710.89, 20014.18, 16534.32, 6752.82, 27728.88, 99768.23, 72351.99, 0.00, 0.00, 0.00
218, 95615.80, 132726.58, 20003.20, 16536.89, 6749.29, 27721.37, 99677.96, 72343.50, 0.00, 0.00, 0.00
219, 95630.77, 132716.67, 20015.63, 16545.16, 6755.03, 27724.88, 99645.37, 72362.38, 0.00, 0.00, 0.00
220, 95629.09, 132776.84, 20022.20, 16546.30, 6753.78, 27723.78, 99667.07, 72354.31, 0.00, 0.00, 0.00
221, 95618.13, 132715.63, 20008.61, 16531.01, 6732.84, 27702.84, 99680.08, 72341.17, 0.00, 0.00, 0.00
