%OpenBCI Raw EEG Data
%Sample Rate = 250.0 Hz
%First Column = SampleIndex
%Other Columns = EEG data in microvolts followed by Accel Data (in G) interleaved with Aux Data
252, 102440.95, 120318.32, 29240.13, 24080.23, 16961.69, 34509.37, 96891.70, 76736.89, 0.00, 0.00, 0.00
253, 102445.87, 120323.77, 29243.66, 24085.70, 17015.06, 34512.95, 96898.67, 76740.69, 0.00, 0.00, 0.00
254, 102438.94, 120332.73, 29250.90, 24090.80, 17008.65, 34515.63, 96907.98, 76729.42, 0.00, 0.00, 0.00
255, 102436.77, 120327.91, 29244.71, 24090.87, 17010.26, 34519.81, 96907.59, 76728.89, 0.08, -0.21, 0.98
0, 102438.29, 120310.38, 29241.85, 24087.80, 17022.37, 34523.57, 96902.21, 76735.81, 0.00, 0.00, 0.00
1, 102435.91, 120304.55, 29237.47, 24079.96, 17009.34, 34512.75, 96896.53, 76733.73, 0.00, 0.00, 0.00
2, 102432.70, 120303.74, 29241.47, 24082.98, 16994.46, 34508.52, 96896.40, 76730.88, 0.00, 0.00, 0.00
3, 102427.07, 120309.22, 29240.01, 24081.86, 16987.44, 34503.34, 96890.07, 76725.18, 0.00, 0.00, 0.00
4, 102428.50, 120327.91, 29241.87, 24084.50, 17006.21, 34512.84, 96890.34, 76725.63, 0.00, 0.00, 0.00
5, 102434.94, 120320.46, 29236.39, 24080.83, 17014.33, 34518.96, 96899.41, 76733.45, 0.00, 0.00, 0.00
6, 102436.12, 120316.15, 29233.49, 24076.31, 17003.22, 34517.30, 96903.82, 76730.90, 0.00, 0.00, 0.00
7, 102438.45, 120303.70, 29230.49, 24074.19, 17002.17, 34518.71, 96898.03, 76731.97, 0.00, 0.00, 0.00
8, 102444.50, 120307.68, 29229.67, 24070.23, 17008.07, 34513.82, 96896.26, 76737.34, 0.00, 0.00, 0.00
9, 102444.05, 120324.38, 29234.27, 24068.65, 17003.64, 34510.38, 96896.17, 76734.84, 0.08, -0.21, 0.98
10, 102445.04, 120331.82, 29233.31, 24069.88, 16993.09, 34509.10, 96894.14, 76737.05, 0.00, 0.00, 0.00
11, 102438.89, 120305.24, 29228.32, 24064.74, 16981.60, 34498.31, 96886.65, 76731.55, 0.00, 0.00, 0.00
12, 102438.35, 120299.95, 29225.22, 24065.47, 16981.58, 34498.15, 96887.23, 76727.30, 0.00, 0.00, 0.00
13, 102440.95, 120306.47, 29217.60, 24062.08, 16977.31, 34499.27, 96887.70, 76724.80, 0.00, 0.00, 0.00
14, 102434.78, 120322.14, 29219.81, 24065.00, 16984.89, 34501.08, 96885.60, 76722.00, 0.00, 0.00, 0.00
15, 102432.03, 120318.63, 29223.01, 24064.13, 16977.80, 34495.67, 96877.45, 76721.66, 0.00, 0.00, 0.00
16, 102428.41, 120322.77, 29223.65, 24064.38, 16989.63, 34505.55, 96877.66, 76719.92, 0.00, 0.00, 0.00
17, 102427.54, 120315.84, 29223.97, 24068.31, 16977.07, 34503.58, 96881.89, 76723.16, 0.00, 0.00, 0.00
18, 102422.64, 120315.97, 29223.85, 24063.35, 16957.31, 34493.05, 96876.48, 76721.38, 0.00, 0.00, 0.00
19, 102427.55, 120322.97, 29224.23, 24063.31, 17003.26, 34495.74, 96880.88, 76725.13, 0.08, -0.20, 0.98
20, 102427.94, 120315.59, 29223.36, 24061.25, 17004.49, 34495.25, 96881.13, 76727.16, 0.00, 0.00, 0.00
21, 102433.02, 120325.98, 29221.24, 24061.61, 16989.27, 34492.18, 96875.84, 76729.16, 0.00, 0.00, 0.00
22, 102433.08, 120327.82, 29220.19, 24064.31, 16989.70, 34490.35, 96873.71, 76726.59, 0.00, 0.00, 0.00
23, 102430.62, 120312.38, 29219.05, 24064.07, 16993.05, 34490.71, 96870.42, 76724.91, 0.00, 0.00, 0.00
24, 102428.72, 120307.10, 29218.82, 24062.61, 16987.77, 34490.82, 96878.45, 76726.92, 0.00, 0.00, 0.00
25, 102433.26, 120330.41, 29220.84, 24064.40, 16999.35, 34505.93, 96891.73, 76731.57, 0.00, 0.00, 0.00
26, 102431.07, 120325.94, 29215.14, 24059.06, 16989.07, 34497.59, 96880.57, 76730.50, 0.00, 0.00, 0.00
27, 102424.54, 120298.76, 29212.97, 24055.66, 16982.94, 34491.82, 96866.38, 76727.79, 0.00, 0.00, 0.00
28, 102423.55, 120295.61, 29212.10, 24054.10, 16991.66, 34496.00, 96866.51, 76726.83, 0.00, 0.00, 0.00
29, 102422.30, 120307.79, 29212.46, 24054.43, 16992.82, 34496.95, 96871.23, 76727.57, 0.08, -0.20, 0.98
30, 102422.26, 120331.10, 29216.05, 24062.14, 16989.25, 34494.39, 96870.47, 76725.02, 0.00, 0.00, 0.00
31, 102428.27, 120363.13, 29217.60, 24066.30, 16989.94, 34494.20, 96865.44, 76727.14, 0.00, 0.00, 0.00
32, 102423.69, 120335.22, 29215.36, 24060.06, 16983.28, 34486.08, 96859.70, 76722.77, 0.00, 0.00, 0.00
33, 102422.82, 120293.02, 29209.91, 24056.02, 16982.32, 34487.69, 96871.92, 76723.92, 0.00, 0.00, 0.00
34, 102421.37, 120288.79, 29206.11, 24053.96, 16980.08, 34487.69, 96871.18, 76724.39, 0.00, 0.00, 0.00
35, 102418.28, 120297.04, 29210.44, 24055.48, 16978.70, 34484.79, 96862.17, 76721.55, 0.00, 0.00, 0.00
36, 102417.14, 120306.74, 29209.91, 24055.15, 16975.72, 34482.44, 96859.63, 76719.32, 0.00, 0.00, 0.00
37, 102418.10, 120318.43, 29210.46, 24058.32, 16982.65, 34481.86, 96862.94, 76719.09, 0.00, 0.00, 0.00
38, 102416.34, 120315.21, 29206.49, 24059.93, 16993.65, 34481.01, 96862.53, 76718.07, 0.00, 0.00, 0.00
39, 102417.32, 120314.66, 29204.36, 24061.18, 16986.81, 34478.91, 96857.62, 76718.29, 0.07, -0.21, 0.98
40, 102415.48, 120299.41, 29201.19, 24059.26, 16968.73, 34476.52, 96851.89, 76715.07, 0.00, 0.00, 0.00
41, 102413.32, 120297.64, 29199.63, 24054.25, 16959.12, 34471.53, 96851.45, 76711.43, 0.00, 0.00, 0.00
42, 102415.27, 120315.55, 29203.18, 24054.68, 16976.95, 34471.15, 96848.30, 76710.98, 0.00, 0.00, 0.00
43, 102414.26, 120308.35, 29200.45, 24055.75, 16973.00, 34469.65, 96847.00, 76711.03, 0.00, 0.00, 0.00
44, 102414.88, 120300.08, 29198.17, 24057.88, 16981.80, 34475.62, 96851.02, 76714.25, 0.00, 0.00, 0.00
45, 102413.84, 120300.13, 29197.79, 24056.80, 17009.88, 34483.80, 96852.77, 76717.47, 0.00, 0.00, 0.00
46, 102413.56, 120296.46, 29189.57, 24045.25, 16985.04, 34470.84, 96855.16, 76718.47, 0.00, 0.00, 0.00
47, 102414.77, 120292.19, 29192.03, 24047.95, 16973.24, 34468.47, 96860.14, 76719.86, 0.00, 0.00, 0.00
48, 102415.17, 120295.03, 29192.34, 24057.85, 17000.09, 34484.09, 96851.65, 76721.20, 0.00, 0.00, 0.00
49, 102414.59, 120311.86, 29192.18, 24057.85, 17001.72, 34482.55, 96852.90, 76721.24, 0.08, -0.21, 0.98
50, 102417.57, 120319.34, 29195.80, 24056.06, 16990.86, 34478.55, 96860.45, 76722.07, 0.00, 0.00, 0.00
51, 102419.73, 120297.98, 29191.80, 24049.83, 16977.09, 34470.55, 96852.30, 76721.89, 0.00, 0.00, 0.00
52, 102418.06, 120289.73, 29191.22, 24050.61, 16978.56, 34470.75, 96842.02, 76719.77, 0.00, 0.00, 0.00
53, 102417.32, 120296.62, 29190.80, 24053.40, 16979.39, 34468.69, 96838.33, 76717.98, 0.00, 0.00, 0.00
54, 102416.54, 120300.70, 29191.11, 24051.10, 16980.80, 34472.89, 96838.52, 76719.99, 0.00, 0.00, 0.00
55, 102419.63, 120293.87, 29188.09, 24053.00, 16971.79, 34473.14, 96842.87, 76725.67, 0.00, 0.00, 0.00
56, 102421.01, 120296.37, 29187.49, 24054.68, 16967.68, 34474.86, 96847.71, 76726.52, 0.00, 0.00, 0.00
57, 102418.82, 120290.47, 29187.11, 24055.37, 16974.43, 34475.51, 96845.21, 76724.75, 0.00, 0.00, 0.00
58, 102415.24, 120287.49, 29186.28, 24055.48, 16983.59, 34475.29, 96844.92, 76721.76, 0.00, 0.00, 0.00
59, 102414.13, 120289.24, 29185.92, 24053.47, 16975.63, 34472.51, 96848.85, 76719.55, 0.08, -0.20, 0.98
60, 102416.80, 120288.77, 29187.20, 24053.94, 16963.36, 34464.06, 96841.97, 76720.59, 0.00, 0.00, 0.00
61, 102416.25, 120320.73, 29192.21, 24059.13, 16959.72, 34466.63, 96837.95, 76723.08, 0.00, 0.00, 0.00
62, 102421.12, 120344.16, 29195.02, 24063.15, 16973.87, 34471.66, 96845.68, 76728.28, 0.00, 0.00, 0.00
63, 102419.55, 120280.39, 29187.11, 24055.71, 16985.96, 34470.81, 96848.38, 76727.61, 0.00, 0.00, 0.00
64, 102419.69, 120247.69, 29185.48, 24052.60, 16978.03, 34468.09, 96845.12, 76730.05, 0.00, 0.00, 0.00
65, 102419.91, 120262.02, 29185.54, 24052.62, 16965.40, 34466.66, 96844.61, 76731.28, 0.00, 0.00, 0.00
66, 102421.70, 120268.98, 29180.51, 24049.11, 16945.71, 34459.48, 96840.07, 76731.19, 0.00, 0.00, 0.00
67, 102421.55, 120279.65, 29181.56, 24055.08, 16933.39, 34462.39, 96838.08, 76730.90, 0.00, 0.00, 0.00
68, 102417.23, 120287.72, 29178.86, 24052.33, 16971.28, 34470.08, 96843.24, 76733.52, 0.00, 0.00, 0.00
69, 102418.23, 120282.06, 29175.87, 24048.22, 16994.25, 34469.72, 96847.94, 76736.82, 0.09, -0.20, 0.98
70, 102418.39, 120266.17, 29175.91, 24046.45, 16989.81, 34471.57, 96842.62, 76735.57, 0.00, 0.00, 0.00
71, 102420.88, 120273.01, 29178.26, 24049.89, 16975.10, 34467.42, 96848.01, 76739.33, 0.00, 0.00, 0.00
72, 102422.26, 120268.45, 29169.90, 24043.39, 16982.92, 34471.89, 96837.39, 76732.38, 0.00, 0.00, 0.00
73, 102434.89, 120271.34, 29163.17, 24033.09, 16974.32, 34458.43, 96823.55, 76736.02, 0.00, 0.00, 0.00
74, 102421.03, 120277.82, 29176.24, 24049.63, 16984.75, 34473.79, 96839.13, 76742.45, 0.00, 0.00, 0.00
75, 102404.54, 120270.84, 29178.93, 24051.77, 16979.70, 34478.37, 96848.23, 76735.28, 0.00, 0.00, 0.00
76, 102420.18, 120277.66, 29174.72, 24045.92, 16968.44, 34471.11, 96845.77, 76744.02, 0.00, 0.00, 0.00
77, 102426.44, 120278.35, 29173.29, 24046.99, 16965.31, 34468.27, 96844.74, 76744.00, 0.00, 0.00, 0.00
78, 102420.43, 120277.03, 29172.29, 24048.33, 16967.37, 34468.60, 96838.84, 76738.59, 0.00, 0.00, 0.00
79, 102416.98, 120277.21, 29176.07, 24054.03, 16977.83, 34471.62, 96835.55, 76736.15, 0.09, -0.20, 0.98
80, 102414.70, 120275.76, 29173.88, 24051.50, 16968.84, 34465.25, 96833.07, 76735.05, 0.00, 0.00, 0.00
81, 102412.78, 120280.50, 29169.88, 24048.55, 16952.28, 34458.32, 96829.30, 76731.46, 0.00, 0.00, 0.00
82, 102416.49, 120276.81, 29172.00, 24044.62, 16971.21, 34461.89, 96825.36, 76730.98, 0.00, 0.00, 0.00
83, 102416.54, 120271.54, 29174.81, 24049.65, 16976.33, 34464.09, 96831.58, 76731.46, 0.00, 0.00, 0.00
84, 102411.84, 120271.96, 29168.98, 24052.31, 16966.76, 34458.97, 96835.95, 76729.31, 0.00, 0.00, 0.00
85, 102409.63, 120274.13, 29168.58, 24051.95, 16957.80, 34456.38, 96836.78, 76728.09, 0.00, 0.00, 0.00
86, 102411.27, 120277.98, 29169.90, 24052.82, 16964.71, 34462.61, 96834.59, 76730.36, 0.00, 0.00, 0.00
87, 102410.91, 120274.27, 29164.64, 24047.95, 16967.68, 34463.95, 96830.75, 76732.84, 0.00, 0.00, 0.00
88, 102409.81, 120271.02, 29166.21, 24045.36, 16969.09, 34458.32, 96821.90, 76732.73, 0.00, 0.00, 0.00
89, 102407.27, 120272.92, 29170.39, 24047.10, 16959.90, 34454.86, 96819.57, 76730.66, 0.08, -0.21, 0.98
90, 102402.97, 120275.18, 29163.48, 24043.90, 16946.67, 34452.69, 96816.66, 76726.18, 0.00, 0.00, 0.00
91, 102400.83, 120267.09, 29158.54, 24041.22, 16922.91, 34443.34, 96819.08, 76724.69, 0.00, 0.00, 0.00
92, 102396.98, 120251.46, 29156.22, 24041.29, 16947.20, 34448.93, 96823.59, 76722.88, 0.00, 0.00, 0.00
93, 102400.89, 120256.29, 29158.32, 24045.47, 16981.11, 34459.57, 96818.30, 76726.25, 0.00, 0.00, 0.00
94, 102398.44, 120258.95, 29158.81, 24046.32, 16973.98, 34457.18, 96813.09, 76724.80, 0.00, 0.00, 0.00
95, 102393.85, 120263.04, 29156.53, 24044.20, 16967.59, 34457.54, 96817.12, 76723.45, 0.00, 0.00, 0.00
96, 102395.77, 120258.33, 29153.25, 24041.09, 16962.80, 34454.23, 96815.70, 76723.48, 0.00, 0.00, 0.00
97, 102395.20, 120258.91, 29155.37, 24047.32, 16964.15, 34455.08, 96816.89, 76722.52, 0.00, 0.00, 0.00
98, 102396.04, 120282.35, 29157.92, 24048.84, 16962.83, 34459.15, 96818.63, 76723.21, 0.00, 0.00, 0.00
99, 102397.20, 120286.11, 29157.27, 24046.92, 16950.02, 34456.18, 96822.91, 76724.62, 0.08, -0.21, 0.98
100, 102391.39, 120246.05, 29149.02, 24039.84, 16956.75, 34453.22, 96824.89, 76719.32, 0.00, 0.00, 0.00
101, 102392.02, 120237.72, 29146.38, 24038.16, 16964.71, 34453.71, 96824.16, 76721.11, 0.00, 0.00, 0.00
102, 102395.77, 120262.46, 29150.03, 24037.22, 16960.57, 34455.05, 96822.91, 76725.69, 0.00, 0.00, 0.00
103, 102395.51, 120253.84, 29146.88, 24039.32, 16958.94, 34453.04, 96818.08, 76725.04, 0.00, 0.00, 0.00
104, 102399.62, 120243.13, 29143.63, 24043.39, 16948.75, 34450.79, 96815.86, 76727.32, 0.00, 0.00, 0.00
105, 102396.42, 120254.57, 29147.54, 24040.73, 16951.76, 34452.53, 96820.60, 76723.57, 0.00, 0.00, 0.00
106, 102395.77, 120262.44, 29150.38, 24042.50, 16959.47, 34452.04, 96817.90, 76721.13, 0.00, 0.00, 0.00
107, 102396.22, 120255.48, 29143.48, 24039.72, 16941.97, 34442.05, 96812.51, 76718.74, 0.00, 0.00, 0.00
108, 102393.05, 120256.41, 29144.42, 24037.15, 16947.18, 34444.75, 96810.59, 76716.80, 0.00, 0.00, 0.00
109, 102395.75, 120259.78, 29141.42, 24038.21, 16973.20, 34462.97, 96808.82, 76718.29, 0.08, -0.21, 0.98
110, 102395.70, 120264.63, 29138.07, 24039.77, 16961.08, 34450.70, 96807.99, 76717.66, 0.00, 0.00, 0.00
111, 102392.31, 120266.71, 29132.28, 24031.57, 16948.77, 34442.79, 96807.19, 76715.21, 0.00, 0.00, 0.00
112, 102389.18, 120255.87, 29132.59, 24029.11, 16948.39, 34440.06, 96801.49, 76711.34, 0.00, 0.00, 0.00
113, 102392.04, 120264.48, 29137.42, 24035.01, 16940.56, 34436.08, 96798.77, 76711.74, 0.00, 0.00, 0.00
114, 102390.30, 120252.23, 29137.31, 24036.30, 16946.62, 34435.45, 96799.68, 76710.58, 0.00, 0.00, 0.00
115, 102388.94, 120241.79, 29138.02, 24039.81, 16931.09, 34430.52, 96798.77, 76710.27, 0.00, 0.00, 0.00
116, 102389.70, 120253.41, 29138.34, 24039.28, 16939.36, 34436.95, 96803.75, 76712.01, 0.00, 0.00, 0.00
117, 102386.05, 120265.19, 29138.25, 24037.31, 16975.59, 34439.25, 96807.44, 76710.18, 0.00, 0.00, 0.00
118, 102386.84, 120259.71, 29139.25, 24040.22, 16970.58, 34438.02, 96798.36, 76711.61, 0.00, 0.00, 0.00
119, 102384.93, 120244.63, 29133.78, 24035.30, 16961.49, 34434.43, 96791.23, 76708.63, 0.09, -0.20, 0.98
120, 102382.70, 120244.85, 29130.22, 24031.81, 16950.62, 34431.14, 96797.40, 76704.61, 0.00, 0.00, 0.00
121, 102385.60, 120251.22, 29134.56, 24038.81, 16957.69, 34437.40, 96798.31, 76708.52, 0.00, 0.00, 0.00
122, 102382.30, 120253.01, 29135.16, 24037.98, 16954.20, 34434.47, 96794.07, 76707.14, 0.00, 0.00, 0.00
123, 102380.46, 120253.97, 29131.90, 24033.36, 16949.26, 34431.03, 96794.41, 76704.45, 0.00, 0.00, 0.00
124, 102381.47, 120262.59, 29131.72, 24030.40, 16940.79, 34424.73, 96793.29, 76707.34, 0.00, 0.00, 0.00
125, 102377.00, 120252.11, 29130.33, 24025.91, 16930.19, 34423.59, 96789.38, 76700.59, 0.00, 0.00, 0.00
126, 102376.33, 120239.06, 29130.71, 24029.98, 16945.75, 34424.70, 96789.22, 76696.27, 0.00, 0.00, 0.00
127, 102379.08, 120251.51, 29132.53, 24032.01, 16946.09, 34423.34, 96795.03, 76700.43, 0.00, 0.00, 0.00
128, 102376.57, 120251.35, 29132.10, 24032.33, 16952.61, 34425.15, 96794.43, 76700.63, 0.00, 0.00, 0.00
129, 102375.91, 120245.48, 29131.74, 24036.71, 16947.81, 34422.87, 96793.73, 76700.74, 0.09, -0.20, 0.98
130, 102374.05, 120240.73, 29128.68, 24035.57, 16941.01, 34427.79, 96799.61, 76700.34, 0.00, 0.00, 0.00
131, 102372.80, 120248.94, 29133.02, 24029.33, 16942.55, 34419.96, 96792.02, 76698.29, 0.00, 0.00, 0.00
132, 102371.41, 120250.91, 29133.73, 24033.29, 16950.27, 34419.50, 96783.88, 76697.73, 0.00, 0.00, 0.00
133, 102373.24, 120239.88, 29091.04, 24030.34, 16955.50, 34421.89, 96780.97, 76702.65, 0.00, 0.00, 0.00
134, 102379.86, 120238.05, 29029.01, 24026.85, 16946.73, 34414.89, 96779.85, 76710.83, 0.00, 0.00, 0.00
135, 102369.82, 120241.61, 29011.65, 24021.73, 16943.98, 34414.71, 96780.84, 76694.27, 0.00, 0.00, 0.00
136, 102361.11, 120242.05, 29005.54, 24020.66, 16931.54, 34408.88, 96779.95, 76680.07, 0.00, 0.00, 0.00
137, 102360.70, 120239.73, 29001.97, 24025.15, 16902.05, 34402.75, 96779.43, 76683.27, 0.00, 0.00, 0.00
138, 102358.20, 120236.69, 28995.38, 24017.31, 16928.70, 34405.39, 96783.72, 76685.46, 0.00, 0.00, 0.00
139, 102357.89, 120232.98, 28993.14, 24017.02, 16948.68, 34408.83, 96778.78, 76685.10, 0.08, -0.20, 0.98
140, 102364.48, 120240.40, 28999.00, 24018.58, 16930.55, 34405.35, 96774.02, 76690.51, 0.00, 0.00, 0.00
141, 102361.89, 120246.10, 28991.42, 24013.35, 16927.67, 34399.58, 96776.34, 76690.06, 0.00, 0.00, 0.00
142, 102361.09, 120240.71, 28985.27, 24017.13, 16940.25, 34401.59, 96781.58, 76690.02, 0.00, 0.00, 0.00
143, 102362.78, 120231.73, 28986.17, 24020.08, 16945.28, 34402.22, 96780.32, 76689.37, 0.00, 0.00, 0.00
144, 102360.68, 120230.12, 28986.26, 24018.98, 16940.05, 34401.61, 96779.38, 76686.73, 0.00, 0.00, 0.00
145, 102360.28, 120245.81, 28982.16, 24015.70, 16923.22, 34401.03, 96782.40, 76684.72, 0.00, 0.00, 0.00
146, 102363.01, 120240.80, 28980.96, 24016.79, 16926.30, 34406.44, 96792.08, 76688.20, 0.00, 0.00, 0.00
147, 102363.74, 120225.65, 28978.99, 24012.93, 16939.96, 34405.97, 96791.79, 76691.16, 0.00, 0.00, 0.00
148, 102364.64, 120222.34, 28978.77, 24012.05, 16939.13, 34403.00, 96788.73, 76691.31, 0.08, -0.21, 0.98
149, 102366.38, 120226.99, 28976.96, 24012.77, 16935.78, 34402.73, 96791.63, 76694.17, 0.00, 0.00, 0.00
150, 102366.90, 120224.42, 28974.59, 24009.08, 16929.03, 34400.79, 96788.28, 76695.31, 0.00, 0.00, 0.00
151, 102362.45, 120224.44, 28973.76, 24006.49, 16924.63, 34394.73, 96779.79, 76691.96, 0.00, 0.00, 0.00
152, 102359.56, 120226.25, 28973.29, 24008.52, 16924.03, 34393.72, 96775.54, 76690.60, 0.00, 0.00, 0.00
153, 102357.91, 120231.80, 28975.64, 24013.66, 16927.96, 34400.68, 96782.23, 76688.25, 0.00, 0.00, 0.00
154, 102356.50, 120250.05, 28976.13, 24014.20, 16926.82, 34399.85, 96783.59, 76688.41, 0.00, 0.00, 0.00
155, 102357.20, 120253.30, 28975.75, 24014.24, 16934.87, 34404.99, 96779.81, 76688.88, 0.00, 0.00, 0.00
156, 102356.46, 120236.22, 28973.20, 24015.70, 16933.14, 34401.97, 96778.16, 76686.80, 0.00, 0.00, 0.00
157, 102355.41, 120232.58, 28970.56, 24014.02, 16930.69, 34399.96, 96785.27, 76685.77, 0.00, 0.00, 0.00
158, 102358.20, 120221.34, 28967.39, 24012.52, 16931.20, 34400.96, 96788.05, 76686.75, 0.08, -0.21, 0.98
159, 102360.88, 120220.66, 28967.39, 24013.02, 16921.97, 34401.21, 96784.62, 76691.25, 0.00, 0.00, 0.00
160, 102358.63, 120223.05, 28966.56, 24007.40, 16901.32, 34394.39, 96782.55, 76691.76, 0.00, 0.00, 0.00
161, 102352.97, 120230.34, 28966.38, 24002.80, 16911.15, 34395.18, 96783.19, 76689.03, 0.00, 0.00, 0.00
162, 102361.80, 120244.85, 28977.90, 24016.57, 16945.28, 34407.34, 96791.05, 76700.77, 0.00, 0.00, 0.00
163, 102356.84, 120231.57, 28968.93, 24013.35, 16938.06, 34399.73, 96783.92, 76692.90, 0.00, 0.00, 0.00
164, 102352.32, 120218.65, 28959.66, 24002.40, 16897.18, 34388.85, 96782.07, 76687.34, 0.00, 0.00, 0.00
165, 102354.98, 120225.20, 28958.58, 23995.36, 16900.06, 34397.19, 96781.95, 76688.77, 0.00, 0.00, 0.00
166, 102359.43, 120235.17, 28961.71, 24008.48, 16959.63, 34414.82, 96783.90, 76693.19, 0.00, 0.00, 0.00
167, 102362.88, 120241.23, 28963.48, 24012.23, 16952.08, 34415.43, 96791.56, 76698.33, 0.00, 0.00, 0.00
168, 102357.71, 120236.31, 28959.08, 24004.83, 16960.68, 34412.97, 96793.02, 76693.03, 0.08, -0.21, 0.98
169, 102354.83, 120217.06, 28954.83, 24003.27, 16951.67, 34410.75, 96789.40, 76689.95, 0.00, 0.00, 0.00
170, 102355.09, 120217.71, 28953.24, 24001.55, 16939.96, 34407.96, 96784.19, 76689.68, 0.00, 0.00, 0.00
171, 102354.47, 120223.68, 28952.35, 24000.47, 16932.18, 34404.30, 96779.63, 76689.59, 0.00, 0.00, 0.00
172, 102354.42, 120235.98, 28954.07, 23999.20, 16928.67, 34402.04, 96774.91, 76689.08, 0.00, 0.00, 0.00
173, 102357.35, 120242.75, 28953.78, 24000.79, 16930.51, 34401.55, 96779.23, 76688.85, 0.00, 0.00, 0.00
174, 102356.52, 120232.84, 28953.17, 24003.40, 16931.00, 34404.79, 96788.15, 76689.37, 0.00, 0.00, 0.00
175, 102356.39, 120229.83, 28952.95, 24004.16, 16930.82, 34408.57, 96792.91, 76691.05, 0.00, 0.00, 0.00
176, 102354.78, 120241.80, 28950.36, 23996.43, 16921.19, 34403.27, 96788.44, 76683.65, 0.00, 0.00, 0.00
177, 102358.38, 120248.11, 28959.28, 24004.77, 16926.08, 34406.17, 96781.02, 76685.37, 0.00, 0.00, 0.00
178, 102351.72, 120229.96, 28952.84, 24005.50, 16926.48, 34403.56, 96773.20, 76683.16, 0.08, -0.21, 0.98
179, 102349.98, 120225.88, 28949.82, 24000.21, 16920.90, 34399.51, 96774.89, 76683.70, 0.00, 0.00, 0.00
180, 102353.51, 120244.63, 28951.72, 23997.64, 16916.40, 34396.38, 96779.09, 76688.77, 0.00, 0.00, 0.00
181, 102362.11, 120250.77, 28950.72, 23997.12, 16914.75, 34391.78, 96778.55, 76697.17, 0.00, 0.00, 0.00
182, 102370.90, 120221.71, 28939.07, 23988.63, 16907.11, 34379.80, 96772.74, 76704.73, 0.00, 0.00, 0.00
183, 102383.01, 120213.02, 28933.28, 23985.28, 16911.96, 34385.88, 96781.15, 76716.73, 0.00, 0.00, 0.00
184, 102368.10, 120232.31, 28953.64, 24005.08, 16934.08, 34410.87, 96797.87, 76706.80, 0.00, 0.00, 0.00
185, 102363.99, 120246.08, 28967.59, 24013.33, 16933.79, 34415.89, 96793.47, 76707.72, 0.00, 0.00, 0.00
186, 102382.88, 120246.19, 28958.81, 24002.78, 16923.38, 34403.78, 96781.06, 76722.85, 0.00, 0.00, 0.00
187, 102396.53, 120252.63, 28953.31, 23998.80, 16923.49, 34400.16, 96782.54, 76739.13, 0.00, 0.00, 0.00
188, 102405.23, 120248.09, 28954.31, 24000.77, 16923.02, 34401.48, 96788.77, 76748.98, 0.09, -0.20, 0.98
189, 102414.41, 120245.19, 28958.45, 24008.70, 16921.25, 34405.26, 96791.12, 76752.80, 0.00, 0.00, 0.00
190, 102422.41, 120249.38, 28956.48, 24008.03, 16897.98, 34395.45, 96788.48, 76759.89, 0.00, 0.00, 0.00
191, 102428.61, 120248.83, 28957.69, 24010.89, 16900.51, 34400.47, 96791.56, 76771.18, 0.00, 0.00, 0.00
192, 102428.66, 120254.98, 28961.91, 24018.22, 16936.36, 34412.25, 96788.17, 76774.51, 0.00, 0.00, 0.00
193, 102436.41, 120257.92, 28960.69, 24019.68, 16972.10, 34415.52, 96790.85, 76788.45, 0.00, 0.00, 0.00
194, 102430.98, 120246.95, 28953.82, 24013.73, 16958.49, 34409.23, 96786.54, 76784.16, 0.00, 0.00, 0.00
195, 102425.48, 120245.97, 28952.24, 24002.55, 16943.52, 34407.56, 96781.69, 76779.76, 0.00, 0.00, 0.00
196, 102427.89, 120256.23, 28956.93, 24001.17, 16939.04, 34406.55, 96786.72, 76783.18, 0.00, 0.00, 0.00
197, 102428.01, 120261.30, 28952.04, 24001.15, 16937.44, 34406.51, 96792.64, 76781.52, 0.00, 0.00, 0.00
198, 102425.46, 120266.84, 28952.41, 24001.39, 16934.20, 34401.43, 96782.58, 76776.52, 0.08, -0.21, 0.98
199, 102425.34, 120267.11, 28950.18, 23997.79, 16915.89, 34391.22, 96774.55, 76775.69, 0.00, 0.00, 0.00
200, 102422.41, 120241.90, 28945.64, 23992.09, 16918.68, 34397.46, 96777.75, 76772.70, 0.00, 0.00, 0.00
201, 102422.26, 120244.67, 28947.16, 23997.46, 16921.37, 34399.98, 96777.62, 76772.49, 0.00, 0.00, 0.00
202, 102420.18, 120256.77, 28947.59, 23999.69, 16920.65, 34397.79, 96774.94, 76771.34, 0.00, 0.00, 0.00
203, 102416.00, 120249.43, 28941.51, 23993.68, 16927.15, 34396.63, 96769.37, 76768.54, 0.00, 0.00, 0.00
204, 102416.18, 120237.80, 28938.02, 23986.30, 16917.12, 34389.59, 96764.52, 76767.73, 0.00, 0.00, 0.00
205, 102420.34, 120243.15, 28944.97, 23998.35, 16916.27, 34392.65, 96769.39, 76772.80, 0.00, 0.00, 0.00
206, 102424.16, 120258.02, 28948.32, 24009.19, 16926.04, 34399.58, 96779.09, 76776.38, 0.00, 0.00, 0.00
207, 102425.01, 120268.66, 28950.34, 24002.76, 16928.00, 34402.26, 96781.30, 76777.66, 0.00, 0.00, 0.00
208, 102419.20, 120246.88, 28941.60, 23994.17, 16918.64, 34393.81, 96769.51, 76772.79, 0.08, -0.21, 0.99
209, 102418.53, 120240.16, 28937.60, 23991.78, 16919.80, 34400.14, 96769.51, 76773.05, 0.00, 0.00, 0.00
210, 102422.69, 120243.38, 28938.11, 23993.01, 16910.48, 34393.95, 96770.04, 76777.48, 0.00, 0.00, 0.00
211, 102422.73, 120247.20, 28938.33, 23986.08, 16905.61, 34389.66, 96771.16, 76776.81, 0.00, 0.00, 0.00
212, 102422.64, 120259.16, 28940.95, 23987.60, 16915.84, 34390.32, 96781.04, 76775.47, 0.00, 0.00, 0.00
213, 102427.94, 120259.89, 28933.28, 23984.49, 16921.50, 34393.05, 96790.11, 76783.09, 0.00, 0.00, 0.00
214, 102427.96, 120250.01, 28927.31, 23977.10, 16916.07, 34393.77, 96779.27, 76787.85, 0.00, 0.00, 0.00
215, 102423.91, 120242.88, 28926.26, 23974.97, 16897.90, 34381.74, 96766.47, 76785.13, 0.00, 0.00, 0.00
216, 102421.32, 120233.85, 28925.08, 23971.64, 16881.87, 34373.32, 96765.08, 76778.91, 0.00, 0.00, 0.00
217, 102419.76, 120242.77, 28927.76, 23971.08, 16882.58, 34370.86, 96764.32, 76778.27, 0.00, 0.00, 0.00
218, 102413.52, 120247.51, 28922.29, 23970.55, 16901.49, 34368.06, 96760.05, 76771.78, 0.08, -0.20, 0.98
219, 102411.02, 120240.63, 28921.01, 23972.56, 16903.73, 34367.24, 96755.67, 76768.27, 0.00, 0.00, 0.00
220, 102412.85, 120246.52, 28919.96, 23973.47, 16885.29, 34363.28, 96761.48, 76770.38, 0.00, 0.00, 0.00
221, 102411.47, 120248.78, 28924.68, 23979.02, 16898.90, 34375.75, 96767.45, 76766.91, 0.00, 0.00, 0.00
222, 102407.71, 120230.19, 28920.38, 23974.50, 16895.50, 34374.48, 96755.29, 76762.70, 0.00, 0.00, 0.00
223, 102407.45, 120236.24, 28921.61, 23979.49, 16901.14, 34371.59, 96747.84, 76764.59, 0.00, 0.00, 0.00
224, 102408.63, 120239.84, 28924.70, 23985.81, 16906.77, 34381.68, 96755.31, 76767.27, 0.00, 0.00, 0.00
225, 102412.36, 120232.02, 28920.21, 23981.72, 16892.11, 34377.16, 96759.40, 76768.65, 0.00, 0.00, 0.00
226, 102415.55, 120244.02, 28921.32, 23979.42, 16915.06, 34377.07, 96761.99, 76769.43, 0.00, 0.00, 0.00
227, 102413.81, 120256.94, 28924.56, 23985.30, 16923.82, 34381.52, 96763.02, 76767.94, 0.00, 0.00, 0.00
228, 102411.53, 120257.03, 28920.00, 23983.96, 16920.40, 34380.31, 96770.82, 76766.30, 0.08, -0.20, 0.98
229, 102407.48, 120230.86, 28914.35, 23981.92, 16898.86, 34376.29, 96769.41, 76760.27, 0.00, 0.00, 0.00
230, 102405.68, 120224.04, 28916.41, 23985.41, 16901.81, 34379.57, 96753.77, 76757.01, 0.00, 0.00, 0.00
231, 102408.00, 120234.12, 28923.65, 23987.44, 16923.40, 34384.09, 96753.75, 76763.17, 0.00, 0.00, 0.00
232, 102410.30, 120244.71, 28920.09, 23985.34, 16918.77, 34382.17, 96758.53, 76768.07, 0.00, 0.00, 0.00
233, 102404.24, 120251.45, 28919.11, 23983.69, 16915.67, 34377.56, 96755.52, 76760.27, 0.00, 0.00, 0.00
234, 102402.93, 120233.80, 28914.62, 23979.15, 16911.91, 34378.28, 96751.04, 76756.63, 0.00, 0.00, 0.00
235, 102403.59, 120239.15, 28912.74, 23979.46, 16908.69, 34379.91, 96756.98, 76758.86, 0.00, 0.00, 0.00
236, 102406.70, 120236.06, 28909.43, 23974.26, 16903.33, 34380.76, 96766.15, 76763.95, 0.00, 0.00, 0.00
237, 102405.16, 120230.30, 28912.54, 23984.99, 16910.86, 34383.04, 96765.86, 76760.25, 0.00, 0.00, 0.00
238, 102405.16, 120237.02, 28913.14, 23983.15, 16898.72, 34374.14, 96755.83, 76758.84, 0.08, -0.21, 0.98
239, 102412.76, 120244.31, 28909.66, 23975.80, 16892.62, 34368.62, 96744.45, 76760.13, 0.00, 0.00, 0.00
240, 102418.46, 120240.60, 28908.83, 23974.19, 16908.78, 34371.91, 96746.20, 76760.42, 0.00, 0.00, 0.00
241, 102398.28, 120237.72, 28915.11, 23987.60, 16910.70, 34374.30, 96752.67, 76754.66, 0.00, 0.00, 0.00
242, 102391.46, 120244.31, 28921.28, 23993.10, 16911.66, 34382.28, 96760.68, 76759.15, 0.00, 0.00, 0.00
243, 102402.63, 120234.01, 28915.62, 23984.52, 16913.50, 34373.76, 96758.15, 76766.48, 0.00, 0.00, 0.00
244, 102409.27, 120238.27, 28912.49, 23979.73, 16912.40, 34365.79, 96757.41, 76771.78, 0.00, 0.00, 0.00
245, 102415.16, 120250.84, 28909.50, 23978.82, 16910.86, 34365.00, 96756.32, 76777.59, 0.00, 0.00, 0.00
246, 102417.57, 120244.98, 28907.26, 23977.14, 16902.81, 34359.57, 96753.21, 76775.76, 0.00, 0.00, 0.00
247, 102419.35, 120245.14, 28911.24, 23980.56, 16896.67, 34353.20, 96748.92, 76776.97, 0.00, 0.00, 0.00
248, 102419.09, 120242.91, 28911.11, 23985.03, 16921.43, 34371.84, 96755.02, 76780.99, 0.08, -0.21, 0.98
249, 102416.78, 120236.58, 28906.79, 23980.83, 16910.55, 34360.15, 96751.58, 76776.23, 0.00, 0.00, 0.00
250, 102418.57, 120238.50, 28906.68, 23980.02, 16903.37, 34356.26, 96754.77, 76776.52, 0.00, 0.00, 0.00
251, 102413.09, 120248.85, 28905.88, 23974.99, 16898.59, 34352.24, 96756.20, 76773.16, 0.00, 0.00, 0.00
252, 102406.26, 120262.04, 28904.92, 23974.90, 16898.41, 34349.45, 96752.90, 76769.63, 0.00, 0.00, 0.00
253, 102407.27, 120264.43, 28909.10, 23985.75, 16905.92, 34350.07, 96754.24, 76772.85, 0.00, 0.00, 0.00
254, 102404.42, 120229.20, 28904.85, 23981.21, 16892.58, 34340.23, 96747.16, 76771.18, 0.00, 0.00, 0.00
255, 102402.37, 120227.33, 28904.72, 23976.96, 16871.45, 34336.50, 96741.56, 76772.45, 0.00, 0.00, 0.00
0, 102408.25, 120239.33, 28901.47, 23973.79, 16898.52, 34334.87, 96744.20, 76777.13, 0.00, 0.00, 0.00
1, 102406.28, 120237.74, 28898.50, 23974.32, 16907.64, 34329.95, 96741.23, 76775.65, 0.00, 0.00, 0.00
2, 102411.63, 120239.93, 28898.97, 23975.58, 16907.55, 34330.96, 96736.11, 76776.98, 0.08, -0.20, 0.98
3, 102415.33, 120244.91, 28898.01, 23971.48, 16892.96, 34322.02, 96736.52, 76773.88, 0.00, 0.00, 0.00
4, 102413.88, 120247.02, 28895.98, 23971.20, 16883.03, 34322.51, 96746.86, 76773.10, 0.00, 0.00, 0.00
5, 102413.88, 120244.60, 28892.62, 23968.04, 16875.10, 34321.50, 96737.36, 76776.52, 0.00, 0.00, 0.00
6, 102411.84, 120245.14, 28890.68, 23968.58, 16905.65, 34322.06, 96731.62, 76776.36, 0.00, 0.00, 0.00
7, 102412.13, 120248.98, 28891.62, 23966.28, 16897.47, 34316.99, 96732.73, 76777.39, 0.00, 0.00, 0.00
8, 102415.53, 120242.70, 28888.94, 23965.88, 16886.14, 34316.48, 96737.12, 76781.77, 0.00, 0.00, 0.00
9, 102416.72, 120256.70, 28887.79, 23968.04, 16883.99, 34312.56, 96741.05, 76781.95, 0.00, 0.00, 0.00
10, 102419.73, 120257.70, 28890.61, 23976.27, 16893.49, 34325.28, 96743.40, 76788.48, 0.00, 0.00, 0.00
11, 102410.17, 120230.43, 28886.03, 23968.56, 16908.18, 34317.70, 96733.61, 76779.94, 0.00, 0.00, 0.00
12, 102406.73, 120232.13, 28887.68, 23967.55, 16899.53, 34312.86, 96733.95, 76775.55, 0.08, -0.21, 0.98
13, 102409.07, 120236.20, 28884.94, 23965.23, 16892.73, 34310.71, 96744.36, 76775.67, 0.00, 0.00, 0.00
14, 102408.11, 120228.20, 28884.18, 23964.82, 16883.70, 34306.42, 96748.94, 76777.93, 0.00, 0.00, 0.00
15, 102410.93, 120228.38, 28885.11, 23964.96, 16881.94, 34306.11, 96748.67, 76779.11, 0.00, 0.00, 0.00
16, 102410.02, 120233.02, 28878.05, 23957.43, 16884.17, 34306.30, 96755.63, 76775.06, 0.00, 0.00, 0.00
17, 102408.02, 120243.51, 28877.96, 23960.71, 16887.30, 34307.33, 96763.47, 76773.73, 0.00, 0.00, 0.00
18, 102409.79, 120261.23, 28881.52, 23968.56, 16886.99, 34309.03, 96762.95, 76777.59, 0.00, 0.00, 0.00
19, 102409.25, 120270.13, 28883.48, 23971.98, 16878.85, 34307.65, 96761.28, 76778.24, 0.00, 0.00, 0.00
20, 102405.61, 120253.32, 28883.10, 23967.62, 16878.14, 34305.46, 96757.44, 76775.98, 0.00, 0.00, 0.00
21, 102401.98, 120222.20, 28874.63, 23964.11, 16890.38, 34307.18, 96765.84, 76774.57, 0.00, 0.00, 0.00
22, 102401.79, 120206.80, 28873.45, 23963.71, 16885.92, 34307.78, 96781.87, 76773.79, 0.08, -0.21, 0.98
23, 102400.87, 120204.26, 28870.63, 23956.78, 16877.49, 34303.87, 96774.06, 76770.75, 0.00, 0.00, 0.00
24, 102404.67, 120210.31, 28865.64, 23956.06, 16864.26, 34298.59, 96769.51, 76774.40, 0.00, 0.00, 0.00
25, 102405.36, 120222.12, 28867.43, 23956.89, 16882.38, 34311.74, 96772.27, 76773.91, 0.00, 0.00, 0.00
26, 102404.02, 120227.48, 28869.36, 23957.78, 16887.93, 34309.79, 96772.27, 76772.41, 0.00, 0.00, 0.00
27, 102401.56, 120232.27, 28871.21, 23958.83, 16887.19, 34304.88, 96774.84, 76769.77, 0.00, 0.00, 0.00
28, 102395.64, 120230.21, 28873.49, 23961.54, 16874.14, 34305.32, 96772.16, 76767.27, 0.00, 0.00, 0.00
29, 102389.20, 120219.59, 28867.17, 23955.10, 16860.30, 34303.55, 96763.67, 76762.34, 0.00, 0.00, 0.00
30, 102391.10, 120220.09, 28867.99, 23952.82, 16891.62, 34306.04, 96772.84, 76765.77, 0.00, 0.00, 0.00
31, 102393.30, 120224.15, 28866.96, 23954.63, 16893.34, 34307.49, 96777.46, 76767.00, 0.00, 0.00, 0.00
32, 102393.20, 120231.39, 28870.14, 23960.64, 16882.74, 34306.89, 96772.27, 76766.59, 0.08, -0.21, 0.99
33, 102395.10, 120221.70, 28865.04, 23957.87, 16877.49, 34304.63, 96769.82, 76769.99, 0.00, 0.00, 0.00
34, 102394.19, 120216.40, 28861.91, 23953.29, 16879.08, 34295.18, 96770.40, 76772.07, 0.00, 0.00, 0.00
35, 102392.89, 120227.19, 28864.46, 23955.24, 16877.15, 34301.25, 96773.80, 76769.59, 0.00, 0.00, 0.00
36, 102390.16, 120244.29, 28863.16, 23950.36, 16878.94, 34302.84, 96775.25, 76768.77, 0.00, 0.00, 0.00
37, 102386.79, 120235.91, 28862.11, 23950.03, 16863.74, 34291.20, 96771.67, 76765.16, 0.00, 0.00, 0.00
38, 102383.05, 120207.88, 28864.84, 23956.22, 16860.57, 34295.38, 96765.19, 76760.58, 0.00, 0.00, 0.00
39, 102379.86, 120209.20, 28861.46, 23954.14, 16877.76, 34299.80, 96759.89, 76757.50, 0.00, 0.00, 0.00
40, 102378.12, 120214.34, 28858.18, 23951.66, 16881.33, 34289.23, 96755.09, 76755.91, 0.00, 0.00, 0.00
41, 102379.34, 120218.20, 28858.34, 23954.43, 16883.97, 34290.55, 96754.73, 76756.78, 0.00, 0.00, 0.00
42, 102377.13, 120223.66, 28859.54, 23953.43, 16886.14, 34295.93, 96753.81, 76759.17, 0.08, -0.21, 0.98
43, 102379.05, 120243.40, 28864.66, 23952.38, 16880.17, 34297.66, 96757.77, 76765.23, 0.00, 0.00, 0.00
44, 102375.03, 120225.11, 28857.55, 23948.75, 16869.38, 34292.89, 96752.34, 76761.43, 0.00, 0.00, 0.00
45, 102370.25, 120199.23, 28844.93, 23944.17, 16869.11, 34293.09, 96743.24, 76756.34, 0.00, 0.00, 0.00
46, 102373.58, 120208.82, 28847.67, 23947.41, 16873.69, 34294.59, 96738.59, 76755.59, 0.00, 0.00, 0.00
47, 102370.56, 120215.08, 28853.40, 23947.70, 16867.68, 34290.66, 96736.96, 76753.38, 0.00, 0.00, 0.00
48, 102367.12, 120216.26, 28853.11, 23950.16, 16873.00, 34293.92, 96739.15, 76753.83, 0.00, 0.00, 0.00
49, 102367.72, 120215.30, 28853.44, 23952.82, 16879.43, 34297.54, 96743.76, 76755.58, 0.00, 0.00, 0.00
50, 102369.47, 120213.53, 28850.07, 23950.07, 16873.35, 34296.43, 96743.84, 76757.92, 0.00, 0.00, 0.00
51, 102364.08, 120220.64, 28849.48, 23947.99, 16869.82, 34294.82, 96735.09, 76753.30, 0.00, 0.00, 0.00
52, 102364.77, 120225.02, 28847.12, 23947.77, 16865.38, 34297.14, 96731.69, 76757.25, 0.08, -0.21, 0.98
53, 102362.91, 120216.10, 28848.68, 23949.20, 16870.63, 34297.75, 96730.66, 76755.73, 0.00, 0.00, 0.00
54, 102359.09, 120215.30, 28843.61, 23943.99, 16870.31, 34289.27, 96730.14, 76751.33, 0.00, 0.00, 0.00
55, 102362.91, 120229.45, 28843.74, 23942.83, 16865.46, 34292.49, 96730.39, 76756.54, 0.00, 0.00, 0.00
56, 102358.85, 120213.49, 28845.89, 23940.37, 16852.83, 34290.44, 96719.64, 76752.47, 0.00, 0.00, 0.00
57, 102356.28, 120209.82, 28846.40, 23940.91, 16847.22, 34285.07, 96712.55, 76747.55, 0.00, 0.00, 0.00
58, 102355.90, 120213.35, 28847.36, 23941.38, 16877.85, 34294.28, 96719.44, 76747.80, 0.00, 0.00, 0.00
59, 102354.52, 120209.31, 28842.02, 23934.16, 16859.92, 34291.51, 96720.40, 76747.04, 0.00, 0.00, 0.00
60, 102357.93, 120215.14, 28839.94, 23933.89, 16861.04, 34290.55, 96720.17, 76747.59, 0.00, 0.00, 0.00
61, 102356.19, 120218.30, 28836.41, 23929.08, 16858.94, 34290.57, 96722.01, 76745.07, 0.00, 0.00, 0.00
62, 102354.40, 120216.04, 28835.83, 23931.27, 16878.09, 34291.44, 96715.57, 76748.94, 0.08, -0.21, 0.98
63, 102357.87, 120224.98, 28836.10, 23936.33, 16876.10, 34289.32, 96707.95, 76759.04, 0.00, 0.00, 0.00
64, 102354.58, 120220.38, 28826.60, 23927.41, 16857.57, 34280.49, 96700.41, 76756.65, 0.00, 0.00, 0.00
65, 102359.25, 120217.09, 28834.89, 23936.88, 16863.38, 34289.70, 96715.95, 76764.65, 0.00, 0.00, 0.00
66, 102356.86, 120209.20, 28832.45, 23932.48, 16863.03, 34289.83, 96724.02, 76761.52, 0.00, 0.00, 0.00
67, 102355.43, 120203.90, 28828.21, 23931.10, 16861.89, 34288.29, 96708.40, 76758.93, 0.00, 0.00, 0.00
68, 102356.16, 120211.27, 28829.53, 23933.04, 16861.57, 34290.97, 96699.34, 76760.16, 0.00, 0.00, 0.00
69, 102349.15, 120192.37, 28822.84, 23927.01, 16851.61, 34285.72, 96696.23, 76751.41, 0.00, 0.00, 0.00
70, 102345.51, 120186.40, 28814.62, 23922.60, 16848.30, 34281.41, 96698.59, 76745.63, 0.00, 0.00, 0.00
71, 102354.63, 120199.43, 28822.26, 23928.73, 16856.86, 34287.62, 96709.13, 76754.41, 0.00, 0.00, 0.00
72, 102349.66, 120205.24, 28823.38, 23927.68, 16860.59, 34289.36, 96706.56, 76749.98, 0.08, -0.21, 0.98
73, 102345.04, 120214.05, 28823.40, 23926.60, 16850.38, 34283.84, 96698.00, 76744.51, 0.00, 0.00, 0.00
74, 102342.63, 120216.06, 28819.87, 23922.98, 16832.88, 34280.15, 96691.30, 76744.29, 0.00, 0.00, 0.00
75, 102341.37, 120205.22, 28818.44, 23920.79, 16835.22, 34278.14, 96690.96, 76745.83, 0.00, 0.00, 0.00
76, 102348.26, 120212.02, 28825.68, 23927.81, 16857.71, 34284.18, 96698.72, 76754.16, 0.00, 0.00, 0.00
77, 102344.09, 120204.46, 28822.53, 23928.77, 16854.36, 34283.42, 96696.17, 76747.30, 0.00, 0.00, 0.00
78, 102340.45, 120196.30, 28818.60, 23926.18, 16857.53, 34286.37, 96697.89, 76743.35, 0.00, 0.00, 0.00
79, 102339.65, 120202.34, 28816.70, 23923.32, 16853.42, 34284.40, 96701.94, 76745.34, 0.00, 0.00, 0.00
80, 102339.02, 120221.71, 28819.91, 23920.99, 16852.28, 34288.43, 96704.88, 76744.66, 0.00, 0.00, 0.00
81, 102332.02, 120221.94, 28820.12, 23918.89, 16847.02, 34283.53, 96699.48, 76739.34, 0.00, 0.00, 0.00
82, 102327.20, 120203.45, 28816.31, 23923.05, 16843.63, 34280.67, 96699.08, 76735.59, 0.09, -0.20, 0.98
83, 102328.25, 120194.36, 28814.50, 23922.69, 16835.00, 34283.17, 96703.50, 76733.47, 0.00, 0.00, 0.00
84, 102327.35, 120191.38, 28808.83, 23916.32, 16858.31, 34282.52, 96700.82, 76731.95, 0.00, 0.00, 0.00
85, 102327.89, 120200.15, 28805.32, 23912.74, 16850.09, 34277.76, 96691.81, 76730.59, 0.00, 0.00, 0.00
86, 102328.83, 120210.38, 28802.41, 23910.51, 16846.64, 34277.29, 96689.93, 76728.82, 0.00, 0.00, 0.00
87, 102334.80, 120207.81, 28807.11, 23912.25, 16841.23, 34278.57, 96694.67, 76731.68, 0.00, 0.00, 0.00
88, 102338.04, 120203.79, 28808.04, 23913.21, 16825.01, 34277.58, 96697.53, 76733.23, 0.00, 0.00, 0.00
89, 102339.11, 120221.96, 28810.44, 23911.63, 16844.59, 34281.25, 96703.95, 76735.48, 0.00, 0.00, 0.00
90, 102339.67, 120220.38, 28807.91, 23905.62, 16843.09, 34278.88, 96705.34, 76736.22, 0.00, 0.00, 0.00
91, 102331.98, 120220.87, 28804.80, 23910.53, 16833.79, 34278.05, 96704.04, 76729.98, 0.00, 0.00, 0.00
92, 102325.32, 120200.97, 28802.21, 23910.76, 16829.88, 34273.52, 96702.00, 76722.96, 0.08, -0.21, 0.98
93, 102322.21, 120185.95, 28795.19, 23907.38, 16836.27, 34268.22, 96695.23, 76720.26, 0.00, 0.00, 0.00
94, 102322.66, 120197.30, 28796.04, 23906.40, 16832.05, 34270.07, 96691.72, 76717.95, 0.00, 0.00, 0.00
95, 102321.61, 120214.05, 28795.88, 23903.76, 16832.34, 34270.23, 96692.15, 76717.91, 0.00, 0.00, 0.00
96, 102320.23, 120208.03, 28793.65, 23904.63, 16816.98, 34263.08, 96683.88, 76715.68, 0.00, 0.00, 0.00
97, 102325.21, 120199.14, 28796.40, 23904.74, 16828.47, 34269.94, 96693.71, 76722.83, 0.00, 0.00, 0.00
98, 102323.49, 120205.35, 28792.29, 23903.36, 16841.03, 34275.35, 96695.50, 76721.66, 0.00, 0.00, 0.00
99, 102324.23, 120212.66, 28797.29, 23908.45, 16833.48, 34269.11, 96693.11, 76721.47, 0.00, 0.00, 0.00
100, 102323.06, 120213.80, 28796.13, 23905.48, 16830.84, 34270.16, 96694.65, 76720.15, 0.00, 0.00, 0.00
101, 102322.57, 120205.40, 28793.36, 23912.77, 16834.55, 34270.99, 96693.66, 76717.40, 0.00, 0.00, 0.00
102, 102319.60, 120201.15, 28792.00, 23912.30, 16829.54, 34270.12, 96697.87, 76718.98, 0.08, -0.21, 0.98
103, 102313.63, 120212.35, 28790.41, 23905.99, 16821.70, 34268.31, 96700.93, 76718.41, 0.00, 0.00, 0.00
104, 102308.73, 120223.16, 28794.75, 23903.63, 16816.54, 34261.89, 96699.68, 76712.26, 0.00, 0.00, 0.00
105, 102303.88, 120220.10, 28796.27, 23906.51, 16830.77, 34269.07, 96706.34, 76710.65, 0.00, 0.00, 0.00
106, 102297.60, 120205.95, 28787.32, 23902.53, 16832.61, 34267.44, 96708.20, 76705.73, 0.00, 0.00, 0.00
107, 102300.35, 120195.45, 28784.20, 23901.75, 16824.27, 34263.08, 96708.46, 76709.28, 0.00, 0.00, 0.00
108, 102308.16, 120211.68, 28795.97, 23911.63, 16836.65, 34273.63, 96709.49, 76714.94, 0.00, 0.00, 0.00
109, 102308.96, 120209.80, 28797.56, 23911.89, 16834.57, 34273.61, 96705.11, 76715.99, 0.00, 0.00, 0.00
110, 102310.50, 120206.80, 28795.42, 23909.97, 16828.05, 34273.18, 96704.64, 76715.23, 0.00, 0.00, 0.00
111, 102306.14, 120206.38, 28792.64, 23908.68, 16832.83, 34273.79, 96706.05, 76713.20, 0.00, 0.00, 0.00
112, 102306.59, 120211.23, 28788.29, 23909.15, 16836.94, 34274.14, 96709.83, 76714.83, 0.08, -0.21, 0.98
113, 102306.39, 120207.59, 28787.23, 23907.63, 16824.67, 34267.88, 96714.07, 76715.97, 0.00, 0.00, 0.00
114, 102308.45, 120210.16, 28791.24, 23909.88, 16811.57, 34269.20, 96716.06, 76718.96, 0.00, 0.00, 0.00
115, 102309.27, 120212.23, 28790.52, 23908.05, 16816.87, 34276.93, 96716.87, 76717.64, 0.00, 0.00, 0.00
116, 102311.42, 120214.52, 28786.59, 23901.26, 16809.36, 34275.06, 96725.12, 76720.39, 0.00, 0.00, 0.00
117, 102306.03, 120217.71, 28787.06, 23901.08, 16811.89, 34286.55, 96728.27, 76718.27, 0.00, 0.00, 0.00
118, 102307.17, 120241.23, 28795.71, 23914.38, 16838.22, 34290.68, 96727.57, 76717.53, 0.00, 0.00, 0.00
119, 102306.41, 120250.39, 28795.30, 23914.40, 16851.56, 34288.09, 96731.15, 76718.13, 0.00, 0.00, 0.00
120, 102300.49, 120230.50, 28790.41, 23908.25, 16844.79, 34291.44, 96724.69, 76712.39, 0.00, 0.00, 0.00
121, 102306.16, 120207.34, 28786.19, 23906.22, 16839.94, 34289.05, 96724.16, 76714.90, 0.00, 0.00, 0.00
122, 102308.91, 120202.18, 28782.61, 23904.65, 16832.92, 34290.39, 96733.05, 76720.23, 0.07, -0.20, 0.98
123, 102307.35, 120212.13, 28782.18, 23903.40, 16831.40, 34293.14, 96743.89, 76719.05, 0.00, 0.00, 0.00
124, 102308.36, 120220.13, 28784.24, 23907.00, 16832.43, 34288.09, 96750.57, 76720.41, 0.00, 0.00, 0.00
125, 102310.88, 120210.38, 28782.65, 23905.17, 16821.99, 34284.47, 96738.66, 76725.34, 0.00, 0.00, 0.00
126, 102312.05, 120209.98, 28783.70, 23907.22, 16839.85, 34293.43, 96728.20, 76724.98, 0.00, 0.00, 0.00
127, 102308.71, 120228.62, 28787.73, 23913.95, 16843.56, 34291.17, 96727.87, 76719.70, 0.00, 0.00, 0.00
128, 102310.10, 120239.55, 28793.99, 23915.34, 16836.23, 34290.61, 96730.05, 76720.15, 0.00, 0.00, 0.00
129, 102299.84, 120224.11, 28787.15, 23906.04, 16831.04, 34283.29, 96726.92, 76712.81, 0.00, 0.00, 0.00
130, 102295.26, 120208.46, 28779.41, 23905.28, 16821.99, 34277.09, 96729.41, 76713.15, 0.00, 0.00, 0.00
131, 102293.20, 120210.00, 28779.23, 23910.46, 16838.53, 34285.77, 96735.58, 76714.09, 0.00, 0.00, 0.00
132, 102297.92, 120220.95, 28782.56, 23916.97, 16843.67, 34291.57, 96736.07, 76715.95, 0.08, -0.21, 0.98
133, 102298.21, 120220.35, 28783.55, 23916.05, 16840.41, 34295.62, 96735.20, 76717.89, 0.00, 0.00, 0.00
134, 102294.25, 120225.09, 28783.86, 23911.69, 16835.06, 34292.11, 96736.36, 76714.73, 0.00, 0.00, 0.00
135, 102290.54, 120221.83, 28792.71, 23917.68, 16832.18, 34287.15, 96731.55, 76706.02, 0.00, 0.00, 0.00
136, 102291.99, 120231.08, 28795.15, 23920.12, 16837.97, 34292.63, 96739.20, 76706.13, 0.00, 0.00, 0.00
137, 102289.83, 120233.90, 28791.79, 23918.67, 16828.74, 34291.89, 96736.80, 76700.91, 0.00, 0.00, 0.00
138, 102291.26, 120224.91, 28789.40, 23918.53, 16809.92, 34290.93, 96735.38, 76702.16, 0.00, 0.00, 0.00
139, 102292.20, 120209.60, 28787.82, 23915.38, 16822.95, 34288.83, 96738.32, 76702.38, 0.00, 0.00, 0.00
140, 102296.20, 120216.38, 28791.21, 23920.48, 16866.09, 34293.45, 96745.63, 76704.21, 0.00, 0.00, 0.00
141, 102297.94, 120227.01, 28798.08, 23928.53, 16868.03, 34297.59, 96753.01, 76707.70, 0.00, 0.00, 0.00
142, 102298.74, 120229.13, 28800.13, 23927.05, 16861.33, 34295.35, 96754.91, 76708.01, 0.08, -0.21, 0.98
143, 102298.41, 120230.74, 28798.81, 23923.76, 16853.93, 34293.45, 96749.95, 76708.01, 0.00, 0.00, 0.00
144, 102293.60, 120245.63, 28796.13, 23922.27, 16841.90, 34287.04, 96745.70, 76705.66, 0.00, 0.00, 0.00
145, 102296.35, 120238.84, 28800.80, 23930.45, 16831.82, 34285.21, 96751.55, 76709.40, 0.00, 0.00, 0.00
146, 102292.17, 120218.43, 28798.50, 23928.86, 16838.98, 34286.86, 96740.78, 76703.34, 0.00, 0.00, 0.00
147, 102288.87, 120223.93, 28793.99, 23924.88, 16830.57, 34274.03, 96737.99, 76701.64, 0.00, 0.00, 0.00
148, 102290.54, 120222.25, 28799.48, 23926.42, 16846.35, 34292.61, 96750.88, 76704.66, 0.00, 0.00, 0.00
149, 102283.77, 120220.71, 28792.62, 23922.18, 16853.01, 34299.11, 96759.73, 76700.30, 0.00, 0.00, 0.00
150, 102281.55, 120230.27, 28793.87, 23921.46, 16836.72, 34287.53, 96768.88, 76698.09, 0.00, 0.00, 0.00
151, 102283.55, 120242.75, 28801.85, 23930.07, 16849.97, 34295.69, 96785.22, 76700.99, 0.00, 0.00, 0.00
152, 102283.50, 120232.80, 28802.08, 23931.01, 16854.04, 34292.43, 96790.74, 76701.15, 0.08, -0.21, 0.98
153, 102276.75, 120223.41, 28793.96, 23925.64, 16840.52, 34282.34, 96777.46, 76695.13, 0.00, 0.00, 0.00
154, 102281.98, 120225.16, 28790.19, 23920.86, 16832.74, 34280.54, 96784.50, 76698.35, 0.00, 0.00, 0.00
155, 102287.93, 120242.84, 28794.92, 23925.26, 16826.95, 34280.51, 96799.77, 76702.71, 0.00, 0.00, 0.00
156, 102288.62, 120235.30, 28795.88, 23932.41, 16836.92, 34286.21, 96816.09, 76706.78, 0.00, 0.00, 0.00
157, 102290.43, 120216.62, 28790.19, 23926.07, 16837.14, 34287.17, 96823.26, 76710.38, 0.00, 0.00, 0.00
158, 102293.90, 120223.10, 28787.44, 23922.49, 16838.44, 34288.76, 96827.40, 76714.41, 0.00, 0.00, 0.00
159, 102295.13, 120231.75, 28795.84, 23923.65, 16831.56, 34288.71, 96827.35, 76715.61, 0.00, 0.00, 0.00
160, 102293.13, 120231.28, 28795.77, 23922.80, 16803.33, 34282.88, 96824.65, 76714.63, 0.00, 0.00, 0.00
161, 102283.34, 120241.92, 28792.18, 23919.05, 16809.83, 34272.04, 96820.67, 76705.20, 0.00, 0.00, 0.00
162, 102280.53, 120246.10, 28795.10, 23922.45, 16839.11, 34279.82, 96820.69, 76702.11, 0.08, -0.20, 0.98
163, 102279.12, 120239.77, 28795.17, 23924.48, 16823.22, 34280.24, 96823.69, 76699.78, 0.00, 0.00, 0.00
164, 102276.91, 120218.16, 28788.93, 23920.34, 16840.79, 34275.86, 96820.98, 76695.88, 0.00, 0.00, 0.00
165, 102276.23, 120215.59, 28789.11, 23921.33, 16848.07, 34278.52, 96825.14, 76698.29, 0.00, 0.00, 0.00
166, 102274.12, 120217.09, 28789.81, 23925.51, 16858.76, 34289.70, 96836.45, 76698.42, 0.00, 0.00, 0.00
167, 102273.95, 120219.21, 28792.02, 23935.28, 16858.38, 34291.96, 96836.43, 76699.31, 0.00, 0.00, 0.00
168, 102276.37, 120231.68, 28799.35, 23939.01, 16852.07, 34286.37, 96834.64, 76701.71, 0.00, 0.00, 0.00
169, 102277.06, 120226.09, 28790.63, 23931.25, 16838.48, 34276.91, 96835.09, 76701.80, 0.00, 0.00, 0.00
170, 102276.33, 120216.10, 28787.21, 23923.81, 16823.58, 34265.09, 96835.55, 76699.59, 0.00, 0.00, 0.00
171, 102277.17, 120224.42, 28792.09, 23927.27, 16828.92, 34268.53, 96840.61, 76699.02, 0.00, 0.00, 0.00
172, 102275.66, 120223.19, 28796.56, 23933.64, 16829.16, 34271.17, 96845.01, 76696.92, 0.08, -0.20, 0.98
173, 102272.59, 120221.06, 28790.14, 23936.39, 16832.34, 34276.85, 96858.15, 76695.00, 0.00, 0.00, 0.00
174, 102271.30, 120214.65, 28787.32, 23934.20, 16831.78, 34276.38, 96871.52, 76694.17, 0.00, 0.00, 0.00
175, 102273.45, 120225.18, 28788.13, 23932.86, 16822.93, 34273.89, 96866.04, 76694.27, 0.00, 0.00, 0.00
176, 102271.77, 120232.82, 28788.62, 23934.45, 16824.49, 34272.51, 96857.37, 76692.77, 0.00, 0.00, 0.00
177, 102273.22, 120242.10, 28790.45, 23937.44, 16829.28, 34274.05, 96863.67, 76696.74, 0.00, 0.00, 0.00
178, 102274.94, 120261.03, 28795.66, 23941.98, 16823.46, 34271.79, 96869.75, 76703.74, 0.00, 0.00, 0.00
179, 102265.89, 120225.98, 28789.04, 23937.64, 16822.95, 34265.63, 96864.70, 76696.16, 0.00, 0.00, 0.00
180, 102263.90, 120202.72, 28781.76, 23932.71, 16813.54, 34260.26, 96866.78, 76691.80, 0.00, 0.00, 0.00
181, 102271.45, 120219.97, 28784.22, 23937.24, 16800.08, 34256.46, 96874.18, 76697.20, 0.00, 0.00, 0.00
182, 102267.68, 120229.98, 28785.51, 23943.70, 16821.79, 34272.15, 96874.31, 76695.52, 0.08, -0.20, 0.98
183, 102262.02, 120221.22, 28782.32, 23946.00, 16840.12, 34275.24, 96874.34, 76694.02, 0.00, 0.00, 0.00
184, 102260.10, 120214.23, 28781.56, 23942.83, 16832.72, 34268.15, 96872.48, 76694.11, 0.00, 0.00, 0.00
185, 102260.79, 120223.97, 28787.19, 23945.51, 16824.54, 34263.05, 96871.20, 76694.40, 0.00, 0.00, 0.00
186, 102255.96, 120236.94, 28791.15, 23951.44, 16828.05, 34264.51, 96871.25, 76691.98, 0.00, 0.00, 0.00
187, 102255.00, 120233.52, 28789.96, 23962.52, 16824.67, 34264.04, 96874.65, 76689.93, 0.00, 0.00, 0.00
188, 102260.16, 120230.86, 28792.09, 23964.22, 16839.04, 34270.09, 96880.57, 76692.38, 0.00, 0.00, 0.00
189, 102252.55, 120232.20, 28794.25, 23964.27, 16833.72, 34264.33, 96877.02, 76684.90, 0.00, 0.00, 0.00
190, 102242.04, 120229.78, 28784.91, 23950.54, 16813.12, 34251.01, 96873.02, 76675.80, 0.00, 0.00, 0.00
191, 102244.72, 120228.48, 28786.01, 23948.53, 16796.33, 34247.25, 96872.77, 76677.45, 0.00, 0.00, 0.00
192, 102246.33, 120232.66, 28786.79, 23958.52, 16813.74, 34254.07, 96870.91, 76677.10, 0.08, -0.20, 0.98
193, 102248.45, 120239.59, 28788.08, 23962.05, 16841.32, 34263.03, 96879.19, 76679.13, 0.00, 0.00, 0.00
194, 102249.98, 120238.88, 28787.88, 23955.73, 16819.11, 34256.08, 96878.80, 76680.80, 0.00, 0.00, 0.00
195, 102250.96, 120244.70, 28791.26, 23961.49, 16793.80, 34245.84, 96874.49, 76685.50, 0.00, 0.00, 0.00
196, 102257.51, 120236.02, 28789.02, 23957.47, 16806.57, 34241.62, 96877.33, 76697.73, 0.00, 0.00, 0.00
197, 102257.57, 120242.13, 28792.06, 23962.37, 16832.56, 34262.14, 96887.12, 76695.45, 0.00, 0.00, 0.00
198, 102245.10, 120240.80, 28791.39, 23962.19, 16831.51, 34255.12, 96882.47, 76676.52, 0.00, 0.00, 0.00
199, 102242.09, 120219.10, 28782.27, 23954.54, 16824.47, 34252.44, 96870.36, 76671.27, 0.00, 0.00, 0.00
200, 102252.23, 120223.19, 28779.61, 23956.06, 16823.29, 34250.49, 96867.05, 76683.05, 0.00, 0.00, 0.00
201, 102254.55, 120228.66, 28782.77, 23960.73, 16826.15, 34251.84, 96869.91, 76691.70, 0.00, 0.00, 0.00
202, 102259.14, 120229.36, 28783.44, 23963.93, 16820.04, 34250.56, 96869.66, 76694.27, 0.09, -0.20, 0.98
203, 102258.09, 120232.45, 28784.04, 23965.61, 16807.64, 34244.14, 96863.63, 76690.80, 0.00, 0.00, 0.00
204, 102260.77, 120234.92, 28782.52, 23965.74, 16808.13, 34245.20, 96854.33, 76691.80, 0.00, 0.00, 0.00
205, 102262.49, 120241.07, 28787.57, 23972.71, 16828.70, 34254.85, 96854.53, 76695.98, 0.00, 0.00, 0.00
206, 102259.96, 120241.14, 28787.66, 23973.81, 16824.80, 34255.01, 96856.14, 76693.91, 0.00, 0.00, 0.00
207, 102259.80, 120253.52, 28787.66, 23973.09, 16832.49, 34259.03, 96862.73, 76693.41, 0.00, 0.00, 0.00
208, 102258.36, 120247.69, 28789.38, 23971.04, 16822.39, 34253.62, 96860.68, 76690.22, 0.00, 0.00, 0.00
209, 102255.72, 120238.16, 28783.32, 23968.98, 16810.66, 34245.40, 96853.81, 76689.46, 0.00, 0.00, 0.00
210, 102254.47, 120227.57, 28782.83, 23968.96, 16807.37, 34243.99, 96850.46, 76691.47, 0.00, 0.00, 0.00
211, 102256.73, 120225.83, 28783.66, 23972.07, 16816.29, 34245.35, 96846.35, 76695.00, 0.00, 0.00, 0.00
212, 102256.12, 120231.88, 28780.66, 23973.50, 16827.35, 34249.00, 96846.55, 76695.12, 0.08, -0.21, 0.98
213, 102254.78, 120238.77, 28783.17, 23972.60, 16820.78, 34248.41, 96848.67, 76693.88, 0.00, 0.00, 0.00
214, 102254.49, 120255.20, 28783.82, 23969.29, 16807.35, 34241.66, 96851.24, 76695.83, 0.00, 0.00, 0.00
215, 102252.90, 120252.07, 28783.48, 23968.58, 16799.28, 34235.92, 96850.13, 76693.68, 0.00, 0.00, 0.00
216, 102252.05, 120233.47, 28783.86, 23968.47, 16812.11, 34246.58, 96850.42, 76692.84, 0.00, 0.00, 0.00
217, 102255.98, 120232.89, 28781.85, 23969.12, 16822.84, 34248.77, 96851.47, 76700.14, 0.00, 0.00, 0.00
218, 102258.31, 120235.02, 28781.09, 23974.14, 16818.44, 34250.79, 96842.38, 76701.80, 0.00, 0.00, 0.00
219, 102261.53, 120250.68, 28778.96, 23965.23, 16800.96, 34242.25, 96839.40, 76701.08, 0.00, 0.00, 0.00
220, 102255.54, 120283.36, 28787.66, 23963.04, 16793.09, 34238.82, 96841.32, 76694.82, 0.00, 0.00, 0.00
221, 102253.10, 120259.06, 28788.13, 23967.89, 16806.63, 34238.91, 96841.86, 76694.45, 0.00, 0.00, 0.00
222, 102255.78, 120224.71, 28781.80, 23969.70, 16802.68, 34237.75, 96846.53, 76701.13, 0.08, -0.20, 0.98
223, 102256.30, 120226.99, 28780.80, 23978.21, 16794.45, 34239.68, 96857.08, 76703.49, 0.00, 0.00, 0.00
224, 102257.22, 120232.35, 28778.88, 23973.12, 16813.27, 34239.27, 96846.93, 76701.20, 0.00, 0.00, 0.00
225, 102256.08, 120242.59, 28777.33, 23966.10, 16802.99, 34233.02, 96830.13, 76699.88, 0.00, 0.00, 0.00
226, 102253.69, 120246.59, 28776.22, 23966.28, 16799.12, 34227.74, 96826.48, 76698.51, 0.00, 0.00, 0.00
227, 102255.59, 120242.21, 28774.83, 23970.66, 16815.11, 34229.10, 96829.48, 76699.90, 0.00, 0.00, 0.00
228, 102259.43, 120246.08, 28775.34, 23970.30, 16812.09, 34231.36, 96834.33, 76699.67, 0.00, 0.00, 0.00
229, 102255.74, 120249.61, 28770.70, 23965.85, 16800.00, 34224.32, 96829.97, 76695.29, 0.00, 0.00, 0.00
230, 102252.34, 120253.34, 28772.48, 23967.30, 16805.63, 34230.73, 96828.67, 76696.12, 0.00, 0.00, 0.00
231, 102250.91, 120254.68, 28779.93, 23971.22, 16811.55, 34238.02, 96835.53, 76694.29, 0.00, 0.00, 0.00
232, 102249.37, 120249.23, 28771.32, 23967.08, 16800.76, 34230.09, 96836.29, 76693.70, 0.08, -0.21, 0.98
233, 102246.22, 120239.66, 28764.39, 23964.67, 16787.68, 34228.92, 96831.33, 76693.02, 0.00, 0.00, 0.00
234, 102247.34, 120243.64, 28772.10, 23971.53, 16801.20, 34244.52, 96832.05, 76694.06, 0.00, 0.00, 0.00
235, 102247.83, 120242.52, 28772.82, 23970.44, 16813.67, 34239.92, 96829.84, 76693.51, 0.00, 0.00, 0.00
236, 102247.05, 120252.45, 28772.26, 23971.31, 16824.25, 34238.60, 96834.82, 76694.40, 0.00, 0.00, 0.00
237, 102243.20, 120247.22, 28773.36, 23972.16, 16826.75, 34241.73, 96838.02, 76693.88, 0.00, 0.00, 0.00
238, 102239.65, 120244.11, 28773.09, 23965.41, 16818.53, 34237.15, 96824.67, 76686.11, 0.00, 0.00, 0.00
239, 102241.41, 120252.00, 28775.79, 23966.97, 16809.47, 34235.20, 96827.77, 76685.50, 0.00, 0.00, 0.00
240, 102238.71, 120243.41, 28773.62, 23977.01, 16805.72, 34230.04, 96825.98, 76680.49, 0.00, 0.00, 0.00
241, 102238.30, 120239.84, 28767.90, 23978.88, 16801.29, 34226.96, 96820.94, 76681.61, 0.00, 0.00, 0.00
242, 102241.15, 120246.16, 28768.62, 23977.36, 16803.04, 34226.13, 96816.02, 76680.48, 0.08, -0.21, 0.98
243, 102237.84, 120257.99, 28765.53, 23972.60, 16808.31, 34231.09, 96814.86, 76677.41, 0.00, 0.00, 0.00
244, 102239.70, 120264.83, 28772.60, 23973.85, 16807.01, 34234.78, 96815.33, 76683.60, 0.00, 0.00, 0.00
245, 102233.88, 120245.54, 28772.57, 23964.62, 16797.20, 34224.16, 96807.21, 76679.16, 0.00, 0.00, 0.00
246, 102236.83, 120245.30, 28768.68, 23963.04, 16789.42, 34222.40, 96806.32, 76680.88, 0.00, 0.00, 0.00
247, 102240.07, 120252.60, 28769.62, 23967.75, 16783.66, 34218.48, 96812.22, 76686.35, 0.00, 0.00, 0.00
248, 102244.34, 120261.59, 28773.94, 23976.65, 16782.11, 34216.63, 96823.20, 76690.62, 0.00, 0.00, 0.00
249, 102242.51, 120241.49, 28768.06, 23968.20, 16786.23, 34213.50, 96813.91, 76689.30, 0.00, 0.00, 0.00
250, 102239.78, 120231.73, 28765.38, 23961.54, 16814.61, 34213.05, 96803.26, 76682.57, 0.00, 0.00, 0.00
251, 102238.98, 120237.79, 28770.23, 23960.09, 16817.59, 34221.82, 96806.50, 76682.64, 0.00, 0.00, 0.00
252, 102238.87, 120244.13, 28777.29, 23961.31, 16807.88, 34219.80, 96809.02, 76685.44, 0.07, -0.21, 0.98
253, 102238.02, 120245.38, 28769.69, 23959.86, 16801.78, 34220.14, 96813.09, 76683.22, 0.00, 0.00, 0.00
254, 102241.01, 120246.57, 28765.96, 23959.26, 16796.13, 34219.54, 96813.41, 76683.67, 0.00, 0.00, 0.00
255, 102237.52, 120249.90, 28766.22, 23957.72, 16788.19, 34215.96, 96811.37, 76684.07, 0.00, 0.00, 0.00
0, 102237.28, 120250.95, 28770.47, 23963.60, 16795.21, 34219.76, 96811.68, 76683.05, 0.00, 0.00, 0.00
1, 102242.42, 120253.63, 28773.49, 23966.28, 16800.73, 34217.97, 96815.95, 76686.35, 0.00, 0.00, 0.00
2, 102236.38, 120257.99, 28768.48, 23961.72, 16797.98, 34217.64, 96818.43, 76680.41, 0.00, 0.00, 0.00
3, 102239.85, 120267.29, 28770.29, 23962.97, 16801.29, 34219.71, 96819.15, 76681.75, 0.00, 0.00, 0.00
4, 102237.75, 120261.84, 28770.03, 23959.75, 16791.75, 34210.89, 96818.68, 76681.23, 0.00, 0.00, 0.00
5, 102229.90, 120240.27, 28765.53, 23958.25, 16790.85, 34208.47, 96823.91, 76676.36, 0.00, 0.00, 0.00
6, 102235.18, 120249.56, 28767.77, 23959.39, 16790.27, 34205.41, 96834.23, 76679.80, 0.08, -0.21, 0.97
7, 102233.52, 120251.66, 28769.98, 23959.37, 16777.80, 34199.22, 96835.89, 76681.44, 0.00, 0.00, 0.00
8, 102231.20, 120247.09, 28768.01, 23961.00, 16790.56, 34212.74, 96831.28, 76681.88, 0.00, 0.00, 0.00
9, 102237.44, 120241.97, 28767.83, 23963.88, 16805.38, 34218.73, 96837.72, 76689.80, 0.00, 0.00, 0.00
10, 102239.24, 120240.42, 28765.00, 23958.05, 16804.73, 34218.57, 96849.41, 76694.51, 0.00, 0.00, 0.00
11, 102240.43, 120248.88, 28767.05, 23961.87, 16796.55, 34214.13, 96851.89, 76697.86, 0.00, 0.00, 0.00
12, 102239.29, 120249.07, 28772.60, 23961.58, 16768.75, 34209.90, 96842.41, 76697.91, 0.00, 0.00, 0.00
13, 102237.79, 120253.21, 28775.19, 23956.08, 16781.78, 34210.15, 96836.29, 76697.52, 0.00, 0.00, 0.00
14, 102234.22, 120259.51, 28777.15, 23957.22, 16799.26, 34205.52, 96841.01, 76698.17, 0.00, 0.00, 0.00
15, 102235.60, 120258.82, 28773.04, 23957.83, 16797.76, 34207.46, 96844.59, 76700.92, 0.00, 0.00, 0.00
16, 102238.28, 120263.87, 28772.55, 23959.48, 16815.26, 34219.02, 96848.09, 76701.08, 0.07, -0.21, 0.98
17, 102240.16, 120265.93, 28779.55, 23965.05, 16809.58, 34220.09, 96851.91, 76703.88, 0.00, 0.00, 0.00
18, 102235.80, 120273.28, 28775.84, 23957.18, 16791.84, 34211.76, 96848.14, 76702.29, 0.00, 0.00, 0.00
19, 102232.65, 120277.84, 28773.33, 23956.00, 16788.78, 34207.53, 96848.67, 76698.98, 0.00, 0.00, 0.00
21, 102235.45, 120251.24, 28768.04, 23954.45, 16795.17, 34209.66, 96855.13, 76700.08, 0.00, 0.00, 0.00
22, 102241.95, 120258.21, 28769.82, 23954.27, 16796.62, 34214.04, 96857.80, 76705.66, 0.00, 0.00, 0.00
23, 102242.44, 120262.06, 28773.15, 23961.16, 16781.71, 34209.41, 96857.88, 76707.63, 0.00, 0.00, 0.00
24, 102242.51, 120267.52, 28775.59, 23964.11, 16773.80, 34205.97, 96866.20, 76710.31, 0.00, 0.00, 0.00
25, 102242.66, 120263.16, 28774.14, 23960.33, 16796.24, 34200.43, 96866.04, 76712.21, 0.00, 0.00, 0.00
26, 102240.97, 120259.51, 28766.58, 23953.87, 16806.03, 34206.28, 96860.41, 76709.48, 0.08, -0.21, 0.98
27, 102238.09, 120261.57, 28766.36, 23951.05, 16800.98, 34204.65, 96859.27, 76706.16, 0.00, 0.00, 0.00
28, 102236.90, 120262.98, 28769.73, 23952.04, 16797.67, 34208.20, 96852.07, 76707.05, 0.00, 0.00, 0.00
29, 102236.43, 120270.58, 28772.35, 23951.23, 16792.80, 34208.11, 96844.20, 76707.02, 0.00, 0.00, 0.00
30, 102230.30, 120279.67, 28773.71, 23952.60, 16800.44, 34208.20, 96850.09, 76700.81, 0.00, 0.00, 0.00
31, 102230.35, 120280.66, 28776.62, 23957.45, 16797.51, 34204.27, 96854.11, 76698.73, 0.00, 0.00, 0.00
32, 102227.96, 120270.89, 28771.79, 23950.88, 16783.41, 34192.65, 96843.20, 76697.28, 0.00, 0.00, 0.00
33, 102225.45, 120259.22, 28765.17, 23945.02, 16778.69, 34194.41, 96839.38, 76696.34, 0.00, 0.00, 0.00
34, 102227.47, 120263.09, 28767.50, 23954.61, 16791.59, 34202.88, 96848.61, 76700.43, 0.00, 0.00, 0.00
35, 102230.59, 120273.10, 28764.48, 23954.63, 16793.89, 34204.76, 96857.84, 76704.57, 0.00, 0.00, 0.00
36, 102231.98, 120267.87, 28769.35, 23953.65, 16809.21, 34209.21, 96860.72, 76701.44, 0.08, -0.21, 0.98
37, 102228.60, 120261.59, 28765.38, 23947.17, 16801.94, 34205.61, 96855.31, 76694.95, 0.00, 0.00, 0.00
38, 102229.25, 120277.93, 28763.74, 23949.47, 16788.51, 34200.70, 96858.13, 76698.76, 0.00, 0.00, 0.00
39, 102224.09, 120287.83, 28759.94, 23947.21, 16778.54, 34196.63, 96861.80, 76696.34, 0.00, 0.00, 0.00
40, 102226.68, 120289.06, 28768.04, 23950.97, 16793.45, 34204.36, 96858.33, 76696.95, 0.00, 0.00, 0.00
41, 102227.31, 120278.60, 28769.96, 23950.21, 16801.96, 34205.32, 96851.18, 76696.92, 0.00, 0.00, 0.00
42, 102224.23, 120271.09, 28764.93, 23946.85, 16779.86, 34196.85, 96850.15, 76697.37, 0.00, 0.00, 0.00
43, 102225.23, 120275.09, 28763.47, 23943.90, 16786.88, 34198.39, 96853.05, 76698.09, 0.00, 0.00, 0.00
44, 102225.56, 120272.03, 28758.74, 23941.87, 16797.63, 34202.79, 96854.17, 76696.03, 0.00, 0.00, 0.00
45, 102226.77, 120263.94, 28753.75, 23940.48, 16803.95, 34203.71, 96853.01, 76696.01, 0.00, 0.00, 0.00
46, 102230.21, 120274.73, 28759.36, 23950.52, 16805.14, 34203.44, 96863.27, 76700.99, 0.08, -0.21, 0.98
47, 102229.61, 120278.64, 28761.64, 23954.79, 16795.30, 34198.44, 96859.91, 76701.23, 0.00, 0.00, 0.00
48, 102229.88, 120281.39, 28759.07, 23951.30, 16789.36, 34198.17, 96845.88, 76700.92, 0.00, 0.00, 0.00
49, 102224.27, 120283.67, 28766.11, 23943.63, 16775.95, 34192.09, 96840.77, 76695.60, 0.00, 0.00, 0.00
50, 102225.68, 120286.38, 28768.53, 23948.98, 16777.93, 34197.03, 96841.52, 76694.63, 0.00, 0.00, 0.00
51, 102228.47, 120290.71, 28761.46, 23946.50, 16813.96, 34204.72, 96845.01, 76693.95, 0.00, 0.00, 0.00
52, 102227.29, 120291.61, 28761.40, 23950.97, 16815.51, 34205.34, 96852.14, 76692.70, 0.00, 0.00, 0.00
53, 102227.60, 120282.91, 28759.29, 23948.51, 16795.41, 34200.29, 96852.59, 76696.34, 0.00, 0.00, 0.00
54, 102230.51, 120302.38, 28762.71, 23948.40, 16786.21, 34199.13, 96854.82, 76702.84, 0.00, 0.00, 0.00
55, 102228.90, 120290.24, 28756.61, 23943.84, 16802.65, 34201.81, 96845.84, 76701.98, 0.00, 0.00, 0.00
56, 102229.37, 120265.99, 28748.63, 23934.36, 16782.83, 34189.43, 96839.04, 76701.55, 0.07, -0.21, 0.98
57, 102229.70, 120261.70, 28750.36, 23936.17, 16776.50, 34194.17, 96842.57, 76703.20, 0.00, 0.00, 0.00
58, 102232.90, 120266.82, 28751.65, 23939.01, 16808.47, 34206.15, 96846.10, 76703.74, 0.00, 0.00, 0.00
59, 102228.29, 120276.45, 28756.41, 23942.49, 16808.60, 34206.04, 96843.69, 76697.75, 0.00, 0.00, 0.00
60, 102227.66, 120276.16, 28750.24, 23939.43, 16804.73, 34200.74, 96847.13, 76697.84, 0.00, 0.00, 0.00
61, 102229.66, 120282.98, 28755.52, 23941.53, 16801.54, 34198.53, 96851.85, 76700.84, 0.00, 0.00, 0.00
62, 102232.34, 120293.06, 28758.49, 23945.06, 16791.37, 34194.28, 96845.08, 76705.10, 0.00, 0.00, 0.00
63, 102232.41, 120296.86, 28756.61, 23944.55, 16787.25, 34194.73, 96836.80, 76706.36, 0.00, 0.00, 0.00
64, 102232.38, 120287.98, 28752.75, 23940.80, 16787.59, 34194.93, 96836.31, 76707.01, 0.00, 0.00, 0.00
65, 102236.30, 120296.66, 28754.13, 23942.47, 16793.16, 34200.00, 96847.96, 76711.74, 0.07, -0.21, 0.98
66, 102233.77, 120295.54, 28749.62, 23948.17, 16796.40, 34196.78, 96844.30, 76705.02, 0.00, 0.00, 0.00
67, 102225.30, 120281.95, 28755.79, 23947.08, 16795.84, 34194.32, 96837.12, 76695.07, 0.00, 0.00, 0.00
68, 102225.01, 120292.01, 28759.05, 23938.90, 16783.88, 34189.52, 96838.02, 76697.75, 0.00, 0.00, 0.00
69, 102221.43, 120295.85, 28761.98, 23940.73, 16793.85, 34194.10, 96833.84, 76694.98, 0.00, 0.00, 0.00
70, 102217.16, 120290.29, 28763.54, 23943.93, 16808.09, 34201.21, 96829.90, 76691.88, 0.00, 0.00, 0.00
71, 102220.58, 120287.16, 28762.67, 23951.01, 16812.94, 34207.49, 96835.33, 76696.84, 0.00, 0.00, 0.00
72, 102219.20, 120293.71, 28760.73, 23947.14, 16807.84, 34205.70, 96839.13, 76697.95, 0.00, 0.00, 0.00
73, 102218.68, 120295.92, 28757.44, 23943.23, 16795.68, 34196.20, 96833.97, 76700.26, 0.00, 0.00, 0.00
74, 102217.90, 120288.84, 28757.31, 23947.68, 16801.16, 34205.19, 96834.03, 76701.41, 0.00, 0.00, 0.00
75, 102218.23, 120305.53, 28762.29, 23950.59, 16787.79, 34205.05, 96837.84, 76700.23, 0.08, -0.21, 0.98
76, 102215.04, 120299.81, 28756.86, 23943.93, 16807.64, 34210.04, 96834.62, 76695.90, 0.00, 0.00, 0.00
77, 102216.11, 120284.92, 28755.09, 23945.22, 16814.19, 34209.95, 96838.10, 76695.67, 0.00, 0.00, 0.00
78, 102218.95, 120286.78, 28756.10, 23945.42, 16811.66, 34209.21, 96839.29, 76699.41, 0.00, 0.00, 0.00
79, 102222.50, 120294.76, 28759.97, 23948.53, 16813.65, 34207.98, 96843.65, 76702.98, 0.00, 0.00, 0.00
80, 102221.45, 120303.84, 28761.49, 23952.33, 16813.72, 34210.51, 96848.18, 76703.38, 0.00, 0.00, 0.00
81, 102218.16, 120319.01, 28760.17, 23949.47, 16807.46, 34206.59, 96848.32, 76700.97, 0.00, 0.00, 0.00
82, 102216.49, 120314.97, 28753.60, 23946.32, 16798.10, 34205.12, 96846.53, 76699.74, 0.00, 0.00, 0.00
83, 102215.77, 120300.17, 28750.11, 23944.60, 16792.15, 34205.72, 96843.55, 76698.63, 0.00, 0.00, 0.00
84, 102219.02, 120282.63, 28748.41, 23945.89, 16815.37, 34212.79, 96840.80, 76697.30, 0.00, 0.00, 0.00
85, 102221.43, 120285.38, 28749.68, 23945.18, 16810.97, 34211.60, 96840.43, 76699.31, 0.08, -0.20, 0.98
86, 102219.04, 120297.80, 28752.05, 23943.34, 16796.84, 34206.39, 96837.79, 76695.88, 0.00, 0.00, 0.00
87, 102218.41, 120302.67, 28754.80, 23944.08, 16794.92, 34200.09, 96834.37, 76692.56, 0.00, 0.00, 0.00
88, 102217.41, 120309.09, 28754.76, 23942.47, 16786.74, 34198.14, 96838.59, 76694.27, 0.00, 0.00, 0.00
89, 102219.89, 120308.62, 28750.13, 23943.61, 16808.33, 34218.13, 96841.45, 76698.69, 0.00, 0.00, 0.00
90, 102227.98, 120324.04, 28752.93, 23951.08, 16820.04, 34215.20, 96835.29, 76705.44, 0.00, 0.00, 0.00
91, 102226.84, 120324.09, 28752.75, 23949.09, 16817.27, 34212.94, 96830.68, 76704.34, 0.00, 0.00, 0.00
92, 102222.52, 120294.65, 28747.38, 23945.67, 16793.92, 34203.38, 96826.73, 76697.46, 0.00, 0.00, 0.00
93, 102219.42, 120293.27, 28752.75, 23938.40, 16790.14, 34190.55, 96821.48, 76695.90, 0.00, 0.00, 0.00
94, 102215.06, 120313.38, 28754.00, 23934.87, 16791.86, 34189.12, 96822.05, 76692.88, 0.00, 0.00, 0.00
95, 102216.16, 120321.74, 28750.42, 23939.59, 16800.91, 34198.19, 96825.66, 76691.70, 0.08, -0.20, 0.98
96, 102215.48, 120298.65, 28748.37, 23936.68, 16794.56, 34200.61, 96823.55, 76690.02, 0.00, 0.00, 0.00
97, 102213.02, 120290.13, 28744.59, 23931.07, 16792.51, 34203.00, 96827.44, 76686.66, 0.00, 0.00, 0.00
98, 102211.88, 120299.03, 28745.24, 23934.74, 16806.86, 34196.65, 96831.24, 76685.95, 0.00, 0.00, 0.00
99, 102218.59, 120306.09, 28746.09, 23935.16, 16799.95, 34190.99, 96830.86, 76690.58, 0.00, 0.00, 0.00
100, 102219.59, 120306.05, 28745.79, 23933.87, 16804.46, 34191.44, 96830.46, 76696.08, 0.00, 0.00, 0.00
101, 102224.76, 120310.23, 28746.24, 23935.79, 16802.21, 34192.31, 96825.36, 76703.34, 0.00, 0.00, 0.00
102, 102226.03, 120316.59, 28748.39, 23939.75, 16798.52, 34191.35, 96819.20, 76703.05, 0.00, 0.00, 0.00
103, 102228.16, 120318.30, 28746.00, 23937.73, 16796.69, 34194.86, 96822.81, 76706.06, 0.00, 0.00, 0.00
104, 102227.13, 120319.50, 28749.80, 23941.27, 16792.89, 34199.31, 96826.26, 76707.52, 0.00, 0.00, 0.00
105, 102220.36, 120321.56, 28751.14, 23940.24, 16776.06, 34199.75, 96824.42, 76704.57, 0.08, -0.20, 0.98
106, 102221.41, 120328.13, 28751.09, 23938.36, 16806.88, 34207.73, 96829.54, 76704.95, 0.00, 0.00, 0.00
107, 102227.47, 120322.19, 28749.15, 23936.93, 16812.36, 34205.81, 96834.39, 76713.71, 0.00, 0.00, 0.00
108, 102225.66, 120311.34, 28741.01, 23931.59, 16792.20, 34193.96, 96827.24, 76711.95, 0.00, 0.00, 0.00
109, 102229.21, 120309.42, 28741.53, 23929.51, 16798.27, 34201.83, 96831.51, 76712.16, 0.00, 0.00, 0.00
110, 102224.42, 120297.20, 28736.01, 23923.09, 16787.68, 34194.75, 96830.97, 76707.18, 0.00, 0.00, 0.00
111, 102218.99, 120295.38, 28729.34, 23913.93, 16781.87, 34182.48, 96810.66, 76700.37, 0.00, 0.00, 0.00
112, 102228.80, 120303.37, 28737.48, 23917.57, 16782.07, 34184.06, 96807.26, 76709.91, 0.00, 0.00, 0.00
113, 102225.48, 120319.39, 28746.38, 23929.13, 16784.35, 34192.78, 96816.71, 76716.19, 0.00, 0.00, 0.00
114, 102206.03, 120325.38, 28746.49, 23933.49, 16772.93, 34186.19, 96817.77, 76698.09, 0.00, 0.00, 0.00
115, 102198.66, 120319.19, 28745.86, 23934.92, 16796.87, 34195.31, 96817.23, 76689.52, 0.07, -0.21, 0.98
116, 102199.23, 120311.81, 28744.72, 23936.35, 16795.23, 34195.35, 96820.31, 76691.18, 0.00, 0.00, 0.00
117, 102194.85, 120311.41, 28742.00, 23933.64, 16813.29, 34191.42, 96811.73, 76686.02, 0.00, 0.00, 0.00
118, 102193.60, 120314.20, 28743.76, 23938.29, 16806.75, 34194.84, 96813.52, 76684.74, 0.00, 0.00, 0.00
119, 102184.21, 120314.67, 28749.21, 23937.78, 16802.23, 34189.18, 96809.27, 76677.19, 0.00, 0.00, 0.00
120, 102183.50, 120325.54, 28752.77, 23941.24, 16816.87, 34200.36, 96816.45, 76678.23, 0.00, 0.00, 0.00
121, 102184.53, 120320.98, 28752.08, 23943.61, 16818.03, 34203.00, 96825.16, 76678.73, 0.00, 0.00, 0.00
122, 102187.68, 120319.34, 28751.09, 23937.13, 16801.56, 34197.70, 96826.93, 76680.23, 0.00, 0.00, 0.00
123, 102184.75, 120317.11, 28746.44, 23933.69, 16785.94, 34187.17, 96834.33, 76676.77, 0.00, 0.00, 0.00
124, 102187.45, 120315.15, 28742.17, 23929.40, 16791.50, 34182.25, 96843.40, 76678.22, 0.00, 0.00, 0.00
125, 102189.18, 120337.48, 28744.45, 23926.40, 16796.51, 34184.27, 96834.52, 76678.62, 0.08, -0.21, 0.98
126, 102189.13, 120356.00, 28745.24, 23931.43, 16803.15, 34189.47, 96829.05, 76679.63, 0.00, 0.00, 0.00
127, 102181.55, 120313.06, 28741.37, 23929.20, 16793.98, 34183.24, 96827.64, 76678.20, 0.00, 0.00, 0.00
128, 102180.21, 120291.16, 28734.33, 23920.70, 16781.80, 34177.92, 96831.20, 76678.28, 0.00, 0.00, 0.00
129, 102188.28, 120298.76, 28734.87, 23919.70, 16781.98, 34176.57, 96839.63, 76684.45, 0.00, 0.00, 0.00
130, 102193.94, 120309.67, 28742.51, 23926.18, 16791.81, 34183.01, 96848.18, 76690.29, 0.00, 0.00, 0.00
131, 102195.16, 120316.42, 28743.61, 23927.83, 16795.90, 34188.22, 96858.78, 76691.67, 0.00, 0.00, 0.00
132, 102192.58, 120317.55, 28741.24, 23925.17, 16791.32, 34185.72, 96853.13, 76688.36, 0.00, 0.00, 0.00
133, 102190.18, 120323.28, 28737.10, 23918.98, 16781.02, 34177.92, 96839.22, 76683.22, 0.00, 0.00, 0.00
134, 102196.20, 120321.74, 28739.78, 23923.72, 16785.00, 34182.05, 96850.28, 76689.55, 0.00, 0.00, 0.00
135, 102194.95, 120312.30, 28739.71, 23922.22, 16781.87, 34180.15, 96854.87, 76691.36, 0.07, -0.20, 0.98
136, 102194.95, 120308.77, 28730.39, 23916.23, 16763.67, 34180.11, 96854.27, 76693.48, 0.00, 0.00, 0.00
137, 102195.77, 120323.08, 28735.76, 23917.46, 16763.43, 34182.21, 96851.73, 76693.68, 0.00, 0.00, 0.00
138, 102198.70, 120326.66, 28744.25, 23921.04, 16811.04, 34190.12, 96857.44, 76695.63, 0.00, 0.00, 0.00
139, 102196.82, 120311.30, 28739.09, 23919.34, 16805.54, 34186.57, 96860.25, 76695.38, 0.00, 0.00, 0.00
140, 102199.33, 120315.88, 28735.20, 23919.21, 16799.93, 34185.90, 96866.49, 76696.63, 0.00, 0.00, 0.00
141, 102202.19, 120318.54, 28731.96, 23914.09, 16800.64, 34186.57, 96870.20, 76699.88, 0.00, 0.00, 0.00
142, 102199.95, 120319.86, 28730.82, 23913.10, 16787.77, 34181.70, 96869.66, 76699.43, 0.00, 0.00, 0.00
143, 102195.62, 120319.50, 28731.56, 23910.89, 16768.68, 34175.57, 96867.27, 76695.56, 0.00, 0.00, 0.00
144, 102196.06, 120325.52, 28734.31, 23914.78, 16786.92, 34194.21, 96874.18, 76697.73, 0.00, 0.00, 0.00
145, 102200.76, 120348.80, 28740.54, 23925.60, 16805.34, 34196.78, 96880.82, 76699.96, 0.08, -0.20, 0.99
146, 102203.21, 120336.67, 28741.24, 23923.92, 16810.95, 34195.44, 96888.64, 76699.77, 0.00, 0.00, 0.00
147, 102194.43, 120323.30, 28735.54, 23914.69, 16795.26, 34185.07, 96879.45, 76693.21, 0.00, 0.00, 0.00
148, 102193.24, 120317.55, 28734.71, 23910.91, 16784.88, 34179.75, 96866.60, 76690.66, 0.00, 0.00, 0.00
149, 102194.95, 120307.79, 28732.36, 23906.96, 16774.96, 34174.45, 96867.92, 76688.92, 0.00, 0.00, 0.00
150, 102196.30, 120311.86, 28732.92, 23907.29, 16773.29, 34171.84, 96866.13, 76690.30, 0.00, 0.00, 0.00
151, 102196.51, 120319.88, 28735.58, 23909.39, 16787.57, 34175.66, 96860.01, 76693.70, 0.00, 0.00, 0.00
152, 102194.50, 120327.51, 28733.52, 23911.18, 16782.22, 34175.08, 96863.92, 76691.72, 0.00, 0.00, 0.00
153, 102196.55, 120334.08, 28738.33, 23916.50, 16781.82, 34177.09, 96870.47, 76695.49, 0.00, 0.00, 0.00
154, 102197.91, 120321.80, 28727.98, 23907.67, 16775.45, 34171.68, 96869.91, 76699.67, 0.00, 0.00, 0.00
155, 102203.28, 120316.77, 28724.47, 23899.91, 16772.23, 34165.96, 96872.39, 76707.25, 0.08, -0.20, 0.99
156, 102198.16, 120328.00, 28731.80, 23902.66, 16771.54, 34169.09, 96874.65, 76704.70, 0.00, 0.00, 0.00
157, 102192.64, 120335.26, 28738.44, 23908.97, 16766.15, 34173.04, 96872.73, 76689.55, 0.00, 0.00, 0.00
158, 102201.36, 120347.71, 28742.20, 23914.09, 16782.16, 34178.41, 96877.09, 76690.58, 0.00, 0.00, 0.00
159, 102204.42, 120347.47, 28744.14, 23913.71, 16792.02, 34177.92, 96881.53, 76699.65, 0.00, 0.00, 0.00
160, 102209.67, 120347.06, 28734.98, 23908.27, 16773.38, 34174.36, 96878.58, 76708.23, 0.00, 0.00, 0.00
161, 102215.10, 120335.38, 28732.92, 23913.26, 16753.32, 34170.77, 96882.02, 76713.04, 0.00, 0.00, 0.00
162, 102216.40, 120317.11, 28732.63, 23915.40, 16806.90, 34183.15, 96882.56, 76713.66, 0.00, 0.00, 0.00
163, 102222.23, 120323.37, 28729.23, 23917.44, 16817.79, 34187.19, 96882.91, 76722.12, 0.00, 0.00, 0.00
164, 102224.11, 120333.09, 28732.67, 23918.51, 16802.14, 34176.89, 96883.09, 76722.34, 0.00, 0.00, 0.00
165, 102218.26, 120337.30, 28734.53, 23914.55, 16806.92, 34185.27, 96876.73, 76715.45, 0.08, -0.20, 0.98
166, 102214.97, 120346.51, 28740.30, 23909.93, 16811.78, 34191.48, 96885.87, 76715.59, 0.00, 0.00, 0.00
167, 102211.08, 120352.90, 28738.66, 23905.14, 16801.54, 34186.57, 96893.31, 76715.16, 0.00, 0.00, 0.00
168, 102209.56, 120354.46, 28740.79, 23904.65, 16791.14, 34177.29, 96888.75, 76712.93, 0.00, 0.00, 0.00
169, 102211.17, 120350.20, 28737.44, 23904.86, 16784.62, 34169.54, 96890.07, 76713.22, 0.00, 0.00, 0.00
170, 102208.45, 120350.77, 28734.24, 23902.51, 16784.01, 34169.42, 96886.47, 76712.01, 0.00, 0.00, 0.00
171, 102213.59, 120348.92, 28736.81, 23906.67, 16791.95, 34176.89, 96881.38, 76716.39, 0.00, 0.00, 0.00
172, 102220.34, 120340.58, 28734.93, 23905.66, 16791.14, 34176.84, 96884.62, 76720.86, 0.00, 0.00, 0.00
173, 102220.96, 120342.19, 28734.15, 23902.96, 16780.59, 34169.02, 96882.49, 76722.90, 0.00, 0.00, 0.00
174, 102227.66, 120349.86, 28738.62, 23908.97, 16786.67, 34177.52, 96894.92, 76728.80, 0.00, 0.00, 0.00
175, 102226.23, 120361.79, 28738.58, 23908.72, 16791.48, 34179.37, 96906.09, 76725.45, 0.08, -0.20, 0.98
176, 102220.07, 120368.66, 28738.69, 23906.82, 16772.82, 34173.38, 96900.55, 76721.33, 0.00, 0.00, 0.00
177, 102215.77, 120371.31, 28735.47, 23903.40, 16775.16, 34165.63, 96891.59, 76719.19, 0.00, 0.00, 0.00
178, 102214.97, 120368.56, 28731.56, 23898.98, 16787.95, 34162.72, 96887.84, 76717.13, 0.00, 0.00, 0.00
179, 102216.78, 120350.91, 28728.16, 23895.94, 16789.76, 34169.63, 96896.26, 76720.10, 0.00, 0.00, 0.00
180, 102214.95, 120352.80, 28727.09, 23897.84, 16795.35, 34173.76, 96901.13, 76720.13, 0.00, 0.00, 0.00
181, 102214.23, 120372.37, 28730.30, 23906.26, 16798.32, 34176.02, 96900.71, 76719.99, 0.00, 0.00, 0.00
182, 102216.16, 120359.38, 28728.45, 23903.54, 16785.11, 34171.48, 96905.38, 76723.41, 0.00, 0.00, 0.00
183, 102216.29, 120346.95, 28725.63, 23900.14, 16765.42, 34161.64, 96906.63, 76723.27, 0.00, 0.00, 0.00
184, 102216.91, 120357.01, 28727.49, 23901.46, 16781.98, 34166.00, 96910.32, 76723.23, 0.00, 0.00, 0.00
185, 102220.11, 120368.38, 28729.46, 23904.56, 16806.12, 34177.20, 96911.53, 76727.32, 0.08, -0.21, 0.98
186, 102216.60, 120373.86, 28732.41, 23911.29, 16806.63, 34176.46, 96913.02, 76724.41, 0.00, 0.00, 0.00
187, 102212.49, 120370.47, 28732.52, 23903.67, 16788.24, 34164.73, 96912.63, 76718.18, 0.00, 0.00, 0.00
188, 102206.99, 120362.64, 28724.87, 23891.67, 16761.66, 34151.54, 96898.72, 76709.27, 0.00, 0.00, 0.00
189, 102210.84, 120359.89, 28727.22, 23895.45, 16765.66, 34151.41, 96894.27, 76711.81, 0.00, 0.00, 0.00
190, 102212.69, 120366.06, 28726.97, 23901.59, 16793.78, 34165.96, 96901.88, 76712.32, 0.00, 0.00, 0.00
191, 102211.53, 120367.47, 28726.37, 23900.65, 16778.54, 34157.11, 96903.44, 76709.95, 0.00, 0.00, 0.00
192, 102215.38, 120376.97, 28730.02, 23901.03, 16805.25, 34161.87, 96899.68, 76715.12, 0.00, 0.00, 0.00
193, 102216.29, 120382.40, 28727.96, 23900.07, 16814.63, 34173.11, 96902.14, 76713.87, 0.00, 0.00, 0.00
194, 102218.50, 120396.02, 28730.42, 23907.00, 16808.98, 34174.05, 96912.22, 76714.36, 0.00, 0.00, 0.00
195, 102206.09, 120382.80, 28727.98, 23910.22, 16802.79, 34169.74, 96902.16, 76706.36, 0.08, -0.21, 0.98
196, 102204.29, 120357.16, 28728.25, 23909.84, 16807.53, 34172.08, 96903.93, 76705.24, 0.00, 0.00, 0.00
197, 102208.78, 120355.16, 28730.33, 23908.97, 16806.12, 34171.30, 96909.25, 76705.44, 0.00, 0.00, 0.00
198, 102204.71, 120363.72, 28727.53, 23905.66, 16794.61, 34167.66, 96904.51, 76701.20, 0.00, 0.00, 0.00
199, 102204.84, 120366.51, 28723.94, 23901.79, 16792.26, 34164.93, 96901.02, 76699.88, 0.00, 0.00, 0.00
200, 102204.76, 120368.86, 28729.46, 23904.70, 16796.75, 34166.27, 96901.16, 76698.40, 0.00, 0.00, 0.00
201, 102205.63, 120381.22, 28734.24, 23907.11, 16794.61, 34165.36, 96909.47, 76699.43, 0.00, 0.00, 0.00
202, 102207.08, 120384.63, 28730.51, 23905.12, 16796.29, 34173.87, 96919.24, 76700.37, 0.00, 0.00, 0.00
203, 102204.73, 120385.69, 28730.30, 23904.36, 16794.27, 34167.12, 96911.80, 76694.84, 0.00, 0.00, 0.00
204, 102203.75, 120386.47, 28728.88, 23905.26, 16796.87, 34160.46, 96903.23, 76692.38, 0.00, 0.00, 0.00
205, 102203.55, 120387.07, 28728.56, 23904.63, 16793.00, 34159.25, 96905.00, 76695.20, 0.09, -0.20, 0.98
206, 102204.42, 120392.80, 28730.46, 23905.82, 16790.54, 34165.24, 96908.96, 76696.95, 0.00, 0.00, 0.00
207, 102205.25, 120381.69, 28723.24, 23896.74, 16791.59, 34162.27, 96911.08, 76697.51, 0.00, 0.00, 0.00
208, 102206.48, 120380.52, 28723.40, 23903.67, 16796.73, 34161.31, 96907.66, 76695.94, 0.00, 0.00, 0.00
209, 102215.04, 120398.70, 28731.89, 23910.49, 16793.78, 34164.44, 96917.18, 76702.80, 0.00, 0.00, 0.00
210, 102215.82, 120400.87, 28729.28, 23906.44, 16797.02, 34163.34, 96918.57, 76702.60, 0.00, 0.00, 0.00
211, 102209.36, 120389.95, 28727.60, 23904.09, 16787.90, 34160.15, 96912.83, 76701.77, 0.00, 0.00, 0.00
212, 102206.32, 120394.94, 28725.81, 23902.55, 16782.70, 34160.73, 96909.18, 76700.41, 0.00, 0.00, 0.00
213, 102207.57, 120395.61, 28719.85, 23897.01, 16788.17, 34155.59, 96911.75, 76698.55, 0.00, 0.00, 0.00
214, 102209.12, 120388.80, 28719.04, 23898.51, 16771.14, 34157.09, 96917.54, 76698.78, 0.00, 0.00, 0.00
215, 102210.91, 120387.88, 28716.80, 23899.00, 16784.33, 34161.09, 96917.01, 76699.41, 0.08, -0.20, 0.97
216, 102211.64, 120398.25, 28721.23, 23896.23, 16812.49, 34167.41, 96919.33, 76697.62, 0.00, 0.00, 0.00
217, 102209.56, 120396.86, 28718.66, 23891.15, 16800.33, 34160.91, 96917.59, 76695.27, 0.00, 0.00, 0.00
218, 102208.76, 120395.70, 28715.60, 23893.52, 16795.86, 34162.36, 96925.92, 76698.42, 0.00, 0.00, 0.00
219, 102206.23, 120410.99, 28719.29, 23898.19, 16793.00, 34165.11, 96927.76, 76696.56, 0.00, 0.00, 0.00
220, 102207.30, 120422.14, 28718.71, 23894.19, 16774.04, 34153.89, 96919.24, 76693.55, 0.00, 0.00, 0.00
221, 102226.66, 120400.80, 28710.44, 23888.22, 16778.74, 34157.18, 96920.24, 76713.48, 0.00, 0.00, 0.00
222, 102217.41, 120412.60, 28718.32, 23896.81, 16796.89, 34167.03, 96926.39, 76710.70, 0.00, 0.00, 0.00
223, 102182.02, 120425.96, 28721.23, 23896.88, 16775.21, 34155.39, 96923.77, 76675.29, 0.00, 0.00, 0.00
224, 102178.38, 120422.43, 28714.37, 23891.31, 16767.52, 34156.01, 96914.57, 76668.11, 0.00, 0.00, 0.00
225, 102168.10, 120420.17, 28713.43, 23891.22, 16780.04, 34163.21, 96916.22, 76654.48, 0.08, -0.20, 0.98
226, 102161.17, 120413.96, 28711.80, 23889.07, 16795.75, 34163.86, 96921.85, 76649.25, 0.00, 0.00, 0.00
227, 102150.76, 120403.16, 28708.67, 23891.58, 16811.10, 34164.24, 96918.63, 76639.68, 0.00, 0.00, 0.00
228, 102147.52, 120405.18, 28710.52, 23895.91, 16794.94, 34158.36, 96919.71, 76632.91, 0.00, 0.00, 0.00
229, 102146.30, 120411.21, 28712.71, 23895.47, 16784.17, 34157.20, 96924.70, 76631.81, 0.00, 0.00, 0.00
230, 102142.95, 120419.20, 28713.88, 23897.39, 16788.60, 34159.86, 96916.96, 76626.34, 0.00, 0.00, 0.00
231, 102139.94, 120429.05, 28714.57, 23892.58, 16802.61, 34157.40, 96909.18, 76621.51, 0.00, 0.00, 0.00
232, 102146.15, 120436.52, 28712.87, 23892.20, 16788.02, 34150.92, 96909.63, 76628.33, 0.00, 0.00, 0.00
233, 102152.23, 120445.01, 28718.82, 23901.17, 16788.62, 34156.10, 96917.95, 76635.01, 0.00, 0.00, 0.00
234, 102147.05, 120431.93, 28715.08, 23897.01, 16782.52, 34152.68, 96919.71, 76633.11, 0.00, 0.00, 0.00
235, 102148.77, 120422.12, 28709.67, 23892.09, 16771.72, 34148.50, 96918.70, 76636.59, 0.07, -0.21, 0.98
236, 102150.80, 120433.70, 28714.37, 23893.84, 16761.30, 34148.88, 96916.78, 76638.38, 0.00, 0.00, 0.00
237, 102151.80, 120432.38, 28713.36, 23891.15, 16784.88, 34148.52, 96909.47, 76635.55, 0.00, 0.00, 0.00
238, 102150.64, 120439.04, 28709.12, 23888.85, 16783.61, 34143.76, 96903.23, 76635.21, 0.00, 0.00, 0.00
239, 102151.16, 120452.61, 28713.21, 23892.45, 16781.94, 34148.46, 96910.70, 76640.02, 0.00, 0.00, 0.00
240, 102145.84, 120441.55, 28712.11, 23888.27, 16782.67, 34148.68, 96908.63, 76635.81, 0.00, 0.00, 0.00
241, 102148.32, 120431.27, 28707.93, 23885.63, 16778.52, 34147.72, 96909.02, 76636.71, 0.00, 0.00, 0.00
242, 102148.01, 120437.01, 28705.18, 23886.79, 16770.11, 34144.25, 96908.94, 76634.83, 0.00, 0.00, 0.00
243, 102149.75, 120456.97, 28708.58, 23891.80, 16764.46, 34139.92, 96911.86, 76638.83, 0.00, 0.00, 0.00
244, 102154.95, 120460.05, 28711.28, 23898.44, 16775.27, 34145.39, 96916.00, 76646.45, 0.00, 0.00, 0.00
245, 102154.98, 120436.47, 28710.28, 23894.48, 16774.83, 34143.54, 96910.48, 76647.17, 0.08, -0.21, 0.98
246, 102155.94, 120439.24, 28708.87, 23891.85, 16770.94, 34141.19, 96901.31, 76644.71, 0.00, 0.00, 0.00
247, 102157.93, 120453.86, 28703.86, 23887.33, 16776.91, 34142.02, 96903.03, 76644.66, 0.00, 0.00, 0.00
248, 102161.05, 120454.13, 28699.04, 23882.08, 16761.17, 34136.10, 96905.29, 76649.23, 0.00, 0.00, 0.00
249, 102153.57, 120435.48, 28694.56, 23877.36, 16742.60, 34123.54, 96895.77, 76641.54, 0.00, 0.00, 0.00
250, 102153.23, 120434.37, 28698.21, 23885.16, 16768.48, 34136.39, 96900.55, 76640.73, 0.00, 0.00, 0.00
251, 102160.77, 120445.73, 28708.54, 23896.32, 16772.26, 34144.46, 96916.69, 76649.00, 0.00, 0.00, 0.00
252, 102160.27, 120449.03, 28708.00, 23894.08, 16778.83, 34145.24, 96917.92, 76647.62, 0.00, 0.00, 0.00
253, 102159.78, 120447.49, 28699.77, 23882.86, 16753.50, 34136.54, 96909.34, 76647.59, 0.00, 0.00, 0.00
254, 102163.65, 120461.21, 28702.86, 23882.10, 16765.86, 34135.16, 96908.58, 76649.92, 0.00, 0.00, 0.00
255, 102160.32, 120469.44, 28700.09, 23883.58, 16795.70, 34145.33, 96907.35, 76645.63, 0.08, -0.21, 0.98
0, 102156.95, 120462.53, 28698.79, 23881.03, 16781.62, 34136.36, 96905.94, 76644.20, 0.00, 0.00, 0.00
1, 102154.60, 120452.49, 28697.98, 23879.06, 16777.69, 34133.37, 96900.48, 76641.23, 0.00, 0.00, 0.00
2, 102156.03, 120443.76, 28698.59, 23881.56, 16772.77, 34131.76, 96903.10, 76641.54, 0.00, 0.00, 0.00
3, 102158.82, 120448.95, 28699.17, 23882.88, 16769.60, 34137.95, 96913.02, 76644.98, 0.00, 0.00, 0.00
4, 102158.60, 120447.38, 28697.85, 23882.93, 16772.97, 34139.79, 96910.03, 76642.38, 0.00, 0.00, 0.00
5, 102163.80, 120450.95, 28698.66, 23881.52, 16772.08, 34138.15, 96900.66, 76642.77, 0.00, 0.00, 0.00
6, 102163.07, 120457.08, 28698.72, 23880.18, 16766.06, 34134.76, 96892.38, 76644.95, 0.00, 0.00, 0.00
7, 102165.10, 120454.95, 28699.01, 23883.71, 16760.46, 34134.04, 96898.79, 76646.68, 0.00, 0.00, 0.00
8, 102165.66, 120462.73, 28696.49, 23886.01, 16769.87, 34137.13, 96909.09, 76644.15, 0.00, 0.00, 0.00
9, 102165.93, 120480.57, 28701.09, 23884.02, 16776.39, 34139.47, 96901.88, 76644.42, 0.08, -0.20, 0.99
10, 102160.14, 120466.94, 28701.90, 23880.18, 16753.79, 34134.93, 96896.44, 76641.73, 0.00, 0.00, 0.00
11, 102155.80, 120441.41, 28688.66, 23880.18, 16764.12, 34136.90, 96895.41, 76638.36, 0.00, 0.00, 0.00
12, 102158.04, 120444.59, 28689.27, 23880.51, 16787.84, 34141.51, 96897.05, 76639.70, 0.00, 0.00, 0.00
13, 102153.73, 120451.83, 28691.32, 23880.96, 16772.66, 34137.57, 96896.66, 76637.38, 0.00, 0.00, 0.00
14, 102155.72, 120457.10, 28693.45, 23885.72, 16765.15, 34137.46, 96902.05, 76637.67, 0.00, 0.00, 0.00
15, 102159.90, 120465.05, 28697.45, 23885.36, 16797.31, 34142.94, 96907.84, 76639.23, 0.00, 0.00, 0.00
16, 102158.17, 120465.66, 28696.22, 23884.76, 16787.14, 34134.24, 96903.66, 76638.61, 0.00, 0.00, 0.00
17, 102152.61, 120454.02, 28687.99, 23879.02, 16775.12, 34133.23, 96890.47, 76631.97, 0.00, 0.00, 0.00
18, 102158.66, 120445.92, 28691.41, 23881.83, 16780.64, 34141.53, 96895.68, 76635.93, 0.00, 0.00, 0.00
19, 102160.95, 120447.78, 28691.82, 23880.31, 16766.24, 34134.98, 96895.55, 76636.57, 0.08, -0.20, 0.99
20, 102157.95, 120451.18, 28686.74, 23879.06, 16772.21, 34139.61, 96897.00, 76635.75, 0.00, 0.00, 0.00
21, 102161.51, 120460.95, 28688.87, 23877.50, 16769.31, 34141.75, 96901.76, 76640.06, 0.00, 0.00, 0.00
22, 102159.23, 120460.77, 28689.89, 23878.61, 16771.43, 34139.02, 96894.98, 76638.27, 0.00, 0.00, 0.00
23, 102156.81, 120468.79, 28692.78, 23877.38, 16776.84, 34137.33, 96895.10, 76640.58, 0.00, 0.00, 0.00
24, 102169.13, 120466.29, 28689.49, 23877.50, 16779.86, 34140.88, 96902.45, 76657.85, 0.00, 0.00, 0.00
25, 102166.09, 120459.67, 28690.50, 23881.03, 16781.20, 34143.94, 96902.90, 76646.03, 0.00, 0.00, 0.00
26, 102132.65, 120463.52, 28693.80, 23882.46, 16759.31, 34139.63, 96894.05, 76602.04, 0.00, 0.00, 0.00
27, 102132.47, 120459.42, 28689.51, 23873.38, 16748.25, 34131.49, 96889.58, 76600.23, 0.00, 0.00, 0.00
28, 102139.02, 120464.50, 28684.53, 23866.72, 16782.74, 34137.71, 96892.30, 76604.48, 0.00, 0.00, 0.00
29, 102137.05, 120462.33, 28680.60, 23868.42, 16770.42, 34134.80, 96890.47, 76601.91, 0.08, -0.21, 0.99
30, 102126.26, 120448.61, 28679.43, 23882.79, 16771.70, 34133.19, 96889.29, 76593.66, 0.00, 0.00, 0.00
31, 102123.20, 120460.50, 28678.49, 23879.91, 16761.53, 34126.73, 96889.06, 76591.40, 0.00, 0.00, 0.00
32, 102121.45, 120490.00, 28691.77, 23879.98, 16775.12, 34133.37, 96891.63, 76592.05, 0.00, 0.00, 0.00
33, 102120.00, 120478.71, 28681.60, 23877.45, 16787.54, 34137.21, 96888.84, 76590.75, 0.00, 0.00, 0.00
34, 102123.04, 120454.02, 28676.35, 23875.37, 16772.99, 34131.02, 96884.70, 76589.79, 0.00, 0.00, 0.00
35, 102119.82, 120441.90, 28675.12, 23868.60, 16773.04, 34134.55, 96887.90, 76587.38, 0.00, 0.00, 0.00
36, 102119.62, 120449.26, 28677.71, 23874.28, 16773.49, 34137.26, 96886.74, 76588.70, 0.00, 0.00, 0.00
37, 102118.92, 120454.30, 28675.86, 23874.43, 16773.22, 34134.06, 96879.66, 76587.09, 0.00, 0.00, 0.00
38, 102122.66, 120457.68, 28673.55, 23876.67, 16777.80, 34136.88, 96894.09, 76590.44, 0.00, 0.00, 0.00
39, 102122.86, 120464.34, 28673.55, 23874.19, 16780.77, 34138.09, 96905.34, 76591.65, 0.07, -0.20, 0.98
40, 102120.83, 120468.73, 28668.48, 23870.08, 16777.98, 34133.48, 96905.23, 76590.13, 0.00, 0.00, 0.00
41, 102124.13, 120455.70, 28663.76, 23867.68, 16772.73, 34130.13, 96909.27, 76596.43, 0.00, 0.00, 0.00
42, 102121.48, 120452.02, 28664.35, 23864.82, 16761.93, 34121.79, 96911.35, 76596.03, 0.00, 0.00, 0.00
43, 102125.25, 120458.69, 28662.27, 23867.10, 16760.72, 34123.96, 96924.34, 76600.74, 0.00, 0.00, 0.00
44, 102127.84, 120472.21, 28662.76, 23866.43, 16764.01, 34127.25, 96925.79, 76605.59, 0.00, 0.00, 0.00
45, 102131.17, 120487.59, 28665.35, 23866.61, 16770.67, 34124.50, 96932.78, 76610.27, 0.00, 0.00, 0.00
46, 102128.42, 120467.38, 28663.18, 23866.81, 16765.04, 34118.55, 96936.77, 76608.27, 0.00, 0.00, 0.00
47, 102127.30, 120455.52, 28658.80, 23864.42, 16752.99, 34111.60, 96940.85, 76605.88, 0.00, 0.00, 0.00
48, 102128.85, 120451.94, 28657.35, 23862.52, 16745.84, 34108.83, 96943.05, 76609.69, 0.00, 0.00, 0.00
49, 102131.33, 120459.38, 28656.50, 23863.35, 16758.31, 34111.09, 96947.98, 76610.69, 0.07, -0.21, 0.98
50, 102133.79, 120466.71, 28655.81, 23862.34, 16781.67, 34107.62, 96949.41, 76609.95, 0.00, 0.00, 0.00
51, 102129.90, 120461.62, 28652.61, 23860.46, 16767.43, 34104.96, 96942.58, 76607.56, 0.00, 0.00, 0.00
52, 102128.88, 120461.05, 28652.10, 23859.39, 16756.07, 34102.57, 96943.18, 76609.51, 0.00, 0.00, 0.00
53, 102131.78, 120466.24, 28652.37, 23854.41, 16739.64, 34093.90, 96947.76, 76611.79, 0.00, 0.00, 0.00
54, 102130.05, 120464.01, 28653.26, 23851.50, 16754.29, 34096.56, 96952.63, 76611.96, 0.00, 0.00, 0.00
55, 102129.07, 120473.93, 28652.63, 23859.97, 16774.89, 34103.87, 96947.58, 76613.44, 0.00, 0.00, 0.00
56, 102131.24, 120478.23, 28649.68, 23856.82, 16766.87, 34098.10, 96950.24, 76617.15, 0.00, 0.00, 0.00
57, 102136.83, 120464.70, 28648.59, 23860.67, 16758.98, 34092.13, 96950.24, 76615.72, 0.00, 0.00, 0.00
58, 102135.42, 120457.93, 28651.83, 23857.94, 16751.60, 34085.27, 96947.24, 76613.64, 0.00, 0.00, 0.00
59, 102126.03, 120459.89, 28643.07, 23852.17, 16754.49, 34083.48, 96945.91, 76609.22, 0.08, -0.20, 0.98
60, 102127.15, 120473.13, 28650.04, 23859.84, 16757.39, 34085.67, 96949.13, 76610.42, 0.00, 0.00, 0.00
61, 102128.34, 120482.94, 28650.76, 23859.64, 16744.67, 34077.98, 96944.88, 76610.29, 0.00, 0.00, 0.00
62, 102128.73, 120503.86, 28653.10, 23859.77, 16751.76, 34079.46, 96950.04, 76610.47, 0.00, 0.00, 0.00
63, 102127.66, 120486.36, 28650.89, 23857.27, 16753.24, 34078.00, 96951.05, 76610.96, 0.00, 0.00, 0.00
64, 102128.18, 120466.80, 28647.31, 23856.89, 16753.91, 34075.99, 96946.38, 76612.19, 0.00, 0.00, 0.00
65, 102131.24, 120478.83, 28646.31, 23856.35, 16759.18, 34077.22, 96938.84, 76612.91, 0.00, 0.00, 0.00
66, 102131.45, 120482.47, 28644.45, 23854.07, 16758.53, 34078.90, 96934.55, 76612.77, 0.00, 0.00, 0.00
67, 102130.77, 120477.27, 28640.88, 23847.25, 16738.33, 34071.90, 96929.70, 76609.46, 0.00, 0.00, 0.00
68, 102130.02, 120475.74, 28636.32, 23841.06, 16734.95, 34069.40, 96928.41, 76608.23, 0.00, 0.00, 0.00
69, 102127.64, 120475.92, 28638.69, 23850.12, 16755.11, 34069.42, 96924.72, 76604.74, 0.08, -0.21, 0.98
70, 102133.05, 120472.68, 28640.79, 23852.04, 16749.68, 34069.18, 96924.83, 76608.66, 0.00, 0.00, 0.00
71, 102134.10, 120471.72, 28639.69, 23850.70, 16748.07, 34074.52, 96932.09, 76609.26, 0.00, 0.00, 0.00
72, 102131.11, 120477.30, 28639.38, 23851.41, 16753.62, 34072.53, 96933.90, 76608.88, 0.00, 0.00, 0.00
73, 102129.37, 120479.84, 28636.65, 23851.68, 16746.35, 34069.76, 96922.80, 76605.66, 0.00, 0.00, 0.00
74, 102127.13, 120486.43, 28635.89, 23851.48, 16724.00, 34067.12, 96926.41, 76604.25, 0.00, 0.00, 0.00
75, 102130.33, 120497.49, 28635.73, 23849.96, 16733.97, 34069.18, 96936.23, 76605.86, 0.00, 0.00, 0.00
76, 102131.48, 120483.74, 28633.01, 23845.94, 16766.42, 34072.48, 96927.09, 76605.10, 0.00, 0.00, 0.00
77, 102136.12, 120488.04, 28632.11, 23844.50, 16750.02, 34066.67, 96916.18, 76607.65, 0.00, 0.00, 0.00
78, 102138.91, 120495.26, 28630.06, 23845.62, 16752.01, 34063.99, 96911.22, 76609.80, 0.00, 0.00, 0.00
79, 102138.88, 120478.20, 28624.85, 23839.16, 16745.90, 34059.34, 96912.73, 76609.55, 0.09, -0.21, 0.98
80, 102140.36, 120476.66, 28631.87, 23850.34, 16752.61, 34068.55, 96919.28, 76612.52, 0.00, 0.00, 0.00
81, 102136.36, 120479.01, 28628.31, 23846.18, 16748.29, 34068.17, 96916.00, 76608.48, 0.00, 0.00, 0.00
82, 102127.44, 120472.19, 28623.73, 23839.77, 16734.82, 34062.56, 96906.07, 76598.15, 0.00, 0.00, 0.00
83, 102123.95, 120469.38, 28621.23, 23840.73, 16733.48, 34057.26, 96901.70, 76592.07, 0.00, 0.00, 0.00
84, 102127.48, 120473.80, 28621.90, 23846.85, 16745.66, 34061.80, 96904.94, 76597.33, 0.00, 0.00, 0.00
85, 102123.30, 120480.05, 28621.18, 23845.13, 16750.38, 34065.49, 96911.46, 76599.80, 0.00, 0.00, 0.00
86, 102123.75, 120490.13, 28621.50, 23843.70, 16744.54, 34064.53, 96911.39, 76599.70, 0.00, 0.00, 0.00
87, 102125.25, 120495.14, 28622.59, 23845.49, 16738.28, 34061.58, 96904.55, 76599.34, 0.00, 0.00, 0.00
88, 102128.56, 120485.24, 28617.92, 23837.60, 16726.62, 34050.91, 96898.20, 76596.43, 0.00, 0.00, 0.00
89, 102142.69, 120470.67, 28613.81, 23838.76, 16719.57, 34046.91, 96895.79, 76608.57, 0.08, -0.21, 0.98
90, 102124.70, 120465.93, 28618.39, 23845.04, 16726.46, 34056.03, 96896.22, 76595.24, 0.00, 0.00, 0.00
91, 102108.94, 120483.05, 28617.74, 23842.47, 16744.32, 34063.19, 96895.97, 76580.67, 0.00, 0.00, 0.00
92, 102116.53, 120483.48, 28619.24, 23846.76, 16740.21, 34064.48, 96901.72, 76588.27, 0.00, 0.00, 0.00
93, 102116.16, 120474.85, 28620.04, 23845.42, 16747.27, 34065.27, 96907.80, 76588.59, 0.00, 0.00, 0.00
94, 102111.05, 120472.97, 28615.57, 23843.19, 16742.91, 34061.60, 96893.53, 76580.47, 0.00, 0.00, 0.00
95, 102107.34, 120474.24, 28612.42, 23841.53, 16737.12, 34055.03, 96883.90, 76578.80, 0.00, 0.00, 0.00
96, 102104.82, 120477.55, 28614.10, 23842.13, 16719.53, 34059.99, 96890.70, 76575.60, 0.00, 0.00, 0.00
97, 102108.48, 120490.74, 28612.33, 23839.34, 16722.79, 34061.13, 96894.01, 76576.02, 0.00, 0.00, 0.00
98, 102108.11, 120492.51, 28607.01, 23827.65, 16744.90, 34057.42, 96887.01, 76578.03, 0.00, 0.00, 0.00
99, 102104.64, 120488.62, 28607.64, 23828.70, 16749.84, 34061.46, 96884.35, 76575.69, 0.08, -0.20, 0.98
100, 102117.25, 120495.86, 28617.68, 23845.62, 16761.71, 34074.52, 96898.95, 76587.67, 0.00, 0.00, 0.00
101, 102117.30, 120470.71, 28610.14, 23837.44, 16748.81, 34068.80, 96890.65, 76586.30, 0.00, 0.00, 0.00
102, 102112.53, 120469.44, 28605.22, 23831.50, 16734.88, 34061.58, 96879.74, 76580.67, 0.00, 0.00, 0.00
103, 102116.69, 120481.30, 28608.69, 23832.95, 16732.83, 34062.14, 96883.37, 76584.31, 0.00, 0.00, 0.00
104, 102116.42, 120480.13, 28609.34, 23835.81, 16732.81, 34062.18, 96885.69, 76584.30, 0.00, 0.00, 0.00
105, 102119.02, 120486.00, 28613.56, 23835.97, 16734.24, 34064.59, 96879.95, 76587.16, 0.00, 0.00, 0.00
106, 102117.09, 120486.07, 28612.98, 23828.88, 16726.48, 34060.32, 96881.55, 76585.91, 0.00, 0.00, 0.00
107, 102117.74, 120494.98, 28607.62, 23823.88, 16718.23, 34058.09, 96890.20, 76586.20, 0.00, 0.00, 0.00
108, 102116.42, 120494.34, 28615.46, 23832.97, 16719.19, 34059.27, 96892.77, 76589.66, 0.00, 0.00, 0.00
109, 102113.05, 120481.93, 28616.31, 23835.54, 16723.98, 34061.06, 96886.88, 76589.79, 0.08, -0.21, 0.98
110, 102110.84, 120473.40, 28617.54, 23835.81, 16728.74, 34063.19, 96880.75, 76590.59, 0.00, 0.00, 0.00
111, 102113.96, 120480.23, 28619.08, 23836.84, 16722.84, 34064.44, 96881.17, 76592.79, 0.00, 0.00, 0.00
112, 102114.79, 120490.18, 28619.53, 23837.55, 16713.90, 34062.94, 96879.34, 76594.55, 0.00, 0.00, 0.00
113, 102112.69, 120481.51, 28615.71, 23835.36, 16714.25, 34060.10, 96875.01, 76592.79, 0.00, 0.00, 0.00
114, 102116.20, 120474.22, 28615.51, 23834.69, 16732.87, 34063.83, 96878.47, 76594.98, 0.00, 0.00, 0.00
115, 102117.52, 120481.20, 28614.66, 23834.63, 16729.59, 34070.16, 96884.15, 76595.42, 0.00, 0.00, 0.00
116, 102117.98, 120491.73, 28614.99, 23833.08, 16728.94, 34064.86, 96891.32, 76596.70, 0.00, 0.00, 0.00
117, 102118.66, 120499.28, 28615.64, 23833.80, 16734.95, 34061.62, 96885.33, 76598.40, 0.00, 0.00, 0.00
118, 102119.33, 120488.08, 28614.54, 23835.36, 16744.56, 34071.07, 96882.07, 76601.23, 0.00, 0.00, 0.00
119, 102116.66, 120477.71, 28611.30, 23836.10, 16733.88, 34065.93, 96874.31, 76596.48, 0.08, -0.21, 0.98
120, 102117.31, 120484.64, 28615.98, 23842.70, 16742.28, 34068.41, 96871.88, 76597.01, 0.00, 0.00, 0.00
121, 102116.89, 120489.22, 28612.85, 23845.80, 16747.80, 34068.68, 96878.85, 76600.21, 0.00, 0.00, 0.00
122, 102120.09, 120503.48, 28613.88, 23843.52, 16735.44, 34068.37, 96886.38, 76604.86, 0.00, 0.00, 0.00
123, 102122.50, 120493.00, 28615.04, 23837.91, 16735.73, 34068.04, 96881.82, 76606.98, 0.00, 0.00, 0.00
124, 102126.66, 120494.80, 28612.80, 23834.31, 16736.29, 34068.15, 96879.48, 76609.75, 0.00, 0.00, 0.00
125, 102123.40, 120485.69, 28604.11, 23832.01, 16730.37, 34063.79, 96880.37, 76605.98, 0.00, 0.00, 0.00
126, 102119.80, 120475.36, 28599.75, 23830.71, 16723.93, 34060.57, 96879.54, 76605.02, 0.00, 0.00, 0.00
127, 102115.69, 120470.98, 28596.26, 23824.97, 16718.17, 34059.81, 96876.95, 76603.85, 0.00, 0.00, 0.00
128, 102124.27, 120480.66, 28602.48, 23831.68, 16724.87, 34068.55, 96884.23, 76611.36, 0.00, 0.00, 0.00
129, 102129.79, 120483.95, 28608.85, 23836.39, 16738.80, 34073.40, 96883.43, 76615.34, 0.08, -0.21, 0.98
130, 102129.16, 120490.63, 28604.91, 23834.31, 16737.97, 34072.06, 96876.32, 76611.43, 0.00, 0.00, 0.00
131, 102126.39, 120494.54, 28603.77, 23831.38, 16727.78, 34067.28, 96871.85, 76607.30, 0.00, 0.00, 0.00
132, 102127.11, 120492.13, 28602.83, 23831.45, 16725.27, 34065.69, 96876.39, 76608.05, 0.00, 0.00, 0.00
133, 102122.62, 120487.81, 28600.13, 23829.06, 16716.38, 34062.52, 96872.88, 76605.15, 0.00, 0.00, 0.00
134, 102122.37, 120501.34, 28601.27, 23831.12, 16716.73, 34067.12, 96870.13, 76605.15, 0.00, 0.00, 0.00
135, 102126.32, 120503.75, 28603.12, 23837.84, 16746.66, 34074.88, 96872.81, 76606.87, 0.00, 0.00, 0.00
136, 102122.45, 120490.25, 28600.87, 23837.15, 16732.83, 34066.94, 96872.77, 76604.55, 0.00, 0.00, 0.00
137, 102122.93, 120483.37, 28593.94, 23831.50, 16721.54, 34065.42, 96876.46, 76604.92, 0.00, 0.00, 0.00
138, 102123.28, 120478.65, 28593.83, 23835.10, 16740.38, 34074.54, 96881.87, 76603.36, 0.00, 0.00, 0.00
139, 102125.79, 120492.75, 28597.56, 23840.97, 16749.32, 34082.25, 96882.38, 76606.00, 0.08, -0.21, 0.98
140, 102128.58, 120501.67, 28598.03, 23841.44, 16738.64, 34077.91, 96878.27, 76607.63, 0.00, 0.00, 0.00
141, 102125.83, 120489.51, 28596.17, 23836.44, 16712.42, 34064.30, 96868.30, 76602.64, 0.00, 0.00, 0.00
142, 102122.39, 120487.61, 28593.67, 23832.90, 16703.73, 34060.77, 96864.99, 76601.08, 0.00, 0.00, 0.00
143, 102122.84, 120495.75, 28595.44, 23832.39, 16741.03, 34065.51, 96868.84, 76603.70, 0.00, 0.00, 0.00
144, 102125.12, 120487.92, 28594.07, 23832.95, 16748.16, 34063.79, 96863.09, 76603.13, 0.00, 0.00, 0.00
145, 102124.52, 120495.26, 28597.20, 23835.59, 16754.33, 34067.68, 96860.84, 76603.41, 0.00, 0.00, 0.00
146, 102116.73, 120504.73, 28595.97, 23838.00, 16740.85, 34063.81, 96859.98, 76600.07, 0.00, 0.00, 0.00
147, 102116.65, 120496.62, 28594.36, 23835.61, 16727.75, 34063.92, 96859.41, 76600.86, 0.00, 0.00, 0.00
148, 102116.80, 120480.34, 28590.88, 23832.95, 16721.88, 34062.47, 96859.67, 76602.16, 0.00, 0.00, 0.00
149, 102115.55, 120468.37, 28588.37, 23829.91, 16739.91, 34066.83, 96864.16, 76599.83, 0.08, -0.20, 0.97
150, 102120.89, 120472.05, 28588.33, 23830.22, 16742.98, 34073.91, 96868.52, 76605.26, 0.00, 0.00, 0.00
151, 102123.75, 120483.05, 28593.00, 23835.50, 16735.15, 34072.95, 96865.17, 76606.78, 0.00, 0.00, 0.00
152, 102123.38, 120492.13, 28597.78, 23837.44, 16721.41, 34068.17, 96859.90, 76603.54, 0.00, 0.00, 0.00
153, 102125.66, 120493.96, 28596.44, 23837.64, 16739.27, 34070.41, 96864.37, 76606.98, 0.00, 0.00, 0.00
154, 102121.79, 120487.43, 28591.21, 23833.98, 16744.41, 34072.64, 96864.21, 76604.63, 0.00, 0.00, 0.00
155, 102124.13, 120492.41, 28596.40, 23837.22, 16743.18, 34075.21, 96871.70, 76604.92, 0.00, 0.00, 0.00
156, 102128.38, 120498.72, 28596.69, 23837.73, 16737.68, 34071.41, 96872.59, 76604.09, 0.00, 0.00, 0.00
157, 102127.82, 120504.33, 28596.55, 23837.87, 16735.67, 34069.27, 96864.05, 76603.80, 0.00, 0.00, 0.00
158, 102123.53, 120513.54, 28595.73, 23835.63, 16732.18, 34065.09, 96849.97, 76599.74, 0.00, 0.00, 0.00
159, 102121.05, 120507.93, 28593.42, 23837.78, 16733.48, 34068.93, 96853.86, 76599.94, 0.08, -0.20, 0.98
160, 102122.59, 120485.17, 28592.71, 23840.01, 16738.55, 34075.48, 96857.91, 76608.45, 0.00, 0.00, 0.00
161, 102126.99, 120479.74, 28595.70, 23836.35, 16717.18, 34065.69, 96845.32, 76610.06, 0.00, 0.00, 0.00
162, 102117.52, 120485.71, 28598.56, 23835.99, 16739.45, 34070.76, 96844.70, 76595.34, 0.00, 0.00, 0.00
163, 102113.65, 120494.92, 28597.78, 23841.80, 16748.25, 34076.30, 96844.92, 76585.30, 0.00, 0.00, 0.00
164, 102119.82, 120502.48, 28600.64, 23843.46, 16746.78, 34076.48, 96849.57, 76591.06, 0.00, 0.00, 0.00
165, 102115.30, 120495.26, 28598.27, 23843.90, 16756.97, 34076.60, 96856.16, 76590.55, 0.00, 0.00, 0.00
166, 102106.34, 120491.79, 28591.97, 23841.04, 16747.38, 34073.58, 96851.73, 76579.80, 0.00, 0.00, 0.00
167, 102108.89, 120502.77, 28597.89, 23841.62, 16741.59, 34076.64, 96854.06, 76582.28, 0.00, 0.00, 0.00
168, 102105.36, 120509.49, 28594.50, 23836.19, 16740.32, 34079.66, 96854.04, 76579.80, 0.00, 0.00, 0.00
169, 102106.74, 120491.52, 28588.13, 23827.25, 16735.15, 34076.26, 96856.84, 76580.49, 0.09, -0.20, 0.98
170, 102113.90, 120474.45, 28586.56, 23830.22, 16734.44, 34073.82, 96864.39, 76586.48, 0.00, 0.00, 0.00
171, 102114.74, 120489.60, 28589.82, 23835.30, 16725.68, 34071.12, 96864.66, 76587.63, 0.00, 0.00, 0.00
172, 102114.79, 120495.48, 28586.88, 23832.72, 16720.80, 34068.50, 96850.42, 76589.16, 0.00, 0.00, 0.00
173, 102114.19, 120493.91, 28587.23, 23831.00, 16715.04, 34069.20, 96843.65, 76593.63, 0.00, 0.00, 0.00
174, 102114.45, 120496.71, 28589.24, 23825.37, 16724.94, 34073.40, 96848.09, 76596.16, 0.00, 0.00, 0.00
175, 102116.40, 120500.02, 28589.73, 23822.22, 16737.21, 34077.76, 96854.38, 76600.81, 0.00, 0.00, 0.00
176, 102117.14, 120505.07, 28585.64, 23824.37, 16735.60, 34074.77, 96856.59, 76601.95, 0.00, 0.00, 0.00
177, 102118.37, 120507.48, 28591.14, 23823.67, 16720.13, 34069.27, 96859.41, 76601.95, 0.00, 0.00, 0.00
178, 102118.05, 120510.86, 28594.32, 23824.41, 16725.23, 34075.32, 96856.61, 76603.25, 0.00, 0.00, 0.00
179, 102116.66, 120506.05, 28596.98, 23823.58, 16737.19, 34075.08, 96852.74, 76599.05, 0.08, -0.21, 0.98
180, 102114.99, 120492.46, 28593.27, 23823.11, 16735.89, 34072.89, 96854.45, 76592.14, 0.00, 0.00, 0.00
181, 102114.23, 120492.57, 28595.68, 23825.46, 16728.27, 34071.23, 96852.56, 76590.91, 0.00, 0.00, 0.00
182, 102111.39, 120493.29, 28590.92, 23819.02, 16716.09, 34063.48, 96840.23, 76587.63, 0.00, 0.00, 0.00
183, 102114.70, 120507.26, 28594.16, 23823.61, 16701.67, 34068.19, 96843.35, 76591.85, 0.00, 0.00, 0.00
184, 102116.80, 120514.68, 28600.82, 23834.02, 16715.15, 34078.18, 96851.23, 76594.40, 0.00, 0.00, 0.00
185, 102117.16, 120497.71, 28599.73, 23832.66, 16757.33, 34081.78, 96853.93, 76594.46, 0.00, 0.00, 0.00
186, 102112.17, 120481.89, 28593.87, 23827.70, 16750.84, 34077.71, 96853.81, 76588.07, 0.00, 0.00, 0.00
187, 102114.57, 120493.35, 28597.13, 23829.17, 16746.78, 34083.04, 96866.06, 76588.98, 0.00, 0.00, 0.00
188, 102113.05, 120494.47, 28595.48, 23830.69, 16730.93, 34074.03, 96861.84, 76584.70, 0.00, 0.00, 0.00
189, 102108.98, 120498.23, 28597.92, 23834.09, 16724.42, 34068.10, 96841.52, 76582.28, 0.09, -0.20, 0.98
190, 102107.98, 120502.56, 28596.66, 23833.24, 16746.02, 34071.16, 96826.95, 76581.05, 0.00, 0.00, 0.00
191, 102110.19, 120507.55, 28596.53, 23831.09, 16738.84, 34066.88, 96831.46, 76586.55, 0.00, 0.00, 0.00
192, 102109.20, 120505.56, 28598.12, 23828.01, 16731.24, 34068.06, 96838.21, 76584.18, 0.00, 0.00, 0.00
193, 102107.46, 120490.07, 28593.04, 23828.95, 16728.18, 34066.27, 96841.14, 76583.18, 0.00, 0.00, 0.00
194, 102109.23, 120489.84, 28591.63, 23830.60, 16733.10, 34073.09, 96847.02, 76582.55, 0.00, 0.00, 0.00
195, 102106.09, 120486.65, 28590.09, 23826.60, 16718.46, 34064.82, 96844.38, 76578.93, 0.00, 0.00, 0.00
196, 102107.66, 120490.02, 28597.51, 23829.04, 16734.10, 34069.71, 96842.15, 76581.63, 0.00, 0.00, 0.00
197, 102105.76, 120498.83, 28598.79, 23827.54, 16732.25, 34068.73, 96841.48, 76580.85, 0.00, 0.00, 0.00
198, 102103.81, 120512.09, 28596.29, 23821.46, 16723.08, 34064.59, 96835.38, 76579.63, 0.00, 0.00, 0.00
199, 102106.30, 120495.81, 28593.11, 23820.10, 16722.66, 34066.45, 96837.61, 76580.47, 0.08, -0.21, 0.97
200, 102105.58, 120488.23, 28593.89, 23825.48, 16735.38, 34071.23, 96841.97, 76580.92, 0.00, 0.00, 0.00
201, 102107.19, 120501.91, 28597.02, 23826.13, 16728.92, 34070.56, 96841.41, 76581.86, 0.00, 0.00, 0.00
202, 102106.79, 120516.42, 28592.78, 23819.87, 16719.53, 34065.80, 96838.35, 76579.84, 0.00, 0.00, 0.00
203, 102106.27, 120507.57, 28591.08, 23820.19, 16715.84, 34063.88, 96833.86, 76579.60, 0.00, 0.00, 0.00
204, 102106.41, 120484.80, 28589.87, 23821.35, 16708.55, 34062.79, 96836.98, 76580.00, 0.00, 0.00, 0.00
205, 102101.49, 120482.78, 28587.95, 23819.92, 16705.31, 34067.07, 96834.19, 76578.52, 0.00, 0.00, 0.00
206, 102101.24, 120496.08, 28595.17, 23820.10, 16709.29, 34071.52, 96824.87, 76578.41, 0.00, 0.00, 0.00
207, 102106.12, 120508.17, 28598.18, 23823.25, 16727.62, 34071.39, 96829.72, 76581.30, 0.00, 0.00, 0.00
208, 102106.48, 120507.80, 28597.02, 23824.39, 16743.33, 34070.38, 96832.94, 76578.44, 0.00, 0.00, 0.00
209, 102099.79, 120503.03, 28595.10, 23824.90, 16736.00, 34067.61, 96828.00, 76574.99, 0.08, -0.21, 0.97
210, 102096.64, 120486.31, 28589.73, 23816.21, 16716.98, 34056.48, 96818.14, 76569.09, 0.00, 0.00, 0.00
211, 102098.07, 120493.84, 28596.20, 23827.92, 16721.25, 34060.32, 96820.45, 76569.98, 0.00, 0.00, 0.00
212, 102091.32, 120501.24, 28602.74, 23835.68, 16732.36, 34064.50, 96821.38, 76570.93, 0.00, 0.00, 0.00
213, 102093.11, 120507.48, 28600.82, 23832.55, 16727.66, 34063.68, 96824.55, 76574.55, 0.00, 0.00, 0.00
214, 102095.61, 120500.98, 28598.21, 23832.55, 16723.62, 34060.95, 96825.83, 76572.85, 0.00, 0.00, 0.00
215, 102094.95, 120496.80, 28600.38, 23832.32, 16729.54, 34066.45, 96827.62, 76573.20, 0.00, 0.00, 0.00
216, 102095.19, 120487.99, 28594.68, 23828.01, 16727.46, 34059.99, 96823.13, 76572.54, 0.00, 0.00, 0.00
217, 102097.87, 120486.70, 28595.79, 23828.99, 16740.14, 34061.49, 96821.96, 76574.26, 0.00, 0.00, 0.00
218, 102101.11, 120491.90, 28599.32, 23828.23, 16733.77, 34061.80, 96826.16, 76576.83, 0.08, -0.21, 0.98
219, 102100.33, 120495.01, 28596.91, 23826.69, 16728.65, 34060.05, 96826.75, 76580.72, 0.00, 0.00, 0.00
220, 102094.83, 120489.73, 28592.37, 23824.01, 16716.11, 34052.55, 96817.31, 76578.21, 0.00, 0.00, 0.00
221, 102096.04, 120490.96, 28596.46, 23824.70, 16720.63, 34057.98, 96822.16, 76578.73, 0.00, 0.00, 0.00
222, 102097.91, 120504.66, 28595.21, 23823.47, 16718.93, 34058.43, 96833.19, 76578.80, 0.00, 0.00, 0.00
223, 102096.55, 120517.20, 28592.22, 23821.71, 16711.13, 34055.09, 96832.11, 76576.65, 0.00, 0.00, 0.00
224, 102094.16, 120505.02, 28590.09, 23817.37, 16711.30, 34052.39, 96818.55, 76574.01, 0.00, 0.00, 0.00
225, 102097.60, 120500.80, 28592.06, 23817.59, 16715.10, 34054.76, 96819.04, 76578.88, 0.00, 0.00, 0.00
226, 102090.43, 120477.42, 28590.14, 23820.39, 16708.44, 34049.86, 96816.04, 76572.54, 0.00, 0.00, 0.00
227, 102088.84, 120470.94, 28586.67, 23816.14, 16700.87, 34048.21, 96813.98, 76570.39, 0.00, 0.00, 0.00
228, 102092.28, 120474.18, 28585.62, 23815.74, 16710.90, 34050.33, 96818.92, 76575.24, 0.07, -0.21, 0.98
229, 102090.80, 120477.55, 28585.09, 23815.40, 16708.02, 34049.33, 96821.54, 76576.45, 0.00, 0.00, 0.00
230, 102089.63, 120492.84, 28586.14, 23821.33, 16697.00, 34054.07, 96820.91, 76573.09, 0.00, 0.00, 0.00
231, 102094.05, 120499.44, 28589.69, 23827.79, 16701.40, 34061.49, 96825.14, 76576.23, 0.00, 0.00, 0.00
232, 102091.16, 120494.61, 28593.42, 23826.60, 16725.32, 34063.36, 96822.79, 76573.68, 0.00, 0.00, 0.00
233, 102091.86, 120487.72, 28591.84, 23823.58, 16723.84, 34066.16, 96828.07, 76573.56, 0.00, 0.00, 0.00
234, 102087.48, 120485.82, 28591.86, 23819.85, 16727.04, 34062.65, 96825.38, 76569.54, 0.00, 0.00, 0.00
235, 102085.63, 120492.98, 28589.13, 23817.93, 16726.41, 34059.68, 96816.73, 76567.84, 0.00, 0.00, 0.00
236, 102086.63, 120506.88, 28588.44, 23814.91, 16717.36, 34057.08, 96807.44, 76567.06, 0.00, 0.00, 0.00
237, 102086.41, 120494.23, 28591.10, 23819.67, 16720.96, 34058.31, 96811.23, 76566.52, 0.00, 0.00, 0.00
238, 102081.04, 120477.71, 28589.69, 23822.53, 16717.18, 34059.63, 96811.62, 76562.95, 0.08, -0.21, 0.98
239, 102078.13, 120481.30, 28585.60, 23818.67, 16705.11, 34053.26, 96806.85, 76556.98, 0.00, 0.00, 0.00
240, 102076.45, 120484.41, 28584.39, 23817.17, 16722.72, 34051.74, 96802.79, 76554.25, 0.00, 0.00, 0.00
241, 102080.88, 120486.59, 28587.93, 23822.69, 16732.34, 34061.26, 96803.32, 76557.54, 0.00, 0.00, 0.00
242, 102084.73, 120492.75, 28588.35, 23822.78, 16718.61, 34057.15, 96804.10, 76561.72, 0.00, 0.00, 0.00
243, 102080.62, 120488.10, 28583.88, 23813.79, 16713.92, 34053.02, 96799.77, 76557.54, 0.00, 0.00, 0.00
244, 102077.38, 120477.93, 28580.93, 23809.26, 16712.87, 34048.50, 96796.62, 76554.14, 0.00, 0.00, 0.00
245, 102081.30, 120484.08, 28586.96, 23818.73, 16715.39, 34055.50, 96799.68, 76560.45, 0.00, 0.00, 0.00
246, 102080.88, 120497.38, 28591.08, 23818.93, 16709.40, 34054.34, 96799.44, 76558.27, 0.00, 0.00, 0.00
247, 102080.16, 120482.73, 28578.22, 23807.49, 16698.56, 34043.58, 96792.75, 76554.74, 0.00, 0.00, 0.00
248, 102084.91, 120493.35, 28577.29, 23806.82, 16707.75, 34043.11, 96802.54, 76557.92, 0.08, -0.21, 0.98
249, 102087.59, 120496.08, 28581.91, 23809.97, 16710.52, 34047.43, 96809.38, 76562.39, 0.00, 0.00, 0.00
250, 102084.95, 120474.53, 28581.80, 23805.79, 16702.29, 34045.10, 96803.52, 76560.73, 0.00, 0.00, 0.00
251, 102084.48, 120474.47, 28582.29, 23810.29, 16707.17, 34052.46, 96807.34, 76560.55, 0.00, 0.00, 0.00
252, 102082.91, 120475.92, 28581.20, 23807.98, 16693.42, 34045.82, 96807.13, 76559.57, 0.00, 0.00, 0.00
253, 102083.16, 120478.47, 28581.24, 23801.88, 16694.47, 34045.30, 96800.35, 76558.59, 0.00, 0.00, 0.00
254, 102084.95, 120488.04, 28582.63, 23802.91, 16689.13, 34040.90, 96792.35, 76558.25, 0.00, 0.00, 0.00
255, 102080.01, 120499.63, 28578.25, 23801.46, 16702.56, 34038.91, 96789.17, 76554.12, 0.00, 0.00, 0.00
0, 102079.66, 120496.10, 28583.41, 23805.75, 16702.23, 34045.33, 96794.29, 76555.77, 0.00, 0.00, 0.00
1, 102078.94, 120477.59, 28580.21, 23800.96, 16698.07, 34042.20, 96792.04, 76556.64, 0.00, 0.00, 0.00
2, 102077.35, 120474.53, 28579.25, 23804.25, 16720.09, 34044.88, 96793.69, 76554.01, 0.08, -0.21, 0.98
3, 102076.77, 120478.29, 28581.04, 23805.81, 16721.88, 34047.27, 96794.96, 76552.30, 0.00, 0.00, 0.00
4, 102082.47, 120482.80, 28582.02, 23805.41, 16721.83, 34050.16, 96794.52, 76557.07, 0.00, 0.00, 0.00
5, 102079.27, 120487.16, 28583.46, 23810.15, 16713.94, 34046.67, 96792.73, 76554.95, 0.00, 0.00, 0.00
6, 102080.21, 120498.92, 28581.87, 23807.47, 16703.88, 34043.94, 96792.10, 76555.88, 0.00, 0.00, 0.00
7, 102084.19, 120507.66, 28587.50, 23807.92, 16706.12, 34044.41, 96795.27, 76559.84, 0.00, 0.00, 0.00
8, 102080.50, 120488.95, 28586.47, 23803.47, 16708.78, 34044.63, 96799.45, 76554.74, 0.00, 0.00, 0.00
9, 102082.25, 120489.63, 28587.16, 23808.81, 16708.40, 34043.72, 96800.95, 76555.17, 0.00, 0.00, 0.00
10, 102084.41, 120497.78, 28590.43, 23808.03, 16703.14, 34041.19, 96792.95, 76557.47, 0.00, 0.00, 0.00
11, 102080.62, 120492.38, 28587.88, 23802.42, 16703.93, 34043.07, 96779.23, 76553.11, 0.00, 0.00, 0.00
12, 102082.18, 120491.77, 28586.45, 23806.42, 16705.27, 34045.80, 96781.06, 76554.74, 0.08, -0.20, 0.98
13, 102076.23, 120495.55, 28591.39, 23811.63, 16713.38, 34048.30, 96788.10, 76553.29, 0.00, 0.00, 0.00
14, 102076.62, 120506.54, 28590.29, 23807.13, 16710.70, 34049.20, 96791.27, 76552.27, 0.00, 0.00, 0.00
15, 102078.98, 120491.95, 28582.76, 23801.12, 16698.52, 34047.50, 96792.52, 76550.56, 0.00, 0.00, 0.00
16, 102082.89, 120479.61, 28582.38, 23797.81, 16684.44, 34041.28, 96795.26, 76554.68, 0.00, 0.00, 0.00
17, 102086.02, 120479.85, 28586.45, 23804.12, 16694.34, 34048.14, 96796.75, 76559.15, 0.00, 0.00, 0.00
18, 102081.09, 120479.34, 28588.46, 23805.12, 16709.69, 34050.13, 96793.24, 76555.41, 0.00, 0.00, 0.00
19, 102079.45, 120483.41, 28585.64, 23802.57, 16727.31, 34054.98, 96789.58, 76554.07, 0.00, 0.00, 0.00
20, 102079.50, 120494.34, 28586.70, 23804.23, 16723.22, 34050.22, 96782.18, 76554.37, 0.00, 0.00, 0.00
21, 102077.62, 120501.76, 28586.29, 23804.52, 16713.63, 34049.28, 96778.67, 76552.09, 0.00, 0.00, 0.00
22, 102081.27, 120489.24, 28584.30, 23804.85, 16699.57, 34047.96, 96783.07, 76556.16, 0.08, -0.20, 0.98
23, 102085.76, 120485.60, 28583.48, 23805.32, 16713.43, 34052.03, 96787.38, 76558.37, 0.00, 0.00, 0.00
24, 102085.29, 120491.34, 28584.59, 23801.16, 16714.95, 34055.63, 96794.52, 76557.16, 0.00, 0.00, 0.00
25, 102082.83, 120493.55, 28583.50, 23796.56, 16715.42, 34054.07, 96801.78, 76559.08, 0.00, 0.00, 0.00
26, 102090.41, 120500.82, 28584.82, 23794.06, 16712.51, 34057.38, 96802.97, 76563.57, 0.00, 0.00, 0.00
27, 102086.13, 120496.06, 28582.22, 23792.69, 16704.53, 34053.69, 96794.13, 76559.39, 0.00, 0.00, 0.00
28, 102078.02, 120483.70, 28578.60, 23793.14, 16704.13, 34046.00, 96785.33, 76553.96, 0.00, 0.00, 0.00
29, 102071.72, 120484.37, 28573.82, 23788.83, 16701.09, 34039.11, 96773.26, 76547.97, 0.00, 0.00, 0.00
30, 102073.71, 120489.22, 28577.02, 23788.25, 16689.00, 34041.57, 96771.52, 76548.33, 0.00, 0.00, 0.00
31, 102073.46, 120491.23, 28583.16, 23790.84, 16695.52, 34038.44, 96769.48, 76548.76, 0.00, 0.00, 0.00
32, 102070.38, 120501.73, 28584.04, 23798.37, 16714.77, 34035.56, 96767.49, 76549.16, 0.08, -0.20, 0.99
33, 102069.93, 120514.66, 28579.99, 23796.65, 16707.32, 34036.16, 96771.16, 76550.01, 0.00, 0.00, 0.00
34, 102067.88, 120497.34, 28577.91, 23795.02, 16704.75, 34036.25, 96768.09, 76545.38, 0.00, 0.00, 0.00
35, 102066.13, 120471.02, 28578.13, 23793.14, 16723.40, 34047.00, 96765.80, 76541.09, 0.00, 0.00, 0.00
36, 102067.96, 120478.58, 28581.51, 23793.99, 16714.34, 34047.07, 96768.88, 76542.79, 0.00, 0.00, 0.00
37, 102066.73, 120492.62, 28583.30, 23797.23, 16705.29, 34040.45, 96765.37, 76542.34, 0.00, 0.00, 0.00
38, 102065.39, 120499.23, 28585.22, 23806.78, 16721.54, 34045.91, 96759.45, 76543.34, 0.00, 0.00, 0.00
39, 102064.99, 120496.57, 28585.11, 23806.08, 16718.12, 34046.13, 96763.56, 76544.69, 0.00, 0.00, 0.00
40, 102062.17, 120483.52, 28579.81, 23800.16, 16707.32, 34041.80, 96766.78, 76541.24, 0.00, 0.00, 0.00
41, 102064.90, 120480.41, 28580.08, 23798.10, 16709.25, 34042.27, 96772.27, 76544.64, 0.00, 0.00, 0.00
42, 102068.68, 120490.18, 28581.62, 23792.80, 16706.65, 34045.68, 96769.02, 76545.09, 0.08, -0.20, 0.98
43, 102074.31, 120489.20, 28575.30, 23793.83, 16719.86, 34050.94, 96766.42, 76547.63, 0.00, 0.00, 0.00
44, 102069.44, 120497.16, 28580.53, 23801.57, 16713.09, 34050.38, 96768.14, 76545.58, 0.00, 0.00, 0.00
45, 102066.91, 120505.72, 28584.35, 23802.44, 16710.07, 34052.64, 96766.69, 76545.18, 0.00, 0.00, 0.00
46, 102067.67, 120495.41, 28582.92, 23798.64, 16714.03, 34047.20, 96758.38, 76541.20, 0.00, 0.00, 0.00
47, 102066.47, 120496.82, 28583.21, 23798.51, 16706.10, 34042.51, 96756.05, 76539.05, 0.00, 0.00, 0.00
48, 102068.97, 120500.10, 28582.38, 23798.33, 16699.44, 34041.55, 96757.19, 76541.53, 0.00, 0.00, 0.00
49, 102074.02, 120491.99, 28583.50, 23801.66, 16698.23, 34043.18, 96756.36, 76547.86, 0.00, 0.00, 0.00
50, 102073.73, 120490.16, 28583.28, 23800.34, 16697.60, 34044.81, 96760.54, 76548.48, 0.00, 0.00, 0.00
51, 102070.06, 120490.78, 28580.75, 23795.96, 16706.97, 34046.71, 96763.05, 76546.83, 0.00, 0.00, 0.00
52, 102071.56, 120498.18, 28580.06, 23790.91, 16704.42, 34045.17, 96762.69, 76550.38, 0.08, -0.21, 0.98
53, 102070.69, 120503.08, 28584.79, 23802.77, 16709.29, 34045.24, 96760.12, 76549.78, 0.00, 0.00, 0.00
54, 102068.21, 120499.55, 28591.39, 23806.91, 16706.83, 34045.41, 96758.04, 76545.78, 0.00, 0.00, 0.00
55, 102065.62, 120502.92, 28590.88, 23805.77, 16690.85, 34045.93, 96758.98, 76543.32, 0.00, 0.00, 0.00
56, 102064.07, 120496.84, 28584.06, 23800.16, 16691.99, 34039.54, 96759.38, 76542.27, 0.00, 0.00, 0.00
57, 102066.96, 120495.10, 28583.25, 23799.78, 16719.75, 34038.09, 96750.22, 76542.12, 0.00, 0.00, 0.00
58, 102069.38, 120503.34, 28579.68, 23790.86, 16716.18, 34040.45, 96747.60, 76542.16, 0.00, 0.00, 0.00
59, 102069.66, 120516.89, 28582.25, 23797.34, 16728.18, 34047.65, 96760.41, 76542.79, 0.00, 0.00, 0.00
60, 102065.70, 120513.02, 28579.28, 23798.48, 16722.12, 34044.59, 96757.41, 76542.79, 0.00, 0.00, 0.00
61, 102067.67, 120500.55, 28577.78, 23800.94, 16709.65, 34043.16, 96754.13, 76545.71, 0.00, 0.00, 0.00
62, 102068.21, 120490.49, 28580.84, 23804.23, 16704.75, 34045.04, 96759.16, 76547.73, 0.08, -0.21, 0.99
63, 102068.03, 120485.64, 28579.97, 23801.79, 16712.87, 34046.20, 96755.27, 76553.20, 0.00, 0.00, 0.00
64, 102068.30, 120483.63, 28582.40, 23798.30, 16723.31, 34050.85, 96750.66, 76557.34, 0.00, 0.00, 0.00
65, 102063.94, 120495.16, 28580.79, 23796.34, 16706.43, 34046.69, 96748.92, 76552.58, 0.00, 0.00, 0.00
66, 102066.53, 120491.05, 28575.65, 23792.74, 16708.31, 34045.82, 96752.36, 76552.66, 0.00, 0.00, 0.00
67, 102069.33, 120486.67, 28574.31, 23790.64, 16709.69, 34047.09, 96752.98, 76553.27, 0.00, 0.00, 0.00
68, 102071.67, 120493.80, 28574.67, 23790.19, 16706.59, 34047.09, 96753.52, 76556.06, 0.00, 0.00, 0.00
69, 102069.62, 120495.99, 28575.23, 23789.16, 16696.42, 34042.62, 96750.62, 76553.05, 0.00, 0.00, 0.00
70, 102073.02, 120492.77, 28571.76, 23782.26, 16694.79, 34038.26, 96748.78, 76555.39, 0.00, 0.00, 0.00
71, 102072.84, 120499.50, 28575.34, 23786.84, 16696.55, 34036.25, 96750.38, 76555.37, 0.00, 0.00, 0.00
72, 102069.33, 120499.32, 28570.29, 23782.43, 16690.92, 34033.05, 96750.30, 76552.58, 0.08, -0.21, 0.98
73, 102070.49, 120495.45, 28569.64, 23781.23, 16696.28, 34035.78, 96761.80, 76552.78, 0.00, 0.00, 0.00
74, 102070.53, 120507.70, 28576.23, 23790.06, 16690.18, 34035.29, 96757.66, 76550.16, 0.00, 0.00, 0.00
75, 102073.75, 120495.57, 28572.55, 23793.59, 16691.59, 34034.38, 96748.18, 76556.60, 0.00, 0.00, 0.00
76, 102080.01, 120486.59, 28571.38, 23790.84, 16688.91, 34033.28, 96743.94, 76565.67, 0.00, 0.00, 0.00
77, 102058.98, 120490.90, 28569.64, 23784.56, 16672.61, 34024.67, 96726.63, 76538.25, 0.00, 0.00, 0.00
78, 102056.56, 120501.09, 28573.60, 23786.10, 16709.13, 34033.64, 96728.18, 76533.17, 0.00, 0.00, 0.00
79, 102065.98, 120499.23, 28576.23, 23790.73, 16719.30, 34042.69, 96738.97, 76545.52, 0.00, 0.00, 0.00
80, 102068.90, 120513.00, 28577.58, 23788.92, 16707.12, 34037.32, 96740.20, 76548.42, 0.00, 0.00, 0.00
81, 102067.61, 120521.61, 28578.52, 23785.25, 16700.31, 34029.32, 96736.88, 76548.38, 0.00, 0.00, 0.00
82, 102059.98, 120503.23, 28579.07, 23790.50, 16696.28, 34025.10, 96728.76, 76541.29, 0.08, -0.20, 0.98
83, 102056.97, 120489.16, 28580.82, 23800.79, 16705.78, 34029.55, 96728.87, 76538.38, 0.00, 0.00, 0.00
84, 102068.19, 120495.86, 28584.19, 23807.96, 16700.44, 34030.02, 96736.91, 76546.07, 0.00, 0.00, 0.00
85, 102065.35, 120493.09, 28577.35, 23797.81, 16690.61, 34027.85, 96733.52, 76543.79, 0.00, 0.00, 0.00
86, 102067.29, 120504.15, 28576.99, 23795.98, 16715.24, 34037.37, 96738.30, 76548.87, 0.00, 0.00, 0.00
87, 102068.41, 120504.89, 28576.28, 23796.63, 16709.92, 34035.65, 96740.11, 76550.20, 0.00, 0.00, 0.00
88, 102067.80, 120507.77, 28576.08, 23796.31, 16712.58, 34038.93, 96739.87, 76551.50, 0.00, 0.00, 0.00
89, 102069.75, 120501.54, 28569.53, 23791.78, 16706.07, 34034.64, 96737.92, 76552.98, 0.00, 0.00, 0.00
90, 102075.79, 120497.16, 28570.13, 23792.94, 16693.51, 34028.43, 96746.75, 76553.78, 0.00, 0.00, 0.00
91, 102072.73, 120495.39, 28570.76, 23788.94, 16698.50, 34033.95, 96747.20, 76551.17, 0.00, 0.00, 0.00
92, 102073.62, 120491.27, 28566.36, 23784.92, 16692.91, 34035.58, 96740.73, 76554.07, 0.09, -0.21, 0.98
93, 102074.06, 120501.20, 28568.14, 23789.03, 16697.78, 34034.24, 96731.73, 76555.82, 0.00, 0.00, 0.00
94, 102072.44, 120503.05, 28569.08, 23790.62, 16712.89, 34035.58, 96734.93, 76555.48, 0.00, 0.00, 0.00
95, 102077.80, 120501.18, 28569.53, 23788.85, 16701.42, 34035.02, 96738.55, 76559.35, 0.00, 0.00, 0.00
96, 102077.02, 120507.34, 28569.42, 23789.86, 16682.04, 34031.27, 96733.70, 76560.13, 0.00, 0.00, 0.00
97, 102079.66, 120499.52, 28568.68, 23785.16, 16666.13, 34028.56, 96737.16, 76563.41, 0.00, 0.00, 0.00
98, 102081.27, 120490.34, 28567.00, 23784.11, 16699.46, 34033.08, 96737.25, 76561.30, 0.00, 0.00, 0.00
99, 102082.78, 120492.98, 28567.45, 23791.02, 16722.03, 34041.37, 96737.63, 76560.09, 0.00, 0.00, 0.00
100, 102078.73, 120503.52, 28571.47, 23791.98, 16716.94, 34039.16, 96732.29, 76558.16, 0.00, 0.00, 0.00
101, 102077.35, 120499.32, 28567.74, 23782.88, 16696.69, 34030.08, 96727.15, 76555.41, 0.00, 0.00, 0.00
102, 102077.35, 120493.18, 28570.02, 23789.74, 16700.24, 34032.12, 96728.83, 76557.85, 0.08, -0.21, 0.98
103, 102080.26, 120503.64, 28573.29, 23797.83, 16705.43, 34035.49, 96730.26, 76561.83, 0.00, 0.00, 0.00
104, 102080.05, 120509.90, 28576.44, 23797.63, 16709.47, 34032.05, 96728.58, 76564.67, 0.00, 0.00, 0.00
105, 102078.85, 120514.92, 28579.12, 23801.32, 16710.61, 34030.60, 96727.28, 76562.30, 0.00, 0.00, 0.00
106, 102072.30, 120507.55, 28578.65, 23799.02, 16704.02, 34028.09, 96726.81, 76557.77, 0.00, 0.00, 0.00
107, 102071.41, 120501.85, 28577.98, 23800.49, 16714.32, 34027.60, 96731.40, 76557.25, 0.00, 0.00, 0.00
108, 102076.10, 120493.96, 28576.30, 23802.48, 16714.25, 34032.21, 96740.94, 76559.82, 0.00, 0.00, 0.00
109, 102071.49, 120502.38, 28576.21, 23798.44, 16716.11, 34030.15, 96743.29, 76556.66, 0.00, 0.00, 0.00
110, 102068.70, 120498.41, 28577.58, 23802.55, 16711.79, 34033.46, 96737.77, 76555.13, 0.00, 0.00, 0.00
111, 102070.76, 120494.92, 28576.08, 23806.60, 16716.27, 34037.70, 96733.52, 76556.27, 0.00, 0.00, 0.00
112, 102071.59, 120501.13, 28577.73, 23807.22, 16710.63, 34039.00, 96734.91, 76556.13, 0.09, -0.21, 0.98
113, 102074.09, 120513.59, 28580.75, 23809.10, 16713.03, 34041.46, 96736.72, 76555.93, 0.00, 0.00, 0.00
114, 102075.92, 120507.10, 28579.63, 23806.87, 16724.56, 34045.33, 96740.54, 76558.14, 0.00, 0.00, 0.00
115, 102075.56, 120497.91, 28575.56, 23803.00, 16713.65, 34044.48, 96740.45, 76558.92, 0.00, 0.00, 0.00
116, 102074.55, 120503.81, 28575.07, 23802.53, 16706.79, 34043.54, 96739.15, 76561.20, 0.00, 0.00, 0.00
117, 102075.85, 120515.82, 28572.26, 23798.53, 16714.84, 34042.13, 96742.39, 76562.16, 0.00, 0.00, 0.00
