%OpenBCI Raw EEG Data
%Sample Rate = 250.0 Hz
%First Column = SampleIndex
%Other Columns = EEG data in microvolts followed by Accel Data (in G) interleaved with Aux Data
156, 96628.40, 129421.80, 50204.16, 15259.51, 12138.72, 29260.60, 84611.97, 69504.09, 0.00, 0.00, 0.00
157, 96626.66, 129427.57, 50211.49, 15263.29, 12116.41, 29270.35, 84612.70, 69503.80, 0.00, 0.00, 0.00
158, 96623.50, 129429.88, 50209.37, 15266.20, 12144.98, 29274.88, 84613.22, 69498.34, 0.08, -0.12, 1.00
159, 96629.23, 129433.65, 50212.43, 15276.84, 12182.88, 29291.16, 84623.61, 69503.64, 0.00, 0.00, 0.00
160, 96633.00, 129434.45, 50213.84, 15282.80, 12174.73, 29294.04, 84622.05, 69505.61, 0.00, 0.00, 0.00
161, 96634.66, 129439.04, 50216.79, 15285.49, 12133.17, 29296.41, 84620.98, 69505.97, 0.00, 0.00, 0.00
162, 96638.37, 129445.95, 50221.04, 15294.31, 12103.63, 29295.96, 84623.95, 69507.53, 0.00, 0.00, 0.00
163, 96633.49, 129438.55, 50218.24, 15296.50, 12112.54, 29294.60, 84620.33, 69499.48, 0.00, 0.00, 0.00
164, 96635.77, 129437.49, 50219.29, 15297.91, 12139.17, 29303.52, 84621.78, 69497.45, 0.00, 0.00, 0.00
165, 96641.98, 129439.77, 50226.11, 15307.55, 12160.09, 29319.70, 84631.16, 69502.44, 0.00, 0.00, 0.00
166, 96646.91, 129446.91, 50234.49, 15319.33, 12137.67, 29334.58, 84639.15, 69507.11, 0.00, 0.00, 0.00
167, 96648.47, 129452.11, 50235.86, 15326.43, 12133.62, 29351.15, 84641.41, 69506.23, 0.00, 0.00, 0.00
168, 96649.81, 129455.02, 50236.39, 15328.89, 12160.11, 29360.33, 84642.92, 69508.38, 0.08, -0.13, 0.99
169, 96651.02, 129461.01, 50242.05, 15337.70, 12165.34, 29364.87, 84645.65, 69509.99, 0.00, 0.00, 0.00
170, 96651.35, 129463.65, 50243.28, 15344.38, 12173.52, 29373.83, 84646.14, 69508.47, 0.00, 0.00, 0.00
171, 96655.40, 129466.06, 50241.20, 15343.20, 12162.79, 29380.83, 84651.98, 69511.77, 0.00, 0.00, 0.00
172, 96660.45, 129471.27, 50245.69, 15351.89, 12152.67, 29390.64, 84659.84, 69515.64, 0.00, 0.00, 0.00
173, 96666.33, 129476.59, 50250.81, 15362.80, 12200.57, 29406.45, 84660.98, 69520.43, 0.00, 0.00, 0.00
174, 96672.55, 129484.50, 50255.79, 15375.41, 12220.44, 29414.02, 84662.46, 69528.43, 0.00, 0.00, 0.00
175, 96674.63, 129489.62, 50255.73, 15383.39, 12189.39, 29414.07, 84665.48, 69527.49, 0.00, 0.00, 0.00
176, 96669.93, 129485.73, 50256.42, 15378.69, 12155.73, 29419.28, 84658.95, 69518.75, 0.00, 0.00, 0.00
177, 96665.05, 129486.24, 50259.26, 15374.92, 12139.05, 29416.04, 84652.70, 69512.76, 0.00, 0.00, 0.00
178, 96667.94, 129490.60, 50262.43, 15379.18, 12147.21, 29423.43, 84657.88, 69514.05, 0.08, -0.12, 0.99
179, 96667.52, 129490.83, 50260.33, 15384.73, 12177.41, 29428.78, 84662.86, 69513.27, 0.00, 0.00, 0.00
180, 96670.20, 129494.23, 50261.32, 15391.99, 12181.01, 29439.32, 84669.27, 69516.98, 0.00, 0.00, 0.00
181, 96670.13, 129498.11, 50267.15, 15390.43, 12141.96, 29430.45, 84665.23, 69515.17, 0.00, 0.00, 0.00
182, 96671.38, 129499.05, 50275.02, 15398.45, 12124.23, 29453.81, 84670.69, 69517.12, 0.00, 0.00, 0.00
183, 96673.26, 129493.46, 50268.91, 15403.75, 12164.85, 29458.14, 84670.77, 69517.70, 0.00, 0.00, 0.00
184, 96678.16, 129498.42, 50271.87, 15410.05, 12182.39, 29464.87, 84674.69, 69519.13, 0.00, 0.00, 0.00
185, 96684.68, 129505.45, 50275.09, 15417.07, 12181.88, 29475.71, 84681.62, 69523.89, 0.00, 0.00, 0.00
186, 96686.45, 129510.67, 50277.10, 15410.19, 12150.54, 29477.35, 84682.87, 69523.96, 0.00, 0.00, 0.00
187, 96683.07, 129512.17, 50281.36, 15415.01, 12126.40, 29469.90, 84674.38, 69516.78, 0.00, 0.00, 0.00
188, 96691.52, 129507.50, 50267.93, 15406.39, 12142.43, 29457.79, 84662.34, 69510.39, 0.08, -0.13, 0.99
189, 96710.05, 129510.07, 50266.88, 15414.41, 12166.50, 29456.54, 84661.27, 69522.82, 0.00, 0.00, 0.00
190, 96695.38, 129520.33, 50283.31, 15438.86, 12160.04, 29482.22, 84682.45, 69531.09, 0.00, 0.00, 0.00
191, 96695.52, 129526.70, 50288.41, 15441.68, 12120.39, 29491.00, 84697.04, 69532.23, 0.00, 0.00, 0.00
192, 96705.22, 129530.59, 50284.02, 15439.31, 12102.44, 29490.47, 84699.95, 69542.84, 0.00, 0.00, 0.00
193, 96699.79, 129530.91, 50290.77, 15455.72, 12138.99, 29503.59, 84706.70, 69543.85, 0.00, 0.00, 0.00
194, 96684.39, 129525.63, 50287.96, 15457.77, 12169.90, 29508.41, 84708.05, 69533.30, 0.00, 0.00, 0.00
195, 96676.12, 129529.31, 50285.21, 15456.43, 12180.45, 29516.57, 84718.92, 69530.33, 0.00, 0.00, 0.00
196, 96666.84, 129536.18, 50291.73, 15464.28, 12126.69, 29513.98, 84722.81, 69526.15, 0.00, 0.00, 0.00
197, 96659.69, 129537.23, 50295.78, 15475.70, 12128.55, 29531.77, 84715.03, 69523.63, 0.00, 0.00, 0.00
198, 96666.69, 129538.28, 50291.11, 15473.93, 12177.36, 29537.56, 84713.73, 69531.24, 0.08, -0.13, 1.00
199, 96679.09, 129537.43, 50290.84, 15472.86, 12189.37, 29537.40, 84721.22, 69540.09, 0.00, 0.00, 0.00
200, 96678.42, 129538.39, 50294.30, 15477.71, 12167.42, 29538.12, 84727.80, 69535.72, 0.00, 0.00, 0.00
201, 96678.98, 129541.48, 50296.21, 15481.53, 12138.20, 29537.14, 84725.58, 69530.69, 0.00, 0.00, 0.00
202, 96685.04, 129543.29, 50297.86, 15483.34, 12130.94, 29540.80, 84723.70, 69533.55, 0.00, 0.00, 0.00
203, 96686.20, 129548.18, 50298.00, 15486.56, 12156.17, 29548.31, 84725.42, 69536.45, 0.00, 0.00, 0.00
204, 96688.34, 129551.51, 50294.02, 15485.36, 12180.56, 29548.96, 84727.21, 69536.61, 0.00, 0.00, 0.00
205, 96695.70, 129556.34, 50296.41, 15488.57, 12180.29, 29553.79, 84730.03, 69541.44, 0.00, 0.00, 0.00
206, 96692.88, 129558.59, 50296.52, 15490.03, 12151.66, 29555.89, 84728.33, 69538.76, 0.00, 0.00, 0.00
207, 96694.02, 129565.50, 50295.96, 15490.00, 12113.95, 29556.25, 84726.68, 69538.33, 0.08, -0.13, 1.00
208, 96699.19, 129567.83, 50299.38, 15495.93, 12142.99, 29564.70, 84728.04, 69541.04, 0.00, 0.00, 0.00
209, 96703.34, 129570.40, 50301.73, 15501.27, 12174.19, 29561.59, 84728.24, 69545.64, 0.00, 0.00, 0.00
210, 96703.23, 129570.80, 50297.04, 15508.27, 12137.89, 29561.34, 84728.11, 69545.39, 0.00, 0.00, 0.00
211, 96707.97, 129579.59, 50299.76, 15513.45, 12124.10, 29575.71, 84734.05, 69546.96, 0.00, 0.00, 0.00
212, 96711.41, 129587.32, 50302.22, 15516.09, 12172.38, 29582.98, 84736.78, 69549.33, 0.00, 0.00, 0.00
213, 96710.32, 129589.27, 50304.43, 15519.02, 12213.64, 29588.90, 84737.92, 69548.81, 0.00, 0.00, 0.00
214, 96711.21, 129589.80, 50310.76, 15522.53, 12206.53, 29596.41, 84738.08, 69547.36, 0.00, 0.00, 0.00
215, 96706.20, 129590.67, 50312.12, 15522.06, 12195.54, 29587.47, 84732.17, 69540.95, 0.00, 0.00, 0.00
216, 96701.82, 129588.01, 50314.47, 15519.46, 12152.82, 29576.16, 84724.84, 69535.83, 0.00, 0.00, 0.00
217, 96707.41, 129591.66, 50319.95, 15525.75, 12122.29, 29579.02, 84729.41, 69539.27, 0.08, -0.13, 1.00
218, 96713.55, 129596.26, 50322.34, 15529.90, 12191.92, 29596.10, 84737.63, 69544.73, 0.00, 0.00, 0.00
219, 96715.19, 129603.21, 50324.14, 15533.30, 12252.69, 29609.64, 84740.22, 69546.83, 0.00, 0.00, 0.00
220, 96720.69, 129621.09, 50329.93, 15539.96, 12248.44, 29608.64, 84746.81, 69553.55, 0.00, 0.00, 0.00
221, 96722.92, 129618.84, 50328.91, 15542.42, 12221.22, 29607.16, 84749.23, 69556.59, 0.00, 0.00, 0.00
222, 96723.95, 129604.59, 50324.04, 15540.59, 12183.47, 29601.84, 84750.50, 69559.32, 0.00, 0.00, 0.00
223, 96726.27, 129607.32, 50326.20, 15544.54, 12192.52, 29596.12, 84755.09, 69563.08, 0.00, 0.00, 0.00
224, 96729.77, 129614.63, 50325.87, 15543.51, 12221.22, 29605.29, 84764.25, 69567.55, 0.00, 0.00, 0.00
225, 96737.79, 129621.23, 50326.65, 15541.97, 12226.36, 29603.50, 84769.75, 69572.28, 0.00, 0.00, 0.00
226, 96736.02, 129620.63, 50324.97, 15538.15, 12190.04, 29610.67, 84760.83, 69570.67, 0.00, 0.00, 0.00
227, 96735.55, 129622.97, 50324.17, 15537.57, 12141.49, 29607.66, 84758.91, 69565.45, 0.07, -0.13, 0.99
228, 96735.28, 129624.00, 50324.48, 15538.42, 12163.77, 29603.83, 84752.42, 69558.52, 0.00, 0.00, 0.00
229, 96732.85, 129631.59, 50330.67, 15542.40, 12202.40, 29608.46, 84748.40, 69552.44, 0.00, 0.00, 0.00
230, 96730.39, 129643.45, 50335.32, 15545.46, 12180.87, 29614.50, 84747.89, 69550.18, 0.00, 0.00, 0.00
231, 96731.73, 129646.35, 50335.93, 15547.60, 12158.88, 29618.43, 84752.02, 69550.38, 0.00, 0.00, 0.00
232, 96733.14, 129639.91, 50332.75, 15548.86, 12135.81, 29619.73, 84750.16, 69548.48, 0.00, 0.00, 0.00
233, 96731.98, 129640.45, 50338.00, 15557.46, 12167.15, 29635.95, 84750.70, 69548.55, 0.00, 0.00, 0.00
234, 96729.70, 129649.03, 50339.03, 15563.14, 12188.03, 29630.66, 84749.16, 69545.95, 0.00, 0.00, 0.00
235, 96729.85, 129655.54, 50345.80, 15568.95, 12218.98, 29634.84, 84747.89, 69545.69, 0.00, 0.00, 0.00
236, 96732.38, 129655.83, 50353.65, 15575.77, 12211.83, 29649.01, 84751.42, 69547.16, 0.00, 0.00, 0.00
237, 96734.57, 129645.63, 50353.65, 15578.63, 12210.96, 29656.25, 84753.52, 69549.84, 0.07, -0.13, 0.99
238, 96736.29, 129642.86, 50355.30, 15581.31, 12220.95, 29649.16, 84752.73, 69546.89, 0.00, 0.00, 0.00
239, 96738.28, 129652.05, 50357.83, 15584.60, 12249.40, 29649.83, 84753.84, 69543.77, 0.00, 0.00, 0.00
240, 96736.67, 129665.21, 50362.34, 15587.32, 12216.39, 29648.22, 84753.07, 69541.51, 0.00, 0.00, 0.00
241, 96735.93, 129681.11, 50366.44, 15584.51, 12141.29, 29639.28, 84749.05, 69536.63, 0.00, 0.00, 0.00
242, 96737.85, 129685.27, 50369.95, 15588.98, 12132.15, 29645.59, 84750.62, 69538.58, 0.00, 0.00, 0.00
243, 96736.42, 129668.43, 50371.33, 15595.82, 12184.09, 29652.18, 84750.08, 69537.05, 0.00, 0.00, 0.00
244, 96737.14, 129656.03, 50371.87, 15596.20, 12205.84, 29653.46, 84746.16, 69535.78, 0.00, 0.00, 0.00
245, 96739.77, 129660.56, 50377.93, 15598.21, 12226.69, 29664.88, 84753.01, 69541.70, 0.00, 0.00, 0.00
246, 96737.99, 129664.95, 50380.03, 15601.16, 12188.25, 29657.54, 84749.79, 69541.48, 0.00, 0.00, 0.00
247, 96735.24, 129672.59, 50382.13, 15606.37, 12177.65, 29662.17, 84749.90, 69540.01, 0.08, -0.13, 0.99
248, 96733.43, 129679.74, 50385.37, 15607.98, 12204.70, 29663.63, 84751.87, 69537.41, 0.00, 0.00, 0.00
249, 96732.42, 129682.31, 50384.03, 15606.90, 12245.09, 29655.98, 84751.27, 69535.52, 0.00, 0.00, 0.00
250, 96733.67, 129682.73, 50382.15, 15600.49, 12250.77, 29648.72, 84750.57, 69535.58, 0.00, 0.00, 0.00
251, 96741.41, 129688.35, 50384.74, 15609.74, 12221.20, 29651.13, 84754.46, 69551.67, 0.00, 0.00, 0.00
252, 96746.80, 129697.02, 50390.84, 15615.58, 12199.00, 29655.20, 84752.29, 69556.80, 0.00, 0.00, 0.00
253, 96730.66, 129700.27, 50399.25, 15622.66, 12260.18, 29661.97, 84744.78, 69527.31, 0.00, 0.00, 0.00
254, 96730.12, 129707.15, 50407.45, 15623.44, 12273.37, 29662.75, 84747.10, 69524.25, 0.00, 0.00, 0.00
255, 96737.20, 129711.59, 50404.52, 15619.11, 12241.80, 29659.67, 84747.02, 69527.18, 0.00, 0.00, 0.00
0, 96747.96, 129715.62, 50399.74, 15617.21, 12194.28, 29658.62, 84749.01, 69531.88, 0.00, 0.00, 0.00
1, 96748.98, 129717.00, 50401.42, 15619.58, 12164.89, 29658.53, 84751.20, 69534.11, 0.08, -0.13, 0.99
2, 96744.98, 129714.86, 50400.50, 15624.94, 12182.91, 29655.09, 84749.20, 69529.55, 0.00, 0.00, 0.00
3, 96735.28, 129707.48, 50401.04, 15632.54, 12174.28, 29652.22, 84743.06, 69520.72, 0.00, 0.00, 0.00
4, 96738.84, 129704.17, 50400.93, 15634.11, 12217.04, 29661.72, 84746.16, 69525.59, 0.00, 0.00, 0.00
5, 96738.41, 129703.73, 50403.54, 15636.59, 12231.99, 29667.85, 84749.84, 69527.67, 0.00, 0.00, 0.00
6, 96735.46, 129711.70, 50407.52, 15643.69, 12201.79, 29657.30, 84751.51, 69525.45, 0.00, 0.00, 0.00
7, 96739.02, 129718.05, 50416.64, 15645.42, 12202.15, 29656.58, 84750.10, 69529.39, 0.00, 0.00, 0.00
8, 96738.32, 129720.80, 50416.62, 15646.20, 12229.29, 29656.61, 84750.13, 69529.44, 0.00, 0.00, 0.00
9, 96737.25, 129718.19, 50414.56, 15647.76, 12219.47, 29654.91, 84752.16, 69531.76, 0.00, 0.00, 0.00
10, 96739.42, 129718.27, 50413.96, 15650.11, 12170.50, 29649.03, 84756.09, 69532.88, 0.00, 0.00, 0.00
11, 96741.88, 129719.77, 50413.42, 15655.18, 12160.82, 29647.93, 84756.83, 69533.13, 0.09, -0.13, 1.00
12, 96743.06, 129723.24, 50414.83, 15659.63, 12194.24, 29652.22, 84758.02, 69532.88, 0.00, 0.00, 0.00
13, 96741.43, 129726.41, 50417.73, 15660.44, 12206.13, 29649.14, 84754.37, 69529.21, 0.00, 0.00, 0.00
14, 96744.90, 129730.05, 50420.46, 15666.74, 12188.14, 29651.73, 84758.23, 69532.90, 0.00, 0.00, 0.00
15, 96746.95, 129734.68, 50419.66, 15665.87, 12176.02, 29657.54, 84763.22, 69534.76, 0.00, 0.00, 0.00
16, 96739.29, 129738.10, 50419.70, 15658.76, 12160.98, 29648.22, 84755.33, 69525.55, 0.00, 0.00, 0.00
17, 96740.31, 129744.05, 50422.47, 15666.92, 12184.43, 29657.23, 84757.34, 69526.20, 0.00, 0.00, 0.00
18, 96743.24, 129745.13, 50427.81, 15675.68, 12222.40, 29662.31, 84760.00, 69529.75, 0.00, 0.00, 0.00
19, 96744.96, 129741.27, 50428.46, 15673.80, 12206.29, 29658.78, 84759.53, 69532.52, 0.00, 0.00, 0.00
20, 96739.73, 129737.74, 50425.71, 15668.26, 12174.68, 29657.43, 84755.94, 69528.45, 0.00, 0.00, 0.00
21, 96740.11, 129745.59, 50427.12, 15671.97, 12158.07, 29659.47, 84761.84, 69533.34, 0.08, -0.13, 1.00
22, 96743.42, 129756.59, 50425.63, 15672.98, 12173.61, 29657.25, 84765.84, 69540.09, 0.00, 0.00, 0.00
23, 96740.54, 129740.98, 50425.51, 15672.06, 12202.24, 29650.44, 84762.13, 69535.70, 0.00, 0.00, 0.00
24, 96742.44, 129732.13, 50426.41, 15675.79, 12218.60, 29655.62, 84765.28, 69539.38, 0.00, 0.00, 0.00
25, 96742.39, 129740.16, 50436.96, 15680.51, 12199.31, 29655.71, 84766.93, 69541.95, 0.00, 0.00, 0.00
26, 96738.77, 129743.65, 50439.66, 15680.55, 12188.92, 29653.19, 84769.68, 69539.98, 0.00, 0.00, 0.00
27, 96736.09, 129742.44, 50440.53, 15685.22, 12196.54, 29648.18, 84774.20, 69540.41, 0.00, 0.00, 0.00
28, 96736.98, 129743.96, 50441.02, 15689.09, 12226.43, 29654.15, 84772.99, 69539.70, 0.00, 0.00, 0.00
29, 96739.40, 129748.16, 50447.66, 15694.61, 12245.85, 29661.97, 84776.84, 69540.50, 0.00, 0.00, 0.00
30, 96742.55, 129751.73, 50452.96, 15699.10, 12219.18, 29665.79, 84780.77, 69540.45, 0.00, 0.00, 0.00
31, 96741.50, 129753.28, 50454.50, 15696.98, 12199.87, 29664.07, 84781.33, 69537.64, 0.08, -0.13, 0.99
32, 96741.32, 129754.53, 50454.95, 15696.24, 12226.76, 29657.99, 84779.00, 69537.80, 0.00, 0.00, 0.00
33, 96739.87, 129752.70, 50456.85, 15696.87, 12265.27, 29669.03, 84769.13, 69537.80, 0.00, 0.00, 0.00
34, 96739.60, 129758.53, 50463.11, 15697.21, 12266.37, 29675.31, 84763.58, 69539.47, 0.00, 0.00, 0.00
35, 96736.70, 129760.16, 50464.85, 15697.27, 12211.56, 29669.17, 84764.61, 69542.16, 0.00, 0.00, 0.00
36, 96733.52, 129755.07, 50463.22, 15701.74, 12191.27, 29668.01, 84768.32, 69543.07, 0.00, 0.00, 0.00
37, 96734.41, 129757.02, 50466.30, 15708.13, 12221.29, 29671.36, 84771.31, 69544.39, 0.00, 0.00, 0.00
38, 96739.45, 129758.29, 50468.96, 15712.05, 12253.74, 29672.63, 84773.05, 69550.11, 0.00, 0.00, 0.00
39, 96738.15, 129758.40, 50468.56, 15712.34, 12256.98, 29666.84, 84770.64, 69548.59, 0.00, 0.00, 0.00
40, 96736.34, 129760.05, 50467.13, 15713.25, 12213.48, 29662.84, 84769.73, 69546.58, 0.00, 0.00, 0.00
41, 96739.30, 129766.80, 50473.57, 15719.29, 12200.63, 29661.61, 84772.20, 69548.44, 0.08, -0.13, 0.99
42, 96739.04, 129765.75, 50474.46, 15721.79, 12222.07, 29659.74, 84772.38, 69548.01, 0.00, 0.00, 0.00
43, 96733.61, 129759.05, 50471.91, 15721.12, 12242.14, 29656.16, 84770.13, 69544.08, 0.00, 0.00, 0.00
44, 96724.29, 129755.45, 50468.58, 15718.37, 12225.80, 29649.86, 84767.67, 69538.13, 0.00, 0.00, 0.00
45, 96725.12, 129755.70, 50470.55, 15719.78, 12207.45, 29663.13, 84771.78, 69540.77, 0.00, 0.00, 0.00
46, 96727.69, 129757.04, 50472.07, 15716.83, 12169.70, 29649.95, 84768.67, 69543.41, 0.00, 0.00, 0.00
47, 96725.43, 129762.29, 50470.82, 15715.22, 12183.49, 29644.63, 84763.96, 69541.10, 0.00, 0.00, 0.00
48, 96726.23, 129764.34, 50471.42, 15722.08, 12257.45, 29659.40, 84767.73, 69543.38, 0.00, 0.00, 0.00
49, 96728.35, 129769.62, 50475.63, 15727.04, 12266.59, 29664.74, 84770.98, 69549.06, 0.00, 0.00, 0.00
50, 96731.73, 129776.30, 50477.14, 15728.34, 12205.84, 29660.45, 84769.52, 69552.39, 0.00, 0.00, 0.00
51, 96733.48, 129770.09, 50479.65, 15729.84, 12257.54, 29673.44, 84772.32, 69553.58, 0.08, -0.13, 1.00
52, 96731.35, 129771.16, 50479.38, 15728.63, 12313.33, 29668.50, 84770.89, 69553.69, 0.00, 0.00, 0.00
53, 96728.58, 129769.89, 50476.63, 15724.43, 12329.04, 29662.20, 84769.13, 69552.48, 0.00, 0.00, 0.00
54, 96729.02, 129764.19, 50470.73, 15718.28, 12286.96, 29653.63, 84767.49, 69553.44, 0.00, 0.00, 0.00
55, 96729.09, 129763.90, 50463.84, 15714.64, 12224.68, 29646.66, 84765.37, 69552.32, 0.00, 0.00, 0.00
56, 96731.30, 129765.80, 50463.73, 15719.69, 12244.53, 29659.33, 84768.67, 69556.26, 0.00, 0.00, 0.00
57, 96729.07, 129773.30, 50469.72, 15716.87, 12287.69, 29659.65, 84766.10, 69555.25, 0.00, 0.00, 0.00
58, 96723.26, 129777.95, 50477.25, 15704.25, 12288.34, 29646.17, 84758.39, 69550.22, 0.00, 0.00, 0.00
59, 96720.33, 129769.59, 50481.82, 15706.03, 12286.15, 29647.17, 84759.80, 69544.97, 0.00, 0.00, 0.00
60, 96719.19, 129769.22, 50486.66, 15711.20, 12255.93, 29649.88, 84766.51, 69545.17, 0.00, 0.00, 0.00
61, 96720.33, 129770.11, 50482.60, 15708.65, 12273.75, 29652.70, 84768.16, 69547.12, 0.07, -0.12, 0.99
62, 96723.62, 129769.20, 50482.89, 15717.01, 12307.41, 29657.39, 84772.12, 69548.14, 0.00, 0.00, 0.00
63, 96723.04, 129769.77, 50479.38, 15713.32, 12302.96, 29632.82, 84771.00, 69545.91, 0.00, 0.00, 0.00
64, 96722.12, 129769.84, 50473.01, 15708.51, 12287.31, 29612.80, 84767.02, 69544.81, 0.00, 0.00, 0.00
65, 96720.53, 129776.41, 50471.82, 15708.25, 12235.03, 29605.46, 84766.57, 69546.24, 0.00, 0.00, 0.00
66, 96718.41, 129774.41, 50470.44, 15706.01, 12199.51, 29594.00, 84763.02, 69545.66, 0.00, 0.00, 0.00
67, 96719.21, 129776.46, 50469.41, 15707.08, 12228.44, 29599.68, 84765.32, 69548.21, 0.00, 0.00, 0.00
68, 96717.76, 129782.05, 50475.33, 15708.76, 12267.82, 29607.70, 84767.73, 69549.20, 0.00, 0.00, 0.00
69, 96718.84, 129780.68, 50475.07, 15703.28, 12295.49, 29611.72, 84771.80, 69550.40, 0.00, 0.00, 0.00
70, 96721.65, 129783.55, 50475.36, 15703.58, 12261.43, 29609.56, 84784.70, 69552.26, 0.00, 0.00, 0.00
71, 96717.09, 129788.57, 50473.68, 15701.12, 12228.82, 29603.54, 84776.56, 69546.13, 0.07, -0.13, 0.99
72, 96713.67, 129789.22, 50473.01, 15696.62, 12261.29, 29604.66, 84765.48, 69541.08, 0.00, 0.00, 0.00
73, 96715.99, 129778.85, 50472.76, 15701.16, 12333.18, 29608.01, 84763.09, 69541.28, 0.00, 0.00, 0.00
74, 96713.85, 129779.77, 50466.19, 15697.32, 12314.31, 29602.74, 84761.30, 69540.45, 0.00, 0.00, 0.00
75, 96714.03, 129787.95, 50465.05, 15695.80, 12278.46, 29597.93, 84762.17, 69541.59, 0.00, 0.00, 0.00
76, 96711.21, 129781.00, 50468.29, 15695.24, 12256.44, 29591.67, 84761.77, 69540.27, 0.00, 0.00, 0.00
77, 96707.59, 129777.17, 50467.62, 15690.97, 12306.45, 29602.20, 84762.53, 69537.19, 0.00, 0.00, 0.00
78, 96705.78, 129780.08, 50469.21, 15690.50, 12353.38, 29606.58, 84766.55, 69537.59, 0.00, 0.00, 0.00
79, 96705.35, 129781.91, 50469.59, 15688.98, 12327.97, 29603.07, 84769.10, 69539.16, 0.00, 0.00, 0.00
80, 96706.67, 129785.91, 50468.74, 15689.31, 12306.16, 29604.86, 84771.73, 69539.20, 0.00, 0.00, 0.00
81, 96710.67, 129790.07, 50470.64, 15689.61, 12322.83, 29608.37, 84773.26, 69543.72, 0.07, -0.13, 0.99
82, 96708.98, 129787.55, 50465.61, 15684.22, 12345.49, 29597.38, 84763.49, 69541.48, 0.00, 0.00, 0.00
83, 96708.46, 129784.64, 50461.30, 15679.32, 12367.11, 29586.24, 84756.83, 69539.63, 0.00, 0.00, 0.00
84, 96709.47, 129789.40, 50458.08, 15678.32, 12382.33, 29585.73, 84754.44, 69539.02, 0.00, 0.00, 0.00
85, 96705.84, 129798.05, 50461.05, 15679.84, 12388.32, 29605.89, 84756.60, 69535.91, 0.00, 0.00, 0.00
86, 96706.45, 129805.65, 50466.19, 15677.02, 12377.17, 29605.18, 84757.27, 69535.09, 0.00, 0.00, 0.00
87, 96705.24, 129807.10, 50466.08, 15673.80, 12404.57, 29597.87, 84754.21, 69532.90, 0.00, 0.00, 0.00
88, 96701.89, 129799.95, 50463.06, 15674.67, 12403.41, 29592.68, 84754.48, 69529.10, 0.00, 0.00, 0.00
89, 96697.95, 129791.59, 50460.20, 15669.87, 12384.52, 29591.21, 84760.96, 69525.75, 0.00, 0.00, 0.00
90, 96696.19, 129789.53, 50459.38, 15659.77, 12341.58, 29581.04, 84761.95, 69526.02, 0.00, 0.00, 0.00
91, 96700.59, 129794.81, 50460.96, 15656.90, 12303.72, 29576.83, 84751.64, 69532.66, 0.07, -0.12, 0.99
92, 96704.84, 129801.78, 50462.28, 15666.74, 12374.39, 29590.85, 84751.35, 69538.58, 0.00, 0.00, 0.00
93, 96703.99, 129807.77, 50459.24, 15669.00, 12455.53, 29603.50, 84755.91, 69539.70, 0.00, 0.00, 0.00
94, 96703.30, 129799.39, 50459.04, 15661.96, 12420.64, 29590.65, 84752.52, 69538.20, 0.00, 0.00, 0.00
95, 96700.30, 129791.39, 50459.17, 15656.10, 12366.84, 29577.77, 84746.97, 69535.34, 0.00, 0.00, 0.00
96, 96699.55, 129798.38, 50452.98, 15647.81, 12339.71, 29574.51, 84743.41, 69533.21, 0.00, 0.00, 0.00
97, 96698.63, 129814.30, 50465.19, 15669.80, 12369.68, 29574.96, 84745.14, 69533.23, 0.00, 0.00, 0.00
98, 96696.86, 129808.45, 50465.63, 15669.40, 12412.91, 29588.10, 84746.86, 69531.67, 0.00, 0.00, 0.00
99, 96682.78, 129798.95, 50459.71, 15648.32, 12366.68, 29568.47, 84731.13, 69517.59, 0.00, 0.00, 0.00
100, 96677.75, 129802.70, 50458.08, 15637.53, 12324.42, 29556.65, 84725.31, 69512.49, 0.00, 0.00, 0.00
101, 96684.39, 129803.05, 50458.79, 15642.78, 12378.42, 29567.60, 84732.63, 69520.02, 0.07, -0.13, 0.99
102, 96690.80, 129800.24, 50456.13, 15648.50, 12414.02, 29570.96, 84739.64, 69525.79, 0.00, 0.00, 0.00
103, 96696.62, 129800.73, 50454.88, 15646.67, 12437.49, 29573.66, 84743.38, 69533.44, 0.00, 0.00, 0.00
104, 96699.52, 129804.17, 50455.02, 15639.56, 12428.84, 29575.18, 84740.02, 69538.91, 0.00, 0.00, 0.00
105, 96696.37, 129810.23, 50451.71, 15634.46, 12392.61, 29571.54, 84731.48, 69536.59, 0.00, 0.00, 0.00
106, 96696.52, 129822.37, 50449.25, 15634.60, 12386.91, 29570.33, 84730.56, 69536.84, 0.00, 0.00, 0.00
107, 96690.63, 129817.54, 50451.73, 15631.89, 12407.32, 29567.24, 84727.21, 69533.05, 0.00, 0.00, 0.00
108, 96675.41, 129796.15, 50439.41, 15616.09, 12402.56, 29554.95, 84722.79, 69518.48, 0.00, 0.00, 0.00
109, 96685.44, 129795.03, 50437.40, 15610.26, 12403.68, 29553.43, 84724.20, 69528.66, 0.00, 0.00, 0.00
110, 96691.52, 129796.28, 50435.93, 15604.67, 12356.83, 29545.45, 84717.96, 69533.66, 0.00, 0.00, 0.00
111, 96680.68, 129802.48, 50439.01, 15608.40, 12375.47, 29558.46, 84721.96, 69530.44, 0.08, -0.13, 0.98
112, 96679.14, 129810.92, 50445.47, 15615.73, 12455.89, 29578.13, 84737.41, 69532.20, 0.00, 0.00, 0.00
113, 96683.72, 129817.95, 50446.39, 15615.38, 12472.00, 29579.22, 84737.67, 69531.45, 0.00, 0.00, 0.00
114, 96675.20, 129823.51, 50445.49, 15609.09, 12445.99, 29575.40, 84727.37, 69523.34, 0.00, 0.00, 0.00
115, 96664.02, 129825.21, 50446.16, 15604.58, 12411.72, 29572.16, 84724.20, 69513.81, 0.00, 0.00, 0.00
116, 96657.50, 129818.41, 50440.62, 15596.42, 12411.66, 29564.23, 84715.63, 69507.22, 0.00, 0.00, 0.00
117, 96659.36, 129817.56, 50441.92, 15595.19, 12466.44, 29569.30, 84721.87, 69510.44, 0.00, 0.00, 0.00
118, 96658.20, 129816.09, 50436.78, 15589.92, 12483.31, 29567.85, 84722.23, 69511.45, 0.00, 0.00, 0.00
119, 96658.33, 129818.73, 50427.95, 15581.09, 12458.91, 29557.12, 84713.29, 69510.05, 0.00, 0.00, 0.00
120, 96657.48, 129817.67, 50426.96, 15575.81, 12428.37, 29555.85, 84709.53, 69509.63, 0.00, 0.00, 0.00
121, 96651.60, 129803.77, 50426.05, 15574.23, 12419.05, 29554.95, 84708.66, 69505.56, 0.08, -0.13, 0.99
122, 96653.92, 129805.20, 50425.96, 15575.46, 12444.89, 29554.12, 84711.23, 69506.63, 0.00, 0.00, 0.00
123, 96659.98, 129815.77, 50430.29, 15572.71, 12451.96, 29552.22, 84712.86, 69508.73, 0.00, 0.00, 0.00
124, 96657.03, 129812.11, 50426.94, 15565.62, 12454.35, 29556.02, 84709.48, 69505.72, 0.00, 0.00, 0.00
125, 96654.35, 129811.13, 50421.49, 15561.33, 12426.54, 29554.68, 84706.83, 69505.20, 0.00, 0.00, 0.00
126, 96650.75, 129815.30, 50418.80, 15558.00, 12408.44, 29551.58, 84703.48, 69502.73, 0.00, 0.00, 0.00
127, 96648.78, 129812.52, 50410.69, 15550.09, 12417.71, 29545.00, 84696.86, 69500.09, 0.00, 0.00, 0.00
128, 96650.95, 129806.77, 50403.29, 15543.80, 12423.10, 29540.91, 84698.29, 69503.30, 0.00, 0.00, 0.00
129, 96656.36, 129809.79, 50402.76, 15543.02, 12438.70, 29546.81, 84716.04, 69512.54, 0.00, 0.00, 0.00
130, 96655.55, 129811.33, 50398.40, 15536.23, 12413.98, 29547.96, 84712.39, 69515.29, 0.00, 0.00, 0.00
131, 96655.96, 129816.63, 50392.88, 15523.17, 12373.79, 29536.00, 84705.93, 69517.32, 0.07, -0.14, 0.99
132, 96660.52, 129821.81, 50401.37, 15533.59, 12424.80, 29550.10, 84717.49, 69523.73, 0.00, 0.00, 0.00
133, 96658.35, 129815.73, 50404.12, 15540.68, 12511.46, 29558.97, 84719.50, 69522.62, 0.00, 0.00, 0.00
134, 96655.87, 129813.92, 50397.06, 15532.88, 12510.36, 29556.58, 84718.63, 69522.82, 0.00, 0.00, 0.00
135, 96656.38, 129816.36, 50397.10, 15532.14, 12458.15, 29555.67, 84717.49, 69523.22, 0.00, 0.00, 0.00
136, 96656.72, 129817.09, 50391.63, 15527.26, 12436.33, 29555.46, 84719.10, 69524.95, 0.00, 0.00, 0.00
137, 96656.49, 129822.48, 50388.16, 15525.21, 12448.54, 29548.71, 84716.69, 69525.52, 0.00, 0.00, 0.00
138, 96657.05, 129829.21, 50380.72, 15521.03, 12438.92, 29540.85, 84713.96, 69524.77, 0.00, 0.00, 0.00
139, 96654.35, 129823.78, 50384.36, 15515.31, 12461.72, 29545.56, 84713.31, 69518.41, 0.00, 0.00, 0.00
140, 96645.14, 129804.47, 50382.42, 15496.15, 12440.82, 29530.61, 84702.40, 69505.02, 0.00, 0.00, 0.00
141, 96645.16, 129806.21, 50387.38, 15499.73, 12423.30, 29529.02, 84701.62, 69503.64, 0.07, -0.13, 0.99
142, 96644.72, 129812.69, 50387.38, 15514.55, 12480.07, 29537.94, 84705.80, 69504.78, 0.00, 0.00, 0.00
143, 96646.88, 129821.85, 50385.34, 15516.80, 12534.99, 29551.31, 84711.92, 69508.63, 0.00, 0.00, 0.00
144, 96645.85, 129824.09, 50376.98, 15508.38, 12526.99, 29545.81, 84711.45, 69511.62, 0.00, 0.00, 0.00
145, 96643.30, 129820.52, 50379.24, 15502.68, 12475.65, 29538.97, 84707.72, 69512.05, 0.00, 0.00, 0.00
146, 96639.04, 129814.99, 50371.71, 15494.59, 12439.73, 29531.15, 84701.51, 69506.63, 0.00, 0.00, 0.00
147, 96640.87, 129812.00, 50367.62, 15489.49, 12480.99, 29534.92, 84705.30, 69507.27, 0.00, 0.00, 0.00
148, 96639.28, 129813.09, 50361.47, 15485.09, 12518.05, 29535.39, 84712.26, 69506.28, 0.00, 0.00, 0.00
149, 96640.52, 129819.66, 50359.04, 15484.53, 12512.24, 29537.03, 84715.50, 69509.32, 0.00, 0.00, 0.00
150, 96643.80, 129819.11, 50358.21, 15483.72, 12467.83, 29536.04, 84715.61, 69514.80, 0.00, 0.00, 0.00
151, 96645.43, 129823.22, 50364.98, 15487.43, 12454.39, 29534.43, 84716.82, 69516.36, 0.08, -0.13, 0.99
152, 96645.72, 129825.92, 50356.51, 15481.00, 12488.72, 29533.47, 84716.59, 69520.61, 0.00, 0.00, 0.00
153, 96647.89, 129817.20, 50347.68, 15472.30, 12502.51, 29528.08, 84715.08, 69529.86, 0.00, 0.00, 0.00
154, 96638.21, 129815.69, 50348.40, 15470.09, 12474.93, 29526.83, 84711.41, 69515.76, 0.00, 0.00, 0.00
155, 96631.80, 129824.98, 50348.82, 15467.81, 12472.29, 29534.59, 84712.80, 69503.40, 0.00, 0.00, 0.00
156, 96631.15, 129828.09, 50342.96, 15462.67, 12461.57, 29528.84, 84709.58, 69500.94, 0.00, 0.00, 0.00
157, 96636.31, 129814.28, 50342.03, 15459.38, 12476.27, 29520.93, 84707.77, 69504.40, 0.00, 0.00, 0.00
158, 96644.45, 129811.17, 50338.86, 15455.29, 12503.90, 29515.43, 84707.54, 69509.66, 0.00, 0.00, 0.00
159, 96650.57, 129818.05, 50335.10, 15453.06, 12485.10, 29512.59, 84707.09, 69515.13, 0.00, 0.00, 0.00
160, 96647.38, 129826.39, 50339.75, 15459.38, 12469.41, 29518.56, 84712.57, 69517.14, 0.00, 0.00, 0.00
161, 96635.17, 129825.09, 50332.68, 15453.12, 12448.13, 29513.71, 84709.15, 69508.16, 0.08, -0.13, 0.99
162, 96633.65, 129820.34, 50328.46, 15447.20, 12506.56, 29513.55, 84709.42, 69509.88, 0.00, 0.00, 0.00
163, 96634.26, 129824.60, 50334.07, 15450.98, 12570.13, 29520.35, 84712.69, 69513.16, 0.00, 0.00, 0.00
164, 96630.55, 129825.50, 50335.95, 15444.59, 12557.19, 29515.30, 84707.43, 69512.27, 0.00, 0.00, 0.00
165, 96627.62, 129816.55, 50329.60, 15438.48, 12499.30, 29502.25, 84702.73, 69510.68, 0.00, 0.00, 0.00
166, 96632.04, 129818.84, 50327.48, 15436.87, 12492.30, 29504.32, 84710.16, 69514.05, 0.00, 0.00, 0.00
167, 96636.71, 129821.30, 50331.84, 15439.38, 12529.25, 29515.16, 84721.36, 69522.22, 0.00, 0.00, 0.00
168, 96636.94, 129818.01, 50332.17, 15436.70, 12545.21, 29517.29, 84724.82, 69526.64, 0.00, 0.00, 0.00
169, 96637.79, 129815.09, 50325.64, 15426.23, 12511.70, 29508.48, 84724.15, 69527.70, 0.00, 0.00, 0.00
170, 96635.26, 129814.95, 50319.56, 15416.96, 12478.93, 29501.96, 84721.40, 69527.85, 0.00, 0.00, 0.00
171, 96634.70, 129815.44, 50314.80, 15409.07, 12494.47, 29498.83, 84716.71, 69524.49, 0.08, -0.13, 0.99
172, 96633.43, 129815.51, 50312.08, 15406.92, 12510.70, 29488.41, 84712.91, 69521.77, 0.00, 0.00, 0.00
173, 96633.05, 129812.31, 50312.84, 15412.71, 12521.87, 29492.34, 84719.23, 69522.30, 0.00, 0.00, 0.00
174, 96632.76, 129812.31, 50310.85, 15409.31, 12507.19, 29492.43, 84720.38, 69519.65, 0.00, 0.00, 0.00
175, 96629.25, 129815.87, 50311.29, 15406.57, 12482.17, 29485.79, 84717.18, 69518.62, 0.00, 0.00, 0.00
176, 96622.88, 129805.59, 50303.25, 15403.86, 12493.86, 29487.22, 84713.89, 69514.66, 0.00, 0.00, 0.00
177, 96623.28, 129802.55, 50302.67, 15405.78, 12515.03, 29498.78, 84714.74, 69516.67, 0.00, 0.00, 0.00
178, 96623.77, 129809.96, 50302.38, 15405.47, 12530.72, 29495.07, 84715.37, 69519.02, 0.00, 0.00, 0.00
179, 96623.44, 129815.48, 50301.17, 15402.16, 12548.69, 29498.13, 84713.40, 69519.82, 0.00, 0.00, 0.00
180, 96626.01, 129817.32, 50302.91, 15399.84, 12522.23, 29498.83, 84715.03, 69522.82, 0.00, 0.00, 0.00
181, 96628.80, 129824.88, 50302.00, 15400.78, 12514.09, 29504.32, 84716.26, 69524.96, 0.09, -0.13, 0.99
182, 96624.53, 129831.69, 50295.58, 15393.53, 12512.98, 29497.66, 84714.20, 69520.77, 0.00, 0.00, 0.00
183, 96619.75, 129829.86, 50284.50, 15380.77, 12521.42, 29489.68, 84716.22, 69517.92, 0.00, 0.00, 0.00
184, 96622.54, 129842.17, 50283.38, 15375.65, 12535.26, 29493.93, 84722.25, 69520.05, 0.00, 0.00, 0.00
185, 96623.15, 129856.05, 50293.95, 15392.06, 12520.89, 29486.44, 84714.98, 69522.88, 0.00, 0.00, 0.00
186, 96617.83, 129862.83, 50295.27, 15389.80, 12521.31, 29477.26, 84704.75, 69518.69, 0.00, 0.00, 0.00
187, 96621.36, 129868.17, 50294.87, 15386.47, 12586.51, 29490.71, 84707.25, 69522.28, 0.00, 0.00, 0.00
188, 96620.13, 129868.93, 50288.76, 15381.33, 12592.50, 29481.46, 84700.66, 69520.34, 0.00, 0.00, 0.00
189, 96619.39, 129872.84, 50287.58, 15373.66, 12580.79, 29475.65, 84698.58, 69518.48, 0.00, 0.00, 0.00
190, 96620.35, 129878.30, 50287.76, 15370.40, 12531.95, 29466.88, 84702.18, 69519.98, 0.00, 0.00, 0.00
191, 96619.26, 129876.30, 50283.62, 15367.67, 12511.32, 29461.92, 84697.55, 69519.94, 0.07, -0.13, 0.99
192, 96617.36, 129872.02, 50280.54, 15366.40, 12547.17, 29462.79, 84695.38, 69520.77, 0.00, 0.00, 0.00
193, 96614.95, 129868.21, 50283.22, 15361.66, 12568.99, 29457.10, 84697.26, 69522.53, 0.00, 0.00, 0.00
194, 96620.38, 129870.16, 50271.04, 15358.62, 12514.67, 29445.45, 84698.87, 69528.20, 0.00, 0.00, 0.00
195, 96620.69, 129874.38, 50265.23, 15356.97, 12491.79, 29448.20, 84699.66, 69528.36, 0.00, 0.00, 0.00
196, 96617.71, 129874.83, 50265.25, 15355.85, 12522.14, 29452.76, 84696.30, 69524.52, 0.00, 0.00, 0.00
197, 96612.35, 129874.27, 50267.84, 15347.24, 12543.46, 29440.60, 84684.30, 69519.22, 0.00, 0.00, 0.00
198, 96607.43, 129881.96, 50272.04, 15345.17, 12553.90, 29436.35, 84678.27, 69515.47, 0.00, 0.00, 0.00
199, 96606.49, 129882.65, 50271.91, 15342.15, 12529.31, 29435.08, 84679.07, 69514.95, 0.00, 0.00, 0.00
200, 96602.98, 129867.72, 50256.22, 15330.82, 12495.94, 29430.52, 84676.41, 69512.85, 0.00, 0.00, 0.00
201, 96605.69, 129862.49, 50251.08, 15329.18, 12475.27, 29427.48, 84679.83, 69517.23, 0.07, -0.13, 0.99
202, 96604.86, 129866.23, 50254.83, 15331.42, 12505.40, 29431.61, 84683.29, 69518.86, 0.00, 0.00, 0.00
203, 96598.78, 129865.55, 50241.94, 15321.23, 12560.21, 29429.78, 84680.50, 69512.16, 0.00, 0.00, 0.00
204, 96602.42, 129873.02, 50243.72, 15322.92, 12554.17, 29426.16, 84681.33, 69516.85, 0.00, 0.00, 0.00
205, 96603.34, 129880.33, 50247.19, 15324.74, 12511.75, 29421.13, 84677.48, 69517.61, 0.00, 0.00, 0.00
206, 96603.43, 129891.37, 50252.44, 15324.18, 12508.68, 29418.11, 84674.62, 69516.49, 0.00, 0.00, 0.00
207, 96598.60, 129879.10, 50242.65, 15317.83, 12545.39, 29418.05, 84670.33, 69511.69, 0.00, 0.00, 0.00
208, 96597.73, 129872.19, 50242.52, 15318.95, 12567.96, 29414.25, 84666.39, 69510.59, 0.00, 0.00, 0.00
209, 96594.29, 129870.00, 50233.15, 15306.27, 12556.41, 29410.40, 84661.95, 69507.95, 0.00, 0.00, 0.00
210, 96595.16, 129863.77, 50225.24, 15297.00, 12544.85, 29413.29, 84663.11, 69508.27, 0.00, 0.00, 0.00
211, 96601.53, 129861.82, 50223.88, 15295.30, 12537.72, 29413.40, 84668.27, 69514.37, 0.07, -0.14, 0.99
212, 96597.11, 129860.30, 50222.00, 15297.22, 12546.57, 29405.28, 84667.00, 69512.41, 0.00, 0.00, 0.00
213, 96596.70, 129856.68, 50220.95, 15291.74, 12557.68, 29405.51, 84663.48, 69511.64, 0.00, 0.00, 0.00
214, 96595.09, 129858.16, 50222.36, 15283.97, 12553.79, 29402.53, 84660.23, 69511.02, 0.00, 0.00, 0.00
215, 96597.28, 129867.41, 50222.67, 15289.15, 12562.19, 29408.72, 84658.33, 69514.46, 0.00, 0.00, 0.00
216, 96596.68, 129875.86, 50228.77, 15299.05, 12571.00, 29405.28, 84655.28, 69516.29, 0.00, 0.00, 0.00
217, 96589.02, 129866.42, 50220.97, 15286.31, 12576.16, 29397.39, 84650.95, 69508.91, 0.00, 0.00, 0.00
218, 96591.63, 129858.96, 50213.66, 15280.90, 12592.62, 29392.97, 84654.55, 69510.19, 0.00, 0.00, 0.00
219, 96592.66, 129851.74, 50208.16, 15279.23, 12559.40, 29386.22, 84654.68, 69510.91, 0.00, 0.00, 0.00
220, 96590.22, 129851.56, 50205.05, 15279.94, 12495.54, 29376.76, 84650.50, 69509.23, 0.00, 0.00, 0.00
221, 96589.04, 129849.57, 50199.51, 15275.81, 12477.82, 29375.53, 84648.13, 69508.13, 0.07, -0.13, 0.99
222, 96587.25, 129850.31, 50203.27, 15268.16, 12534.43, 29377.90, 84645.12, 69507.62, 0.00, 0.00, 0.00
223, 96589.08, 129858.45, 50212.61, 15270.62, 12600.59, 29385.90, 84645.36, 69510.95, 0.00, 0.00, 0.00
224, 96585.04, 129861.17, 50206.04, 15270.17, 12577.86, 29380.09, 84638.92, 69510.34, 0.00, 0.00, 0.00
225, 96582.17, 129863.67, 50197.46, 15266.04, 12519.70, 29372.18, 84634.45, 69508.31, 0.00, 0.00, 0.00
226, 96583.54, 129870.60, 50197.70, 15267.54, 12535.37, 29376.88, 84636.35, 69508.89, 0.00, 0.00, 0.00
227, 96587.34, 129863.56, 50195.45, 15267.65, 12564.88, 29376.72, 84635.75, 69509.81, 0.00, 0.00, 0.00
228, 96584.27, 129852.30, 50188.00, 15256.43, 12577.95, 29370.24, 84631.05, 69506.16, 0.00, 0.00, 0.00
229, 96584.88, 129852.92, 50187.15, 15248.23, 12561.08, 29354.25, 84627.19, 69507.59, 0.00, 0.00, 0.00
230, 96584.86, 129850.13, 50180.67, 15244.92, 12515.84, 29362.01, 84629.18, 69509.79, 0.00, 0.00, 0.00
231, 96585.04, 129851.98, 50176.54, 15245.88, 12494.51, 29370.28, 84632.82, 69514.48, 0.07, -0.13, 1.00
232, 96585.44, 129860.13, 50176.78, 15244.76, 12524.51, 29372.34, 84635.70, 69515.48, 0.00, 0.00, 0.00
233, 96578.62, 129858.11, 50174.10, 15237.52, 12570.38, 29368.38, 84627.30, 69507.91, 0.00, 0.00, 0.00
234, 96578.04, 129853.62, 50170.59, 15230.50, 12550.26, 29365.38, 84622.27, 69508.16, 0.00, 0.00, 0.00
235, 96579.20, 129852.25, 50168.62, 15229.27, 12512.75, 29360.94, 84619.55, 69510.75, 0.00, 0.00, 0.00
236, 96579.59, 129853.75, 50167.57, 15228.82, 12526.90, 29355.97, 84619.39, 69510.75, 0.00, 0.00, 0.00
237, 96577.84, 129854.94, 50163.86, 15225.00, 12545.85, 29352.49, 84620.37, 69508.71, 0.00, 0.00, 0.00
238, 96579.74, 129856.16, 50158.90, 15218.21, 12535.24, 29343.95, 84620.04, 69509.79, 0.00, 0.00, 0.00
239, 96579.31, 129856.16, 50160.89, 15218.32, 12540.76, 29350.81, 84618.92, 69509.50, 0.00, 0.00, 0.00
240, 96572.56, 129851.41, 50158.41, 15215.14, 12517.29, 29343.01, 84609.58, 69504.71, 0.00, 0.00, 0.00
241, 96572.45, 129857.57, 50160.06, 15218.94, 12511.75, 29340.33, 84608.75, 69507.55, 0.07, -0.13, 0.99
242, 96567.13, 129855.23, 50147.70, 15210.54, 12506.52, 29328.19, 84600.30, 69500.96, 0.00, 0.00, 0.00
243, 96565.77, 129854.60, 50143.93, 15206.41, 12531.53, 29329.13, 84601.44, 69503.73, 0.00, 0.00, 0.00
244, 96560.63, 129852.30, 50139.66, 15201.62, 12525.13, 29331.21, 84599.95, 69502.70, 0.00, 0.00, 0.00
245, 96555.87, 129853.82, 50139.50, 15191.52, 12486.94, 29327.34, 84595.94, 69496.38, 0.00, 0.00, 0.00
246, 96556.25, 129847.63, 50141.62, 15190.02, 12487.16, 29325.78, 84595.47, 69496.17, 0.00, 0.00, 0.00
247, 96555.84, 129846.38, 50144.64, 15202.61, 12533.87, 29331.68, 84597.08, 69494.84, 0.00, 0.00, 0.00
248, 96553.85, 129849.80, 50138.92, 15199.03, 12536.13, 29325.13, 84595.70, 69493.45, 0.00, 0.00, 0.00
249, 96554.93, 129849.84, 50133.15, 15194.92, 12471.83, 29313.75, 84592.77, 69495.51, 0.00, 0.00, 0.00
250, 96558.88, 129850.02, 50138.40, 15197.55, 12466.71, 29325.11, 84599.25, 69499.13, 0.00, 0.00, 0.00
251, 96554.19, 129847.90, 50132.99, 15186.15, 12507.39, 29330.76, 84592.88, 69492.89, 0.07, -0.13, 0.99
252, 96547.09, 129846.02, 50123.52, 15182.02, 12541.05, 29323.01, 84586.77, 69486.97, 0.00, 0.00, 0.00
253, 96560.23, 129847.72, 50122.98, 15187.05, 12545.05, 29318.00, 84586.51, 69497.80, 0.00, 0.00, 0.00
254, 96561.45, 129843.83, 50118.89, 15168.85, 12486.09, 29300.30, 84573.63, 69497.30, 0.00, 0.00, 0.00
255, 96537.36, 129846.55, 50122.54, 15165.23, 12458.44, 29304.54, 84575.16, 69475.74, 0.00, 0.00, 0.00
0, 96535.08, 129853.05, 50124.50, 15175.47, 12501.42, 29321.64, 84585.99, 69475.05, 0.00, 0.00, 0.00
1, 96536.06, 129851.80, 50122.78, 15173.68, 12524.98, 29317.08, 84586.71, 69477.13, 0.00, 0.00, 0.00
2, 96526.74, 129847.54, 50111.89, 15163.29, 12527.28, 29309.15, 84580.18, 69464.99, 0.00, 0.00, 0.00
3, 96531.59, 129849.91, 50109.48, 15160.32, 12491.45, 29304.57, 84576.49, 69463.16, 0.00, 0.00, 0.00
4, 96534.12, 129853.04, 50112.48, 15160.45, 12478.40, 29307.92, 84578.57, 69468.08, 0.00, 0.00, 0.00
5, 96535.30, 129858.80, 50113.70, 15161.37, 12491.96, 29308.46, 84580.77, 69471.73, 0.07, -0.12, 0.97
6, 96534.01, 129854.89, 50108.54, 15154.93, 12516.04, 29308.66, 84575.87, 69470.47, 0.00, 0.00, 0.00
7, 96533.31, 129846.06, 50105.70, 15151.08, 12521.85, 29301.88, 84567.73, 69468.86, 0.00, 0.00, 0.00
8, 96534.48, 129846.71, 50099.02, 15145.72, 12474.60, 29299.13, 84568.38, 69468.57, 0.00, 0.00, 0.00
9, 96530.52, 129849.51, 50096.49, 15141.81, 12440.98, 29298.96, 84569.97, 69466.56, 0.00, 0.00, 0.00
10, 96527.44, 129851.07, 50093.63, 15137.45, 12470.17, 29298.46, 84567.42, 69465.60, 0.00, 0.00, 0.00
11, 96529.83, 129851.13, 50090.91, 15139.48, 12517.60, 29301.26, 84567.58, 69469.02, 0.00, 0.00, 0.00
12, 96534.01, 129854.58, 50093.59, 15140.49, 12537.56, 29312.26, 84574.39, 69474.72, 0.00, 0.00, 0.00
13, 96533.88, 129853.21, 50091.96, 15137.32, 12514.76, 29311.14, 84575.66, 69475.95, 0.00, 0.00, 0.00
14, 96530.54, 129846.48, 50085.77, 15134.72, 12462.42, 29301.21, 84570.59, 69471.99, 0.00, 0.00, 0.00
15, 96531.23, 129847.78, 50081.65, 15127.64, 12462.21, 29296.88, 84569.14, 69471.48, 0.08, -0.13, 0.98
16, 96535.84, 129846.84, 50078.93, 15122.72, 12512.33, 29302.11, 84569.59, 69474.67, 0.00, 0.00, 0.00
17, 96538.50, 129844.25, 50079.30, 15120.84, 12540.69, 29303.49, 84569.25, 69476.77, 0.00, 0.00, 0.00
18, 96537.72, 129851.92, 50081.70, 15126.18, 12516.13, 29298.84, 84569.43, 69477.40, 0.00, 0.00, 0.00
19, 96536.48, 129854.27, 50080.82, 15125.54, 12471.89, 29294.22, 84570.84, 69477.47, 0.00, 0.00, 0.00
20, 96534.12, 129849.33, 50081.00, 15121.11, 12460.69, 29291.58, 84564.60, 69475.55, 0.00, 0.00, 0.00
21, 96533.83, 129850.48, 50079.39, 15118.52, 12494.85, 29292.21, 84563.87, 69477.06, 0.00, 0.00, 0.00
22, 96535.84, 129850.80, 50072.22, 15109.17, 12514.47, 29292.61, 84564.56, 69482.27, 0.00, 0.00, 0.00
23, 96537.05, 129853.98, 50070.99, 15108.79, 12528.35, 29299.20, 84566.44, 69485.23, 0.00, 0.00, 0.00
24, 96531.73, 129854.04, 50069.54, 15111.54, 12497.73, 29293.50, 84561.25, 69479.81, 0.00, 0.00, 0.00
25, 96531.88, 129856.10, 50064.84, 15112.77, 12483.25, 29283.44, 84556.11, 69478.36, 0.08, -0.13, 0.98
26, 96530.27, 129855.65, 50060.82, 15106.78, 12527.10, 29288.27, 84554.66, 69478.52, 0.00, 0.00, 0.00
27, 96526.30, 129853.80, 50063.01, 15097.91, 12532.44, 29283.78, 84550.32, 69473.53, 0.00, 0.00, 0.00
28, 96526.32, 129847.20, 50061.29, 15092.66, 12499.70, 29275.42, 84546.34, 69471.30, 0.00, 0.00, 0.00
29, 96523.86, 129844.14, 50053.06, 15089.06, 12474.71, 29269.16, 84541.70, 69468.17, 0.00, 0.00, 0.00
30, 96526.36, 129844.66, 50045.66, 15084.61, 12430.27, 29256.89, 84539.81, 69468.73, 0.00, 0.00, 0.00
31, 96532.80, 129854.96, 50048.53, 15090.85, 12463.56, 29266.55, 84545.88, 69475.50, 0.00, 0.00, 0.00
32, 96529.73, 129853.53, 50047.86, 15093.64, 12530.75, 29267.46, 84542.37, 69473.82, 0.00, 0.00, 0.00
33, 96528.53, 129848.27, 50050.72, 15092.19, 12555.00, 29277.74, 84541.91, 69473.16, 0.00, 0.00, 0.00
34, 96530.92, 129851.31, 50049.22, 15087.29, 12518.07, 29273.47, 84543.70, 69477.40, 0.00, 0.00, 0.00
35, 96524.17, 129850.69, 50046.07, 15082.91, 12499.25, 29264.96, 84537.80, 69473.38, 0.07, -0.13, 0.99
36, 96518.56, 129848.74, 50043.27, 15082.26, 12519.66, 29258.50, 84532.10, 69467.30, 0.00, 0.00, 0.00
37, 96515.03, 129848.81, 50042.38, 15083.36, 12550.15, 29259.51, 84529.84, 69464.33, 0.00, 0.00, 0.00
38, 96518.95, 129851.09, 50041.55, 15080.74, 12524.44, 29262.99, 84534.14, 69466.78, 0.00, 0.00, 0.00
39, 96514.49, 129849.02, 50038.69, 15080.74, 12493.40, 29258.01, 84533.60, 69464.97, 0.00, 0.00, 0.00
40, 96512.20, 129853.30, 50038.63, 15079.98, 12489.86, 29261.03, 84532.17, 69463.36, 0.00, 0.00, 0.00
41, 96512.98, 129861.10, 50038.71, 15081.21, 12518.00, 29262.43, 84525.27, 69465.80, 0.00, 0.00, 0.00
42, 96511.45, 129860.50, 50037.73, 15081.26, 12537.65, 29262.88, 84528.21, 69461.91, 0.00, 0.00, 0.00
43, 96509.20, 129854.00, 50033.13, 15077.86, 12521.87, 29259.30, 84524.55, 69460.37, 0.00, 0.00, 0.00
44, 96505.33, 129850.29, 50030.94, 15071.76, 12485.97, 29259.97, 84514.27, 69457.53, 0.00, 0.00, 0.00
45, 96504.39, 129847.38, 50026.02, 15062.68, 12507.59, 29259.19, 84511.72, 69455.95, 0.08, -0.13, 1.00
46, 96507.07, 129850.55, 50026.06, 15074.53, 12524.26, 29255.77, 84514.24, 69458.85, 0.00, 0.00, 0.00
47, 96509.48, 129851.80, 50025.13, 15076.00, 12553.75, 29263.08, 84516.93, 69462.13, 0.00, 0.00, 0.00
48, 96508.84, 129847.00, 50015.83, 15064.87, 12539.66, 29254.28, 84512.55, 69463.20, 0.00, 0.00, 0.00
49, 96510.34, 129848.16, 50016.61, 15065.37, 12522.77, 29252.20, 84519.19, 69466.45, 0.00, 0.00, 0.00
50, 96507.01, 129845.88, 50015.31, 15064.27, 12514.70, 29247.46, 84523.48, 69463.95, 0.00, 0.00, 0.00
51, 96506.63, 129848.41, 50017.08, 15059.96, 12565.50, 29255.82, 84511.70, 69464.39, 0.00, 0.00, 0.00
52, 96507.07, 129847.78, 50011.89, 15058.75, 12593.67, 29254.92, 84507.80, 69462.98, 0.00, 0.00, 0.00
53, 96510.20, 129850.42, 50009.66, 15065.08, 12568.14, 29258.50, 84518.60, 69467.97, 0.00, 0.00, 0.00
54, 96509.76, 129850.38, 50008.92, 15064.02, 12541.12, 29257.72, 84520.91, 69470.94, 0.00, 0.00, 0.00
55, 96504.16, 129848.86, 50002.26, 15060.11, 12529.69, 29246.83, 84513.58, 69465.87, 0.07, -0.14, 1.00
56, 96500.81, 129849.62, 50002.39, 15058.08, 12559.13, 29243.30, 84509.95, 69461.40, 0.00, 0.00, 0.00
57, 96497.55, 129849.28, 50002.26, 15053.63, 12606.03, 29246.21, 84507.90, 69459.79, 0.00, 0.00, 0.00
58, 96502.13, 129856.08, 49996.07, 15051.17, 12584.43, 29244.87, 84513.17, 69463.48, 0.00, 0.00, 0.00
59, 96506.85, 129865.27, 49994.57, 15060.31, 12542.37, 29243.14, 84514.29, 69468.05, 0.00, 0.00, 0.00
60, 96498.89, 129850.09, 49987.75, 15044.65, 12530.19, 29235.32, 84497.33, 69459.36, 0.00, 0.00, 0.00
61, 96495.25, 129838.40, 49981.49, 15032.75, 12567.20, 29241.69, 84489.05, 69454.24, 0.00, 0.00, 0.00
62, 96495.74, 129838.24, 49985.61, 15040.24, 12585.84, 29226.09, 84485.43, 69453.71, 0.00, 0.00, 0.00
63, 96498.69, 129845.19, 49994.77, 15044.20, 12568.43, 29235.43, 84486.53, 69454.38, 0.00, 0.00, 0.00
64, 96501.20, 129847.90, 49988.09, 15038.16, 12572.63, 29244.22, 84487.09, 69457.98, 0.00, 0.00, 0.00
65, 96498.83, 129846.60, 49980.15, 15031.50, 12565.95, 29234.61, 84483.96, 69455.90, 0.08, -0.12, 0.99
66, 96500.30, 129849.48, 49982.41, 15036.76, 12594.49, 29241.58, 84492.85, 69459.16, 0.00, 0.00, 0.00
67, 96504.73, 129853.64, 49988.20, 15044.06, 12625.70, 29250.45, 84505.84, 69464.46, 0.00, 0.00, 0.00
68, 96498.60, 129848.97, 49978.36, 15039.66, 12589.13, 29237.15, 84488.01, 69460.37, 0.00, 0.00, 0.00
69, 96495.88, 129846.45, 49972.08, 15032.02, 12536.78, 29226.49, 84470.81, 69456.32, 0.00, 0.00, 0.00
70, 96495.00, 129847.67, 49969.00, 15027.55, 12522.41, 29221.73, 84472.07, 69456.66, 0.00, 0.00, 0.00
71, 96497.28, 129853.66, 49973.56, 15037.36, 12580.97, 29231.79, 84479.64, 69461.98, 0.00, 0.00, 0.00
72, 96495.52, 129849.66, 49970.09, 15034.86, 12630.30, 29236.82, 84477.14, 69461.09, 0.00, 0.00, 0.00
73, 96492.77, 129844.59, 49964.82, 15032.84, 12567.96, 29225.96, 84473.85, 69458.00, 0.00, 0.00, 0.00
74, 96493.46, 129841.44, 49961.51, 15027.57, 12532.26, 29218.15, 84474.28, 69457.95, 0.08, -0.13, 0.99
75, 96493.26, 129846.71, 49962.20, 15025.89, 12556.38, 29212.86, 84472.76, 69457.91, 0.00, 0.00, 0.00
76, 96490.89, 129853.69, 49960.98, 15026.74, 12618.45, 29219.45, 84470.99, 69457.02, 0.00, 0.00, 0.00
77, 96494.45, 129847.00, 49957.51, 15025.00, 12640.56, 29215.70, 84472.11, 69458.96, 0.00, 0.00, 0.00
78, 96495.25, 129841.46, 49951.23, 15021.24, 12598.83, 29197.90, 84473.37, 69462.58, 0.00, 0.00, 0.00
79, 96494.45, 129840.25, 49943.27, 15015.43, 12560.03, 29201.17, 84475.91, 69464.62, 0.00, 0.00, 0.00
80, 96494.13, 129842.82, 49941.64, 15013.51, 12553.30, 29147.72, 84475.76, 69464.03, 0.00, 0.00, 0.00
81, 96492.45, 129845.37, 49947.16, 15015.52, 12601.87, 29108.81, 84472.31, 69460.70, 0.00, 0.00, 0.00
82, 96485.52, 129842.04, 49944.90, 15010.63, 12591.52, 29095.78, 84463.73, 69454.71, 0.00, 0.00, 0.00
83, 96484.01, 129840.79, 49942.13, 15010.96, 12546.15, 29094.44, 84463.80, 69455.88, 0.00, 0.00, 0.00
84, 96481.08, 129840.01, 49937.21, 15003.41, 12528.00, 29092.07, 84457.88, 69453.08, 0.08, -0.13, 0.99
85, 96483.18, 129843.42, 49936.32, 14999.67, 12520.22, 29086.03, 84457.47, 69454.16, 0.00, 0.00, 0.00
86, 96486.64, 129849.28, 49935.43, 14995.90, 12523.53, 29082.81, 84460.66, 69458.53, 0.00, 0.00, 0.00
87, 96489.05, 129850.40, 49936.93, 14997.66, 12542.86, 29088.96, 84464.98, 69462.65, 0.00, 0.00, 0.00
88, 96487.25, 129846.38, 49931.36, 14999.90, 12533.65, 29084.45, 84464.87, 69459.74, 0.00, 0.00, 0.00
89, 96485.26, 129851.43, 49933.91, 14999.72, 12488.37, 29080.65, 84458.03, 69457.64, 0.00, 0.00, 0.00
90, 96482.15, 129853.80, 49930.75, 14995.61, 12480.32, 29079.35, 84454.25, 69455.65, 0.00, 0.00, 0.00
91, 96481.26, 129859.85, 49930.93, 14994.69, 12528.96, 29089.48, 84455.26, 69454.27, 0.00, 0.00, 0.00
92, 96482.84, 129862.47, 49929.84, 14990.71, 12517.07, 29082.52, 84452.33, 69454.87, 0.00, 0.00, 0.00
93, 96483.24, 129854.09, 49926.73, 14996.54, 12509.56, 29081.50, 84449.67, 69452.63, 0.00, 0.00, 0.00
94, 96485.26, 129859.14, 49927.34, 14998.96, 12498.22, 29079.35, 84450.56, 69455.72, 0.08, -0.13, 0.99
95, 96482.15, 129859.14, 49923.71, 14994.62, 12488.46, 29076.56, 84446.81, 69455.09, 0.00, 0.00, 0.00
96, 96480.14, 129853.62, 49920.38, 14990.11, 12513.91, 29073.67, 84444.73, 69453.41, 0.00, 0.00, 0.00
97, 96482.33, 129854.80, 49921.73, 14986.31, 12514.65, 29076.20, 84450.85, 69458.63, 0.00, 0.00, 0.00
98, 96477.32, 129851.77, 49914.15, 14976.03, 12529.52, 29080.15, 84447.99, 69456.34, 0.00, 0.00, 0.00
99, 96485.13, 129858.47, 49914.33, 14987.27, 12521.20, 29089.39, 84457.63, 69466.45, 0.00, 0.00, 0.00
100, 96488.86, 129857.33, 49910.17, 14983.71, 12532.91, 29088.09, 84458.55, 69466.36, 0.00, 0.00, 0.00
101, 96485.23, 129856.55, 49904.69, 14978.57, 12565.39, 29084.02, 84455.93, 69462.42, 0.00, 0.00, 0.00
102, 96486.42, 129860.01, 49905.48, 14979.56, 12585.57, 29084.33, 84449.05, 69461.35, 0.00, 0.00, 0.00
103, 96484.21, 129862.94, 49904.80, 14974.51, 12569.46, 29081.59, 84440.53, 69457.77, 0.00, 0.00, 0.00
104, 96478.33, 129862.96, 49904.05, 14962.30, 12521.63, 29075.73, 84432.91, 69451.72, 0.07, -0.13, 0.98
105, 96478.42, 129864.77, 49903.38, 14963.02, 12530.10, 29071.75, 84429.13, 69453.59, 0.00, 0.00, 0.00
106, 96479.83, 129867.52, 49901.79, 14965.14, 12597.91, 29075.44, 84430.56, 69455.70, 0.00, 0.00, 0.00
107, 96481.03, 129868.95, 49899.60, 14963.00, 12629.67, 29075.04, 84431.41, 69459.23, 0.00, 0.00, 0.00
108, 96484.74, 129871.14, 49896.18, 14960.67, 12609.54, 29078.59, 84438.00, 69466.90, 0.00, 0.00, 0.00
109, 96491.47, 129874.77, 49893.72, 14958.03, 12584.03, 29084.71, 84446.25, 69475.57, 0.00, 0.00, 0.00
110, 96494.24, 129877.53, 49891.13, 14955.73, 12551.31, 29083.22, 84446.52, 69478.43, 0.00, 0.00, 0.00
111, 96492.95, 129877.45, 49885.76, 14952.09, 12577.46, 29080.74, 84438.59, 69477.29, 0.00, 0.00, 0.00
112, 96483.49, 129877.31, 49884.96, 14949.43, 12604.37, 29067.95, 84426.65, 69466.83, 0.00, 0.00, 0.00
113, 96476.85, 129876.53, 49883.70, 14947.80, 12576.63, 29069.92, 84424.41, 69460.57, 0.00, 0.00, 0.00
114, 96484.03, 129874.20, 49886.14, 14956.24, 12555.47, 29055.48, 84426.20, 69466.38, 0.07, -0.13, 0.98
115, 96479.34, 129872.91, 49888.49, 14955.51, 12537.85, 29058.70, 84425.58, 69464.16, 0.00, 0.00, 0.00
116, 96474.46, 129872.13, 49883.46, 14941.40, 12525.09, 29061.42, 84419.25, 69458.00, 0.00, 0.00, 0.00
117, 96473.77, 129874.63, 49884.80, 14938.81, 12567.02, 29061.11, 84416.37, 69457.91, 0.00, 0.00, 0.00
118, 96473.50, 129879.59, 49885.94, 14939.39, 12568.01, 29060.13, 84415.98, 69459.56, 0.00, 0.00, 0.00
119, 96471.69, 129875.66, 49883.50, 14941.43, 12505.44, 29047.95, 84410.60, 69456.39, 0.00, 0.00, 0.00
120, 96469.66, 129874.20, 49882.34, 14937.94, 12555.53, 29059.79, 84409.15, 69452.66, 0.00, 0.00, 0.00
121, 96470.91, 129879.57, 49882.52, 14940.40, 12640.96, 29069.96, 84412.23, 69452.10, 0.00, 0.00, 0.00
122, 96471.80, 129879.43, 49876.89, 14933.96, 12615.12, 29061.56, 84422.23, 69454.09, 0.00, 0.00, 0.00
123, 96471.55, 129881.42, 49878.09, 14940.20, 12576.68, 29059.81, 84426.91, 69455.95, 0.00, 0.00, 0.00
124, 96474.95, 129886.02, 49880.22, 14943.57, 12606.54, 29069.58, 84424.34, 69464.48, 0.08, -0.13, 0.98
125, 96471.45, 129883.55, 49876.42, 14935.19, 12605.69, 29063.50, 84420.41, 69464.39, 0.00, 0.00, 0.00
126, 96467.91, 129884.26, 49877.20, 14943.33, 12597.87, 29061.42, 84422.34, 69463.05, 0.00, 0.00, 0.00
127, 96468.02, 129887.86, 49877.00, 14940.20, 12606.92, 29058.96, 84421.22, 69464.28, 0.00, 0.00, 0.00
128, 96463.73, 129886.27, 49872.20, 14931.86, 12581.04, 29052.77, 84417.48, 69461.91, 0.00, 0.00, 0.00
129, 96462.44, 129884.30, 49871.75, 14932.06, 12567.02, 29057.83, 84417.30, 69460.41, 0.00, 0.00, 0.00
130, 96463.06, 129886.32, 49872.89, 14931.72, 12595.83, 29062.32, 84418.69, 69458.70, 0.00, 0.00, 0.00
131, 96463.66, 129887.21, 49867.72, 14925.85, 12656.92, 29064.49, 84416.68, 69456.99, 0.00, 0.00, 0.00
132, 96465.59, 129884.53, 49866.72, 14926.96, 12673.19, 29063.95, 84421.28, 69458.58, 0.00, 0.00, 0.00
133, 96462.77, 129882.49, 49864.48, 14924.17, 12623.91, 29060.69, 84425.30, 69455.14, 0.00, 0.00, 0.00
134, 96461.92, 129882.63, 49862.05, 14920.39, 12578.91, 29062.47, 84417.55, 69454.34, 0.08, -0.13, 0.98
135, 96459.27, 129881.49, 49860.21, 14920.73, 12593.51, 29068.17, 84411.98, 69455.34, 0.00, 0.00, 0.00
136, 96458.30, 129880.55, 49855.36, 14914.33, 12600.01, 29056.73, 84408.37, 69455.67, 0.00, 0.00, 0.00
137, 96460.80, 129882.80, 49854.02, 14911.50, 12616.91, 29057.47, 84408.21, 69457.40, 0.00, 0.00, 0.00
138, 96459.35, 129884.10, 49853.13, 14911.14, 12574.51, 29055.37, 84408.72, 69459.12, 0.00, 0.00, 0.00
139, 96462.13, 129886.05, 49854.47, 14913.31, 12581.57, 29071.10, 84416.10, 69465.69, 0.00, 0.00, 0.00
140, 96458.34, 129885.67, 49856.70, 14914.20, 12626.48, 29066.23, 84413.91, 69462.20, 0.00, 0.00, 0.00
141, 96454.10, 129886.16, 49854.43, 14911.45, 12675.41, 29063.14, 84414.78, 69459.23, 0.00, 0.00, 0.00
142, 96455.55, 129884.06, 49850.80, 14911.72, 12713.07, 29065.74, 84417.64, 69459.20, 0.00, 0.00, 0.00
143, 96455.06, 129883.73, 49850.16, 14906.51, 12681.87, 29060.13, 84414.96, 69458.71, 0.00, 0.00, 0.00
144, 96453.66, 129882.12, 49850.13, 14901.77, 12638.08, 29052.73, 84409.15, 69455.85, 0.08, -0.13, 0.99
145, 96458.26, 129879.99, 49847.23, 14901.80, 12652.43, 29058.74, 84411.36, 69461.98, 0.00, 0.00, 0.00
146, 96459.98, 129884.44, 49844.66, 14902.78, 12671.27, 29060.40, 84415.14, 69462.70, 0.00, 0.00, 0.00
147, 96456.98, 129886.20, 49842.93, 14899.87, 12649.32, 29060.84, 84413.64, 69458.52, 0.00, 0.00, 0.00
148, 96453.88, 129885.09, 49838.42, 14895.36, 12614.52, 29052.44, 84413.80, 69456.23, 0.00, 0.00, 0.00
149, 96449.63, 129888.06, 49839.61, 14892.32, 12582.40, 29046.31, 84410.76, 69451.49, 0.00, 0.00, 0.00
150, 96446.19, 129890.43, 49845.95, 14893.50, 12588.66, 29043.21, 84408.55, 69449.05, 0.00, 0.00, 0.00
151, 96442.59, 129885.52, 49842.06, 14884.94, 12614.99, 29038.18, 84405.64, 69448.56, 0.00, 0.00, 0.00
152, 96441.23, 129888.95, 49843.58, 14882.68, 12620.60, 29035.05, 84401.48, 69449.02, 0.00, 0.00, 0.00
153, 96442.77, 129889.98, 49843.90, 14883.09, 12592.59, 29029.37, 84397.68, 69449.62, 0.00, 0.00, 0.00
154, 96444.73, 129884.46, 49835.00, 14879.42, 12578.64, 29027.90, 84397.48, 69453.30, 0.08, -0.13, 0.98
155, 96442.88, 129884.17, 49832.81, 14875.49, 12575.90, 29027.90, 84395.96, 69451.88, 0.00, 0.00, 0.00
156, 96441.98, 129885.67, 49832.23, 14870.35, 12607.39, 29024.99, 84393.73, 69451.07, 0.00, 0.00, 0.00
157, 96442.03, 129888.22, 49829.77, 14868.22, 12599.23, 29025.93, 84396.16, 69451.96, 0.00, 0.00, 0.00
158, 96442.19, 129890.38, 49829.82, 14863.08, 12554.59, 29027.56, 84402.38, 69454.09, 0.00, 0.00, 0.00
159, 96445.45, 129891.50, 49828.83, 14857.27, 12537.34, 29032.66, 84416.08, 69458.29, 0.00, 0.00, 0.00
160, 96443.95, 129891.99, 49828.27, 14867.33, 12557.81, 29032.86, 84411.52, 69454.83, 0.00, 0.00, 0.00
161, 96448.42, 129894.01, 49829.39, 14871.58, 12587.47, 29030.89, 84403.85, 69459.30, 0.00, 0.00, 0.00
162, 96445.00, 129891.93, 49823.58, 14865.09, 12585.13, 29022.87, 84398.55, 69454.42, 0.00, 0.00, 0.00
163, 96440.91, 129890.07, 49817.12, 14853.76, 12507.79, 28998.71, 84388.09, 69450.38, 0.00, 0.00, 0.00
164, 96439.13, 129891.10, 49813.79, 14848.29, 12494.71, 29002.30, 84386.41, 69450.35, 0.08, -0.13, 0.98
165, 96443.10, 129896.27, 49817.07, 14853.61, 12564.23, 29026.76, 84393.39, 69455.79, 0.00, 0.00, 0.00
166, 96440.91, 129893.42, 49811.98, 14848.00, 12595.99, 29019.36, 84392.48, 69452.81, 0.00, 0.00, 0.00
167, 96444.76, 129903.75, 49817.07, 14852.24, 12610.14, 29021.35, 84401.10, 69456.03, 0.00, 0.00, 0.00
168, 96441.96, 129902.32, 49809.77, 14849.25, 12581.44, 29016.59, 84396.52, 69453.46, 0.00, 0.00, 0.00
169, 96436.11, 129891.97, 49803.04, 14840.31, 12528.46, 29001.46, 84383.76, 69448.74, 0.00, 0.00, 0.00
170, 96438.48, 129888.20, 49801.79, 14842.65, 12537.56, 29001.74, 84383.38, 69452.55, 0.00, 0.00, 0.00
171, 96439.10, 129890.52, 49801.65, 14846.50, 12597.24, 29007.49, 84387.51, 69453.57, 0.00, 0.00, 0.00
172, 96440.24, 129890.81, 49800.54, 14843.48, 12609.02, 29004.92, 84386.39, 69450.35, 0.00, 0.00, 0.00
173, 96443.46, 129889.36, 49798.32, 14831.63, 12577.53, 28995.11, 84380.16, 69448.73, 0.00, 0.00, 0.00
174, 96443.41, 129892.77, 49804.69, 14828.86, 12524.49, 28989.85, 84381.74, 69453.71, 0.08, -0.12, 0.99
175, 96441.54, 129894.45, 49803.77, 14833.24, 12510.63, 28991.06, 84384.94, 69453.08, 0.00, 0.00, 0.00
176, 96426.52, 129896.73, 49807.53, 14838.56, 12562.71, 29002.57, 84390.64, 69439.96, 0.00, 0.00, 0.00
177, 96422.98, 129894.27, 49803.77, 14835.81, 12603.59, 29005.61, 84388.18, 69436.83, 0.00, 0.00, 0.00
178, 96421.31, 129893.00, 49797.85, 14831.77, 12570.80, 28999.38, 84385.37, 69441.15, 0.00, 0.00, 0.00
179, 96414.07, 129891.52, 49792.00, 14827.16, 12529.67, 28990.41, 84380.02, 69438.40, 0.00, 0.00, 0.00
180, 96406.98, 129892.27, 49792.44, 14828.79, 12546.84, 28984.53, 84375.17, 69430.80, 0.00, 0.00, 0.00
181, 96405.28, 129894.34, 49792.91, 14827.54, 12569.23, 28988.80, 84371.13, 69427.16, 0.00, 0.00, 0.00
182, 96405.93, 129897.02, 49789.54, 14826.16, 12580.01, 28991.93, 84369.74, 69428.90, 0.00, 0.00, 0.00
183, 96407.16, 129894.66, 49785.52, 14820.90, 12539.40, 28981.32, 84369.14, 69432.88, 0.00, 0.00, 0.00
184, 96405.20, 129891.08, 49783.43, 14815.32, 12517.83, 28978.57, 84371.71, 69434.87, 0.07, -0.13, 0.98
185, 96408.84, 129892.76, 49784.31, 14813.75, 12518.50, 28976.64, 84376.24, 69440.34, 0.00, 0.00, 0.00
186, 96406.85, 129893.76, 49784.22, 14819.59, 12529.90, 28988.69, 84374.77, 69438.15, 0.00, 0.00, 0.00
187, 96404.05, 129890.16, 49778.36, 14815.88, 12550.75, 28976.96, 84368.40, 69436.95, 0.00, 0.00, 0.00
188, 96409.98, 129887.48, 49776.62, 14811.72, 12543.33, 28975.06, 84367.75, 69439.70, 0.00, 0.00, 0.00
189, 96412.23, 129891.37, 49776.86, 14810.58, 12553.34, 28983.62, 84367.82, 69440.03, 0.00, 0.00, 0.00
190, 96418.05, 129896.73, 49779.01, 14814.60, 12592.55, 28984.31, 84368.71, 69442.87, 0.00, 0.00, 0.00
191, 96420.82, 129897.34, 49774.56, 14820.79, 12612.06, 28976.31, 84366.14, 69442.94, 0.00, 0.00, 0.00
192, 96410.94, 129899.80, 49770.32, 14808.79, 12602.67, 28963.66, 84359.17, 69435.31, 0.00, 0.00, 0.00
193, 96405.59, 129899.86, 49766.34, 14792.63, 12532.13, 28942.71, 84350.18, 69430.22, 0.00, 0.00, 0.00
194, 96406.96, 129886.67, 49760.70, 14796.43, 12487.49, 28941.33, 84350.43, 69432.32, 0.08, -0.13, 0.98
195, 96395.94, 129883.81, 49781.34, 14798.22, 12535.77, 28931.25, 84335.79, 69420.67, 0.00, 0.00, 0.00
196, 96388.05, 129887.52, 49785.78, 14794.02, 12577.71, 28919.36, 84327.54, 69413.20, 0.00, 0.00, 0.00
197, 96384.38, 129884.62, 49770.65, 14785.86, 12585.24, 28916.99, 84324.99, 69409.18, 0.00, 0.00, 0.00
198, 96384.01, 129887.63, 49766.67, 14783.31, 12544.83, 28913.32, 84324.70, 69409.48, 0.00, 0.00, 0.00
199, 96386.51, 129884.91, 49762.65, 14780.27, 12510.25, 28908.05, 84324.61, 69412.42, 0.00, 0.00, 0.00
200, 96390.33, 129884.44, 49756.46, 14777.54, 12514.16, 28905.52, 84328.57, 69416.76, 0.00, 0.00, 0.00
201, 96388.27, 129886.50, 49758.42, 14778.17, 12553.63, 28908.40, 84331.38, 69418.66, 0.00, 0.00, 0.00
202, 96389.26, 129885.13, 49754.94, 14775.11, 12547.00, 28904.29, 84330.24, 69420.02, 0.00, 0.00, 0.00
203, 96391.80, 129884.51, 49747.23, 14770.66, 12514.76, 28900.38, 84330.54, 69421.09, 0.00, 0.00, 0.00
204, 96392.66, 129889.07, 49745.46, 14769.67, 12498.13, 28901.43, 84327.41, 69419.46, 0.07, -0.13, 0.98
205, 96393.44, 129888.80, 49741.55, 14764.98, 12502.60, 28899.44, 84324.63, 69420.29, 0.00, 0.00, 0.00
206, 96390.98, 129881.40, 49739.96, 14764.40, 12532.53, 28895.57, 84325.57, 69417.90, 0.00, 0.00, 0.00
207, 96391.76, 129876.57, 49738.55, 14763.37, 12547.80, 28896.76, 84320.92, 69415.11, 0.00, 0.00, 0.00
208, 96389.50, 129878.72, 49733.73, 14756.33, 12507.61, 28891.28, 84314.94, 69414.86, 0.00, 0.00, 0.00
209, 96388.92, 129881.63, 49731.76, 14751.73, 12440.33, 28887.59, 84320.74, 69417.12, 0.00, 0.00, 0.00
210, 96390.53, 129875.84, 49728.56, 14752.13, 12450.28, 28892.89, 84323.92, 69418.77, 0.00, 0.00, 0.00
211, 96392.66, 129878.47, 49734.46, 14760.22, 12537.92, 28914.13, 84325.71, 69422.86, 0.00, 0.00, 0.00
212, 96391.94, 129880.88, 49733.01, 14759.44, 12580.08, 28919.20, 84323.59, 69424.13, 0.00, 0.00, 0.00
213, 96390.35, 129878.18, 49730.13, 14757.13, 12551.46, 28912.07, 84322.47, 69423.55, 0.00, 0.00, 0.00
214, 96385.26, 129877.69, 49731.22, 14761.63, 12512.24, 28906.59, 84323.45, 69421.52, 0.08, -0.13, 0.98
215, 96385.21, 129877.51, 49730.17, 14757.58, 12503.77, 28905.21, 84315.54, 69421.21, 0.00, 0.00, 0.00
216, 96385.95, 129877.45, 49730.46, 14755.62, 12557.12, 28916.09, 84310.89, 69421.81, 0.00, 0.00, 0.00
217, 96385.93, 129878.47, 49728.63, 14751.39, 12582.67, 28916.41, 84313.03, 69424.72, 0.00, 0.00, 0.00
218, 96386.30, 129881.22, 49732.50, 14757.87, 12576.12, 28921.95, 84318.51, 69426.59, 0.00, 0.00, 0.00
219, 96386.04, 129881.24, 49729.07, 14766.37, 12532.22, 28915.51, 84319.07, 69427.11, 0.00, 0.00, 0.00
220, 96387.89, 129883.86, 49729.52, 14772.74, 12540.80, 28918.60, 84319.61, 69427.94, 0.00, 0.00, 0.00
221, 96386.04, 129882.72, 49723.78, 14763.19, 12551.17, 28908.63, 84311.70, 69424.70, 0.00, 0.00, 0.00
222, 96379.34, 129883.77, 49728.52, 14755.15, 12570.58, 28911.78, 84302.64, 69416.38, 0.00, 0.00, 0.00
223, 96375.98, 129880.71, 49730.75, 14748.75, 12570.02, 28916.54, 84300.70, 69414.52, 0.00, 0.00, 0.00
224, 96374.15, 129872.39, 49724.32, 14746.63, 12541.88, 28909.83, 84295.29, 69412.49, 0.07, -0.13, 0.98
225, 96376.77, 129870.02, 49718.14, 14742.50, 12537.85, 28905.23, 84291.31, 69413.81, 0.00, 0.00, 0.00
226, 96375.47, 129871.92, 49717.12, 14737.58, 12560.23, 28900.00, 84288.38, 69412.47, 0.00, 0.00, 0.00
227, 96372.31, 129876.05, 49720.89, 14736.93, 12562.37, 28898.93, 84289.84, 69411.15, 0.00, 0.00, 0.00
228, 96374.15, 129876.82, 49722.01, 14737.40, 12529.14, 28896.11, 84295.49, 69415.17, 0.00, 0.00, 0.00
229, 96371.58, 129878.41, 49710.55, 14726.49, 12479.34, 28877.02, 84291.38, 69409.56, 0.00, 0.00, 0.00
230, 96374.21, 129881.55, 49712.49, 14732.30, 12509.56, 28882.61, 84295.53, 69412.98, 0.00, 0.00, 0.00
231, 96370.59, 129868.52, 49708.20, 14733.17, 12542.21, 28897.54, 84292.63, 69410.28, 0.00, 0.00, 0.00
232, 96371.80, 129869.87, 49704.42, 14729.91, 12558.73, 28885.05, 84289.12, 69410.13, 0.00, 0.00, 0.00
233, 96372.34, 129874.38, 49707.42, 14732.30, 12529.47, 28881.27, 84288.54, 69412.40, 0.00, 0.00, 0.00
234, 96372.80, 129877.91, 49705.79, 14729.82, 12498.49, 28876.35, 84288.54, 69416.70, 0.08, -0.13, 0.99
235, 96366.01, 129872.33, 49697.56, 14719.25, 12466.26, 28853.46, 84278.08, 69410.34, 0.00, 0.00, 0.00
236, 96363.75, 129862.13, 49695.59, 14713.84, 12481.46, 28848.63, 84270.63, 69405.63, 0.00, 0.00, 0.00
237, 96364.80, 129863.59, 49694.57, 14716.52, 12566.42, 28866.23, 84273.09, 69407.88, 0.00, 0.00, 0.00
238, 96368.02, 129864.66, 49694.99, 14717.75, 12553.01, 28871.46, 84277.74, 69411.40, 0.00, 0.00, 0.00
239, 96367.73, 129858.67, 49695.73, 14716.63, 12521.20, 28867.93, 84278.03, 69410.84, 0.00, 0.00, 0.00
240, 96366.70, 129856.73, 49692.64, 14715.70, 12527.82, 28865.22, 84273.30, 69409.56, 0.00, 0.00, 0.00
241, 96367.95, 129856.34, 49693.67, 14716.30, 12525.76, 28858.87, 84272.42, 69411.62, 0.00, 0.00, 0.00
242, 96363.64, 129855.12, 49689.22, 14711.00, 12512.57, 28854.38, 84268.69, 69407.62, 0.00, 0.00, 0.00
243, 96361.34, 129861.82, 49689.58, 14713.06, 12514.36, 28866.81, 84270.73, 69405.14, 0.00, 0.00, 0.00
244, 96362.19, 129864.62, 49690.14, 14714.02, 12497.60, 28864.42, 84269.85, 69406.81, 0.08, -0.13, 0.99
245, 96363.38, 129866.00, 49690.05, 14711.54, 12491.81, 28861.15, 84270.01, 69407.41, 0.00, 0.00, 0.00
246, 96363.98, 129869.02, 49688.57, 14710.42, 12532.24, 28857.76, 84273.18, 69408.34, 0.00, 0.00, 0.00
247, 96362.57, 129863.90, 49683.21, 14708.48, 12566.33, 28862.11, 84275.10, 69407.35, 0.00, 0.00, 0.00
248, 96361.83, 129853.95, 49679.19, 14702.89, 12532.78, 28854.51, 84273.65, 69405.16, 0.00, 0.00, 0.00
249, 96362.23, 129853.82, 49679.72, 14694.51, 12463.35, 28850.71, 84271.57, 69404.34, 0.00, 0.00, 0.00
250, 96362.16, 129855.59, 49675.48, 14695.91, 12480.79, 28856.06, 84265.85, 69404.16, 0.00, 0.00, 0.00
251, 96368.96, 129859.79, 49675.97, 14717.75, 12569.75, 28865.73, 84263.64, 69410.21, 0.00, 0.00, 0.00
252, 96369.37, 129856.05, 49673.35, 14715.67, 12588.90, 28861.69, 84261.24, 69409.74, 0.00, 0.00, 0.00
253, 96365.20, 129856.66, 49678.00, 14706.24, 12542.55, 28848.79, 84257.98, 69404.31, 0.00, 0.00, 0.00
254, 96357.61, 129859.90, 49679.41, 14693.17, 12502.81, 28830.96, 84245.87, 69395.70, 0.07, -0.13, 0.99
255, 96362.34, 129871.09, 49687.68, 14698.82, 12520.02, 28837.62, 84251.08, 69399.77, 0.00, 0.00, 0.00
0, 96358.32, 129864.50, 49673.22, 14691.33, 12536.44, 28833.03, 84258.54, 69397.00, 0.00, 0.00, 0.00
1, 96357.30, 129851.13, 49667.54, 14685.74, 12523.41, 28824.43, 84249.69, 69395.05, 0.00, 0.00, 0.00
2, 96359.44, 129845.37, 49665.21, 14682.84, 12482.35, 28823.13, 84236.59, 69395.46, 0.00, 0.00, 0.00
3, 96363.35, 129852.86, 49668.03, 14689.92, 12468.41, 28833.12, 84242.13, 69400.35, 0.00, 0.00, 0.00
4, 96367.17, 129858.06, 49666.49, 14692.99, 12509.58, 28838.31, 84245.22, 69405.54, 0.00, 0.00, 0.00
5, 96366.48, 129857.02, 49666.65, 14691.87, 12531.46, 28830.38, 84246.36, 69404.20, 0.00, 0.00, 0.00
6, 96363.28, 129857.57, 49667.77, 14690.37, 12529.07, 28824.05, 84242.72, 69400.20, 0.00, 0.00, 0.00
7, 96366.39, 129864.93, 49669.55, 14693.48, 12518.61, 28835.04, 84243.21, 69405.16, 0.00, 0.00, 0.00
8, 96366.32, 129867.38, 49667.43, 14690.86, 12518.12, 28841.62, 84246.07, 69405.96, 0.08, -0.13, 0.99
9, 96365.43, 129860.34, 49669.66, 14690.33, 12548.89, 28844.59, 84245.45, 69404.60, 0.00, 0.00, 0.00
10, 96361.09, 129854.65, 49658.06, 14680.47, 12573.10, 28840.21, 84237.84, 69400.40, 0.00, 0.00, 0.00
11, 96364.42, 129863.85, 49657.21, 14685.34, 12544.16, 28836.61, 84234.83, 69401.92, 0.00, 0.00, 0.00
12, 96367.62, 129859.30, 49659.14, 14685.63, 12521.80, 28835.38, 84235.66, 69405.27, 0.00, 0.00, 0.00
13, 96368.18, 129842.98, 49661.46, 14684.74, 12502.16, 28838.31, 84239.48, 69407.04, 0.00, 0.00, 0.00
14, 96367.58, 129841.37, 49660.57, 14685.30, 12514.54, 28843.74, 84239.32, 69405.72, 0.00, 0.00, 0.00
15, 96370.46, 129847.85, 49660.95, 14686.57, 12544.74, 28841.77, 84239.99, 69410.23, 0.00, 0.00, 0.00
16, 96369.12, 129851.20, 49659.96, 14687.46, 12546.88, 28842.76, 84237.77, 69409.79, 0.00, 0.00, 0.00
17, 96364.09, 129850.38, 49657.59, 14679.37, 12512.42, 28841.64, 84230.00, 69402.79, 0.00, 0.00, 0.00
18, 96361.48, 129854.16, 49661.17, 14673.61, 12488.90, 28840.66, 84226.04, 69399.82, 0.08, -0.13, 0.99
19, 96361.72, 129855.45, 49654.91, 14672.67, 12501.78, 28845.01, 84224.74, 69399.08, 0.00, 0.00, 0.00
20, 96360.94, 129852.05, 49656.48, 14675.95, 12528.96, 28843.65, 84225.69, 69399.93, 0.00, 0.00, 0.00
21, 96358.57, 129845.03, 49647.45, 14673.34, 12529.25, 28837.57, 84224.21, 69397.65, 0.00, 0.00, 0.00
22, 96355.33, 129839.18, 49634.53, 14663.93, 12464.72, 28816.61, 84218.82, 69394.74, 0.00, 0.00, 0.00
23, 96350.55, 129843.80, 49642.35, 14658.81, 12429.45, 28800.20, 84209.39, 69388.82, 0.00, 0.00, 0.00
24, 96349.98, 129853.08, 49656.43, 14665.29, 12510.41, 28841.71, 84216.77, 69390.07, 0.00, 0.00, 0.00
25, 96353.98, 129853.73, 49659.20, 14672.15, 12548.49, 28833.64, 84219.65, 69395.15, 0.00, 0.00, 0.00
26, 96352.96, 129852.25, 49657.95, 14673.72, 12570.55, 28826.73, 84218.84, 69394.90, 0.00, 0.00, 0.00
27, 96349.23, 129854.38, 49654.46, 14670.19, 12518.85, 28816.22, 84215.36, 69391.50, 0.00, 0.00, 0.00
28, 96347.05, 129847.29, 49645.68, 14660.62, 12449.50, 28803.48, 84206.15, 69388.51, 0.08, -0.12, 0.99
29, 96351.35, 129845.99, 49643.74, 14657.78, 12495.09, 28814.10, 84214.77, 69396.53, 0.00, 0.00, 0.00
30, 96352.96, 129846.48, 49643.60, 14665.29, 12549.34, 28823.71, 84222.64, 69399.35, 0.00, 0.00, 0.00
31, 96347.99, 129844.81, 49636.63, 14659.03, 12517.89, 28812.13, 84215.88, 69395.33, 0.00, 0.00, 0.00
32, 96347.55, 129841.68, 49639.22, 14656.40, 12505.62, 28826.31, 84225.69, 69396.06, 0.00, 0.00, 0.00
33, 96350.19, 129838.33, 49642.15, 14658.92, 12547.49, 28836.68, 84224.09, 69393.76, 0.00, 0.00, 0.00
34, 96349.65, 129841.05, 49642.08, 14662.61, 12565.35, 28829.46, 84221.26, 69392.87, 0.00, 0.00, 0.00
35, 96348.22, 129842.80, 49642.55, 14664.84, 12582.44, 28828.23, 84225.46, 69394.12, 0.00, 0.00, 0.00
36, 96349.38, 129844.37, 49639.22, 14663.01, 12576.59, 28832.68, 84226.65, 69395.21, 0.00, 0.00, 0.00
37, 96349.34, 129850.31, 49641.28, 14659.12, 12519.32, 28825.61, 84218.98, 69393.98, 0.00, 0.00, 0.00
38, 96342.07, 129852.14, 49641.14, 14655.12, 12497.62, 28808.25, 84205.39, 69386.25, 0.08, -0.12, 0.99
39, 96340.58, 129852.41, 49633.61, 14646.52, 12504.93, 28786.83, 84202.04, 69386.14, 0.00, 0.00, 0.00
40, 96342.99, 129856.77, 49628.61, 14638.76, 12520.58, 28769.82, 84202.66, 69387.91, 0.00, 0.00, 0.00
41, 96344.30, 129844.25, 49633.86, 14651.88, 12557.05, 28772.97, 84203.09, 69388.66, 0.00, 0.00, 0.00
42, 96344.71, 129838.77, 49633.57, 14654.50, 12551.29, 28763.63, 84202.80, 69392.24, 0.00, 0.00, 0.00
43, 96347.84, 129839.70, 49634.68, 14652.60, 12515.90, 28756.08, 84202.44, 69397.45, 0.00, 0.00, 0.00
44, 96347.33, 129845.44, 49636.52, 14656.73, 12522.77, 28750.24, 84202.10, 69397.38, 0.00, 0.00, 0.00
45, 96342.34, 129847.29, 49632.56, 14649.62, 12538.79, 28743.31, 84198.73, 69394.25, 0.00, 0.00, 0.00
46, 96341.23, 129849.98, 49631.18, 14642.36, 12556.27, 28740.05, 84198.57, 69393.78, 0.00, 0.00, 0.00
47, 96343.81, 129853.59, 49637.12, 14642.14, 12529.96, 28732.74, 84195.98, 69395.95, 0.00, 0.00, 0.00
48, 96335.14, 129850.60, 49633.43, 14633.69, 12495.94, 28717.81, 84185.61, 69387.44, 0.08, -0.13, 0.99
49, 96334.07, 129847.85, 49629.01, 14627.92, 12509.67, 28714.01, 84188.78, 69386.52, 0.00, 0.00, 0.00
50, 96335.08, 129844.14, 49623.51, 14628.50, 12524.04, 28703.06, 84183.44, 69386.34, 0.00, 0.00, 0.00
51, 96332.02, 129842.30, 49621.99, 14629.75, 12533.14, 28700.89, 84174.97, 69381.53, 0.00, 0.00, 0.00
52, 96328.62, 129845.95, 49626.37, 14632.95, 12525.81, 28699.33, 84171.37, 69379.05, 0.00, 0.00, 0.00
53, 96329.22, 129850.76, 49630.59, 14634.65, 12508.39, 28687.10, 84167.93, 69376.99, 0.00, 0.00, 0.00
54, 96327.50, 129850.53, 49630.46, 14628.19, 12512.08, 28686.76, 84164.95, 69374.54, 0.00, 0.00, 0.00
55, 96327.05, 129848.45, 49629.10, 14627.43, 12536.67, 28682.76, 84158.70, 69372.93, 0.00, 0.00, 0.00
56, 96322.45, 129844.38, 49621.79, 14628.19, 12527.84, 28673.26, 84151.59, 69368.84, 0.00, 0.00, 0.00
57, 96328.17, 129849.15, 49621.34, 14628.84, 12508.77, 28683.68, 84163.34, 69373.40, 0.00, 0.00, 0.00
58, 96327.45, 129848.25, 49617.32, 14624.72, 12503.01, 28689.83, 84160.51, 69374.49, 0.08, -0.12, 0.99
59, 96333.18, 129853.26, 49621.45, 14629.15, 12514.03, 28688.73, 84161.13, 69380.55, 0.00, 0.00, 0.00
60, 96335.41, 129851.41, 49618.03, 14627.61, 12526.59, 28678.38, 84161.58, 69384.39, 0.00, 0.00, 0.00
61, 96334.96, 129846.71, 49616.58, 14626.06, 12542.70, 28676.79, 84161.18, 69386.90, 0.00, 0.00, 0.00
62, 96337.31, 129847.29, 49617.14, 14626.15, 12518.38, 28675.39, 84161.11, 69390.45, 0.00, 0.00, 0.00
63, 96335.97, 129848.07, 49618.08, 14627.90, 12515.21, 28682.47, 84160.98, 69388.98, 0.00, 0.00, 0.00
64, 96335.75, 129846.55, 49618.50, 14629.53, 12557.46, 28684.06, 84161.29, 69389.16, 0.00, 0.00, 0.00
65, 96337.65, 129852.50, 49620.63, 14630.58, 12587.90, 28679.84, 84160.44, 69389.89, 0.00, 0.00, 0.00
66, 96333.13, 129858.34, 49619.11, 14626.02, 12586.45, 28674.22, 84153.38, 69385.29, 0.00, 0.00, 0.00
67, 96330.85, 129849.95, 49614.59, 14620.16, 12538.75, 28668.30, 84150.63, 69384.66, 0.00, 0.00, 0.00
68, 96331.79, 129857.51, 49616.80, 14618.78, 12505.40, 28665.80, 84148.46, 69385.22, 0.08, -0.13, 0.98
69, 96332.55, 129867.27, 49618.48, 14619.52, 12495.83, 28663.41, 84147.38, 69386.77, 0.00, 0.00, 0.00
70, 96330.67, 129858.49, 49615.35, 14615.11, 12533.70, 28663.00, 84147.77, 69386.09, 0.00, 0.00, 0.00
71, 96334.14, 129852.97, 49615.44, 14617.37, 12560.29, 28667.74, 84151.16, 69390.05, 0.00, 0.00, 0.00
72, 96334.18, 129857.73, 49612.33, 14620.12, 12543.58, 28658.85, 84145.80, 69388.46, 0.00, 0.00, 0.00
73, 96333.18, 129856.55, 49605.70, 14616.14, 12511.52, 28652.77, 84144.21, 69387.50, 0.00, 0.00, 0.00
74, 96334.14, 129857.44, 49611.59, 14617.44, 12510.11, 28655.52, 84147.45, 69391.13, 0.00, 0.00, 0.00
75, 96334.48, 129859.70, 49613.92, 14609.17, 12538.90, 28652.50, 84144.93, 69391.30, 0.00, 0.00, 0.00
76, 96326.54, 129859.70, 49615.20, 14605.21, 12529.90, 28643.40, 84132.77, 69382.07, 0.00, 0.00, 0.00
77, 96326.16, 129859.54, 49616.47, 14605.55, 12496.66, 28646.87, 84135.65, 69381.98, 0.00, 0.00, 0.00
78, 96327.52, 129856.55, 49609.65, 14602.13, 12482.89, 28651.07, 84136.84, 69385.16, 0.08, -0.13, 0.98
79, 96323.56, 129852.52, 49604.06, 14595.53, 12501.20, 28632.49, 84125.88, 69379.66, 0.00, 0.00, 0.00
80, 96329.80, 129852.32, 49600.84, 14596.09, 12523.48, 28649.41, 84131.18, 69385.27, 0.00, 0.00, 0.00
81, 96337.13, 129851.74, 49602.68, 14601.81, 12521.89, 28657.51, 84141.87, 69391.68, 0.00, 0.00, 0.00
82, 96336.53, 129854.87, 49610.23, 14603.02, 12498.89, 28649.08, 84141.48, 69389.67, 0.00, 0.00, 0.00
83, 96340.06, 129866.45, 49608.82, 14600.11, 12488.12, 28650.85, 84141.38, 69395.59, 0.00, 0.00, 0.00
84, 96345.13, 129864.10, 49602.41, 14598.95, 12517.36, 28649.37, 84144.16, 69401.80, 0.00, 0.00, 0.00
85, 96340.22, 129856.63, 49596.73, 14593.54, 12539.15, 28647.18, 84141.09, 69396.04, 0.00, 0.00, 0.00
86, 96345.80, 129860.50, 49599.19, 14595.33, 12539.73, 28650.09, 84144.57, 69400.66, 0.00, 0.00, 0.00
87, 96348.27, 129857.77, 49599.61, 14595.13, 12513.38, 28644.25, 84145.64, 69404.34, 0.00, 0.00, 0.00
88, 96350.84, 129860.63, 49603.01, 14593.72, 12509.56, 28645.17, 84145.17, 69407.93, 0.08, -0.12, 0.99
89, 96350.25, 129863.66, 49603.84, 14591.29, 12506.23, 28638.53, 84144.16, 69409.30, 0.00, 0.00, 0.00
90, 96347.17, 129865.48, 49601.89, 14592.42, 12527.12, 28634.80, 84138.78, 69405.65, 0.00, 0.00, 0.00
91, 96343.97, 129866.29, 49601.07, 14590.91, 12524.26, 28626.68, 84131.25, 69401.34, 0.00, 0.00, 0.00
92, 96342.19, 129870.20, 49602.45, 14589.05, 12521.54, 28629.43, 84129.26, 69399.88, 0.00, 0.00, 0.00
93, 96339.93, 129870.56, 49598.72, 14584.42, 12518.67, 28631.18, 84125.81, 69399.28, 0.00, 0.00, 0.00
94, 96345.29, 129872.64, 49599.10, 14580.58, 12521.92, 28622.01, 84129.52, 69404.29, 0.00, 0.00, 0.00
95, 96346.43, 129874.43, 49597.54, 14585.92, 12516.55, 28620.80, 84130.27, 69406.59, 0.00, 0.00, 0.00
96, 96347.03, 129869.42, 49593.56, 14585.00, 12511.75, 28628.11, 84126.71, 69408.40, 0.00, 0.00, 0.00
97, 96351.02, 129871.34, 49593.22, 14587.37, 12497.84, 28631.80, 84130.84, 69412.96, 0.00, 0.00, 0.00
98, 96353.31, 129876.86, 49596.60, 14591.49, 12523.44, 28638.46, 84135.34, 69414.84, 0.08, -0.13, 0.99
99, 96345.80, 129860.81, 49587.50, 14581.74, 12544.74, 28633.46, 84128.39, 69409.34, 0.00, 0.00, 0.00
100, 96344.53, 129851.96, 49586.25, 14578.95, 12561.41, 28630.08, 84127.27, 69408.27, 0.00, 0.00, 0.00
101, 96349.00, 129845.39, 49587.34, 14584.60, 12558.53, 28632.85, 84133.66, 69413.41, 0.00, 0.00, 0.00
102, 96343.19, 129843.85, 49589.54, 14580.42, 12520.87, 28618.84, 84130.96, 69410.37, 0.00, 0.00, 0.00
103, 96340.66, 129847.13, 49591.52, 14573.74, 12457.77, 28609.72, 84123.73, 69407.15, 0.00, 0.00, 0.00
104, 96342.52, 129848.03, 49587.50, 14571.77, 12487.67, 28611.60, 84125.39, 69408.71, 0.00, 0.00, 0.00
105, 96349.18, 129852.23, 49591.12, 14584.16, 12557.21, 28639.27, 84136.57, 69415.89, 0.00, 0.00, 0.00
106, 96348.11, 129859.32, 49594.34, 14585.76, 12593.51, 28639.54, 84139.92, 69415.98, 0.00, 0.00, 0.00
107, 96345.13, 129865.13, 49593.16, 14580.13, 12550.77, 28628.25, 84131.34, 69411.44, 0.00, 0.00, 0.00
108, 96347.33, 129863.52, 49589.33, 14576.82, 12514.18, 28626.95, 84130.02, 69414.19, 0.07, -0.13, 0.99
109, 96343.46, 129858.29, 49587.77, 14573.85, 12517.76, 28621.56, 84126.62, 69410.75, 0.00, 0.00, 0.00
110, 96343.70, 129855.45, 49582.89, 14572.35, 12549.16, 28619.42, 84122.60, 69410.26, 0.00, 0.00, 0.00
111, 96345.02, 129851.45, 49576.86, 14566.83, 12526.90, 28610.90, 84121.55, 69409.85, 0.00, 0.00, 0.00
112, 96343.15, 129849.44, 49577.11, 14564.42, 12499.32, 28607.88, 84121.10, 69408.52, 0.00, 0.00, 0.00
113, 96346.09, 129852.73, 49582.49, 14572.13, 12496.84, 28622.77, 84126.42, 69411.62, 0.00, 0.00, 0.00
114, 96347.28, 129855.36, 49583.39, 14572.76, 12524.06, 28621.14, 84125.99, 69410.97, 0.00, 0.00, 0.00
115, 96342.85, 129854.31, 49581.82, 14571.39, 12566.91, 28615.93, 84119.87, 69406.39, 0.00, 0.00, 0.00
116, 96341.85, 129856.52, 49581.96, 14573.05, 12566.69, 28618.19, 84121.28, 69405.00, 0.00, 0.00, 0.00
117, 96338.12, 129857.55, 49581.00, 14573.31, 12538.46, 28617.36, 84120.97, 69401.52, 0.00, 0.00, 0.00
118, 96340.17, 129852.97, 49580.41, 14572.15, 12505.87, 28614.01, 84118.87, 69405.38, 0.08, -0.13, 0.99
119, 96341.80, 129851.60, 49583.14, 14570.95, 12509.89, 28605.27, 84118.17, 69405.45, 0.00, 0.00, 0.00
120, 96343.41, 129851.29, 49585.85, 14567.84, 12508.46, 28597.00, 84116.79, 69405.74, 0.00, 0.00, 0.00
121, 96343.46, 129856.92, 49578.00, 14568.46, 12515.75, 28604.22, 84119.76, 69407.35, 0.00, 0.00, 0.00
122, 96343.44, 129859.65, 49572.93, 14563.79, 12524.33, 28609.54, 84118.75, 69407.39, 0.00, 0.00, 0.00
123, 96340.35, 129853.51, 49571.36, 14558.54, 12524.60, 28609.23, 84113.59, 69405.45, 0.00, 0.00, 0.00
124, 96336.64, 129846.98, 49565.30, 14547.48, 12541.63, 28606.95, 84108.23, 69404.49, 0.00, 0.00, 0.00
125, 96336.69, 129852.01, 49569.46, 14563.14, 12578.44, 28607.33, 84107.94, 69405.63, 0.00, 0.00, 0.00
126, 96338.18, 129855.72, 49568.01, 14571.06, 12553.86, 28597.98, 84109.23, 69403.48, 0.00, 0.00, 0.00
127, 96338.54, 129864.39, 49566.69, 14572.42, 12503.63, 28596.42, 84109.37, 69403.88, 0.00, 0.00, 0.00
128, 96339.84, 129857.38, 49565.35, 14568.89, 12488.90, 28605.34, 84109.23, 69405.95, 0.08, -0.13, 0.99
129, 96337.05, 129842.71, 49566.29, 14563.82, 12504.24, 28605.07, 84105.23, 69403.41, 0.00, 0.00, 0.00
130, 96333.87, 129843.13, 49570.60, 14555.14, 12512.62, 28597.74, 84104.16, 69401.36, 0.00, 0.00, 0.00
131, 96334.96, 129845.73, 49577.11, 14553.42, 12548.45, 28600.33, 84104.91, 69403.48, 0.00, 0.00, 0.00
132, 96335.99, 129850.84, 49575.00, 14554.45, 12534.88, 28594.05, 84100.91, 69400.20, 0.00, 0.00, 0.00
133, 96341.80, 129853.70, 49569.21, 14549.53, 12514.54, 28582.43, 84092.58, 69397.07, 0.00, 0.00, 0.00
134, 96339.16, 129854.71, 49572.12, 14554.58, 12525.89, 28585.06, 84099.91, 69404.13, 0.00, 0.00, 0.00
135, 96334.23, 129857.10, 49575.90, 14551.57, 12541.25, 28584.35, 84105.61, 69408.40, 0.00, 0.00, 0.00
136, 96332.13, 129863.18, 49566.78, 14546.11, 12536.65, 28580.41, 84103.89, 69401.74, 0.00, 0.00, 0.00
137, 96325.11, 129864.99, 49567.14, 14547.19, 12505.98, 28579.54, 84106.59, 69394.88, 0.00, 0.00, 0.00
138, 96309.91, 129857.66, 49564.28, 14546.76, 12486.87, 28579.48, 84109.45, 69389.18, 0.08, -0.12, 0.99
139, 96302.89, 129857.88, 49567.14, 14549.87, 12501.78, 28583.32, 84114.62, 69382.95, 0.00, 0.00, 0.00
140, 96298.77, 129857.22, 49563.52, 14547.36, 12517.36, 28576.95, 84108.00, 69376.26, 0.00, 0.00, 0.00
141, 96284.67, 129857.80, 49564.34, 14550.23, 12520.49, 28579.68, 84110.15, 69366.54, 0.00, 0.00, 0.00
142, 96279.20, 129856.61, 49564.41, 14549.93, 12496.82, 28582.43, 84113.26, 69362.52, 0.00, 0.00, 0.00
143, 96282.44, 129856.01, 49562.55, 14546.89, 12501.64, 28590.23, 84114.71, 69364.91, 0.00, 0.00, 0.00
144, 96275.62, 129851.23, 49559.38, 14540.77, 12516.06, 28582.83, 84109.97, 69355.18, 0.00, 0.00, 0.00
145, 96273.14, 129853.38, 49563.29, 14544.70, 12562.33, 28583.50, 84110.02, 69353.57, 0.00, 0.00, 0.00
146, 96274.73, 129852.73, 49562.02, 14544.46, 12556.49, 28577.55, 84108.43, 69354.87, 0.00, 0.00, 0.00
147, 96277.55, 129852.08, 49559.20, 14541.24, 12513.11, 28574.27, 84109.45, 69359.30, 0.00, 0.00, 0.00
148, 96279.94, 129855.77, 49560.10, 14540.99, 12490.89, 28576.50, 84110.15, 69362.00, 0.07, -0.13, 0.99
149, 96276.80, 129854.09, 49556.03, 14540.17, 12505.87, 28575.56, 84107.47, 69360.52, 0.00, 0.00, 0.00
150, 96272.83, 129850.13, 49555.25, 14538.51, 12544.47, 28568.48, 84104.67, 69359.96, 0.00, 0.00, 0.00
151, 96272.89, 129849.35, 49558.91, 14533.86, 12536.22, 28562.20, 84100.96, 69359.43, 0.00, 0.00, 0.00
152, 96273.43, 129851.60, 49554.93, 14531.43, 12490.98, 28559.40, 84099.38, 69358.78, 0.00, 0.00, 0.00
153, 96273.41, 129856.68, 49548.65, 14529.66, 12466.22, 28553.88, 84095.26, 69355.25, 0.00, 0.00, 0.00
154, 96273.09, 129852.39, 49548.61, 14526.98, 12479.92, 28552.07, 84090.75, 69353.55, 0.00, 0.00, 0.00
155, 96273.36, 129849.33, 49550.93, 14527.36, 12516.91, 28556.90, 84087.10, 69353.33, 0.00, 0.00, 0.00
156, 96272.47, 129849.52, 49544.16, 14522.17, 12513.00, 28555.56, 84088.69, 69351.70, 0.00, 0.00, 0.00
157, 96274.93, 129848.48, 49544.00, 14513.84, 12468.81, 28552.56, 84090.68, 69353.77, 0.00, 0.00, 0.00
158, 96277.34, 129848.81, 49544.38, 14508.14, 12448.31, 28554.53, 84086.23, 69358.78, 0.07, -0.13, 0.99
159, 96279.38, 129852.45, 49547.16, 14529.04, 12476.27, 28557.86, 84080.02, 69360.77, 0.00, 0.00, 0.00
160, 96280.70, 129855.38, 49546.42, 14527.16, 12490.76, 28548.36, 84077.73, 69361.22, 0.00, 0.00, 0.00
161, 96283.40, 129860.70, 49548.77, 14523.38, 12521.63, 28563.09, 84078.52, 69364.52, 0.00, 0.00, 0.00
162, 96283.09, 129860.13, 49542.44, 14513.86, 12493.04, 28562.09, 84074.81, 69366.47, 0.00, 0.00, 0.00
163, 96286.30, 129850.38, 49536.45, 14502.17, 12458.04, 28551.02, 84073.38, 69370.56, 0.00, 0.00, 0.00
164, 96283.47, 129846.40, 49533.86, 14504.63, 12454.35, 28547.49, 84070.56, 69364.91, 0.00, 0.00, 0.00
165, 96284.27, 129850.02, 49538.15, 14517.66, 12510.11, 28552.56, 84072.64, 69364.48, 0.00, 0.00, 0.00
166, 96287.27, 129852.50, 49536.63, 14519.09, 12560.34, 28560.14, 84075.63, 69368.05, 0.00, 0.00, 0.00
167, 96286.04, 129851.13, 49533.77, 14505.79, 12520.17, 28551.07, 84073.31, 69365.64, 0.00, 0.00, 0.00
168, 96284.80, 129852.43, 49537.79, 14501.21, 12499.18, 28549.75, 84072.30, 69362.11, 0.07, -0.13, 0.98
169, 96286.44, 129853.98, 49539.64, 14498.66, 12532.85, 28544.67, 84069.84, 69364.01, 0.00, 0.00, 0.00
170, 96290.51, 129854.65, 49534.55, 14498.86, 12563.09, 28544.03, 84067.19, 69367.85, 0.00, 0.00, 0.00
171, 96293.97, 129854.38, 49534.35, 14501.48, 12551.33, 28547.11, 84071.68, 69371.56, 0.00, 0.00, 0.00
172, 96293.59, 129847.56, 49532.27, 14498.66, 12525.89, 28556.88, 84075.55, 69373.94, 0.00, 0.00, 0.00
173, 96296.05, 129842.53, 49534.01, 14500.20, 12497.31, 28560.37, 84077.83, 69376.26, 0.00, 0.00, 0.00
174, 96299.34, 129846.95, 49533.61, 14497.97, 12465.75, 28560.52, 84076.22, 69376.84, 0.00, 0.00, 0.00
175, 96298.91, 129848.70, 49529.74, 14499.22, 12523.19, 28567.29, 84080.40, 69377.91, 0.00, 0.00, 0.00
176, 96305.35, 129849.39, 49533.57, 14501.81, 12544.78, 28570.87, 84083.73, 69382.72, 0.00, 0.00, 0.00
177, 96305.75, 129850.96, 49530.88, 14499.55, 12492.34, 28565.30, 84074.99, 69382.74, 0.00, 0.00, 0.00
178, 96299.11, 129846.17, 49525.03, 14495.51, 12462.39, 28554.31, 84069.60, 69375.66, 0.08, -0.13, 0.98
179, 96297.66, 129844.92, 49522.03, 14490.52, 12481.35, 28546.91, 84066.98, 69373.64, 0.00, 0.00, 0.00
180, 96301.30, 129849.17, 49521.59, 14491.33, 12510.94, 28551.80, 84068.40, 69377.24, 0.00, 0.00, 0.00
181, 96302.15, 129846.84, 49523.48, 14489.36, 12515.28, 28553.53, 84067.95, 69379.45, 0.00, 0.00, 0.00
182, 96303.59, 129846.04, 49523.57, 14481.43, 12464.00, 28546.69, 84068.44, 69381.24, 0.00, 0.00, 0.00
183, 96303.12, 129844.50, 49520.09, 14475.75, 12448.89, 28548.00, 84074.61, 69381.89, 0.00, 0.00, 0.00
184, 96304.50, 129849.44, 49532.94, 14494.79, 12484.99, 28557.55, 84078.25, 69385.18, 0.00, 0.00, 0.00
185, 96302.89, 129849.91, 49526.86, 14490.66, 12536.74, 28562.04, 84074.34, 69385.42, 0.00, 0.00, 0.00
186, 96304.41, 129850.09, 49524.33, 14489.47, 12527.35, 28559.18, 84072.24, 69385.55, 0.00, 0.00, 0.00
187, 96306.20, 129852.41, 49525.90, 14491.78, 12488.12, 28558.58, 84068.84, 69384.71, 0.00, 0.00, 0.00
188, 96306.60, 129855.98, 49527.33, 14490.79, 12442.70, 28549.75, 84064.53, 69383.79, 0.08, -0.13, 0.99
189, 96307.09, 129857.48, 49525.63, 14485.63, 12461.68, 28552.54, 84066.45, 69383.55, 0.00, 0.00, 0.00
190, 96309.23, 129854.09, 49524.16, 14479.37, 12573.44, 28573.31, 84071.19, 69387.26, 0.00, 0.00, 0.00
191, 96312.10, 129852.66, 49523.44, 14484.91, 12614.34, 28582.05, 84073.34, 69392.59, 0.00, 0.00, 0.00
192, 96312.77, 129853.88, 49523.84, 14487.86, 12581.55, 28577.35, 84076.62, 69392.87, 0.00, 0.00, 0.00
193, 96308.99, 129850.84, 49519.53, 14477.47, 12530.92, 28569.64, 84073.23, 69385.83, 0.00, 0.00, 0.00
194, 96304.79, 129850.96, 49519.35, 14475.28, 12524.04, 28569.37, 84065.00, 69380.55, 0.00, 0.00, 0.00
195, 96304.86, 129853.30, 49517.81, 14469.69, 12556.72, 28565.13, 84063.14, 69380.41, 0.00, 0.00, 0.00
196, 96304.25, 129857.87, 49525.50, 14475.28, 12563.98, 28569.51, 84062.31, 69378.70, 0.00, 0.00, 0.00
197, 96305.88, 129864.28, 49528.51, 14485.85, 12524.20, 28574.22, 84061.31, 69379.90, 0.00, 0.00, 0.00
198, 96308.99, 129869.58, 49528.80, 14487.37, 12526.19, 28577.82, 84057.45, 69382.80, 0.08, -0.12, 0.99
199, 96305.02, 129861.09, 49527.17, 14484.78, 12558.75, 28583.59, 84057.60, 69379.27, 0.00, 0.00, 0.00
200, 96303.70, 129851.77, 49533.88, 14478.95, 12593.93, 28584.37, 84058.36, 69378.49, 0.00, 0.00, 0.00
201, 96302.98, 129852.09, 49528.58, 14470.07, 12565.10, 28574.38, 84054.91, 69378.09, 0.00, 0.00, 0.00
202, 96302.17, 129853.44, 49522.43, 14478.43, 12510.23, 28568.79, 84051.56, 69376.51, 0.00, 0.00, 0.00
203, 96305.35, 129856.88, 49524.73, 14486.12, 12492.97, 28575.21, 84055.66, 69381.02, 0.00, 0.00, 0.00
204, 96306.42, 129859.56, 49527.26, 14480.00, 12495.90, 28573.93, 84057.33, 69380.93, 0.00, 0.00, 0.00
205, 96302.55, 129861.95, 49521.72, 14472.06, 12526.41, 28569.64, 84055.25, 69377.45, 0.00, 0.00, 0.00
206, 96303.13, 129856.32, 49516.53, 14469.49, 12517.40, 28564.46, 84056.50, 69378.67, 0.00, 0.00, 0.00
207, 96307.52, 129856.73, 49516.82, 14468.04, 12482.73, 28557.97, 84059.01, 69381.76, 0.08, -0.12, 0.99
208, 96302.84, 129856.91, 49515.10, 14464.80, 12470.55, 28549.17, 84060.20, 69376.98, 0.00, 0.00, 0.00
209, 96299.90, 129852.74, 49511.77, 14462.83, 12489.04, 28541.97, 84057.69, 69374.47, 0.00, 0.00, 0.00
210, 96299.20, 129853.38, 49513.34, 14465.18, 12507.81, 28552.32, 84057.58, 69374.25, 0.00, 0.00, 0.00
211, 96297.64, 129853.84, 49515.30, 14466.56, 12516.55, 28556.23, 84054.73, 69370.88, 0.00, 0.00, 0.00
212, 96295.55, 129852.88, 49513.43, 14465.78, 12479.60, 28549.64, 84048.14, 69367.97, 0.00, 0.00, 0.00
213, 96296.68, 129853.82, 49512.38, 14464.77, 12445.81, 28545.88, 84048.97, 69370.36, 0.00, 0.00, 0.00
214, 96302.76, 129856.61, 49510.30, 14463.54, 12437.07, 28547.31, 84053.15, 69376.08, 0.00, 0.00, 0.00
215, 96306.87, 129857.33, 49511.04, 14465.40, 12525.87, 28560.52, 84057.09, 69377.33, 0.00, 0.00, 0.00
216, 96307.94, 129855.70, 49506.81, 14460.68, 12551.53, 28565.82, 84058.56, 69378.20, 0.00, 0.00, 0.00
217, 96309.73, 129860.34, 49507.30, 14460.37, 12521.92, 28572.12, 84063.30, 69380.88, 0.08, -0.12, 0.99
218, 96309.46, 129864.10, 49513.71, 14471.28, 12510.29, 28579.77, 84068.44, 69381.69, 0.00, 0.00, 0.00
219, 96308.26, 129863.07, 49515.28, 14469.00, 12516.98, 28572.86, 84064.59, 69380.80, 0.00, 0.00, 0.00
220, 96296.77, 129854.13, 49513.92, 14460.97, 12511.92, 28561.75, 84050.24, 69369.04, 0.00, 0.00, 0.00
221, 96294.73, 129851.13, 49508.15, 14456.04, 12513.13, 28561.68, 84048.50, 69365.80, 0.00, 0.00, 0.00
222, 96299.31, 129856.73, 49506.95, 14459.12, 12501.69, 28573.17, 84055.14, 69369.89, 0.00, 0.00, 0.00
223, 96302.58, 129861.77, 49508.84, 14464.57, 12488.61, 28577.80, 84059.03, 69372.26, 0.00, 0.00, 0.00
224, 96307.16, 129861.40, 49504.89, 14465.27, 12496.44, 28579.36, 84063.08, 69376.13, 0.00, 0.00, 0.00
225, 96303.85, 129856.61, 49502.27, 14459.39, 12541.23, 28579.48, 84063.41, 69371.90, 0.00, 0.00, 0.00
226, 96307.36, 129856.70, 49501.27, 14456.28, 12544.02, 28587.41, 84063.74, 69375.84, 0.00, 0.00, 0.00
227, 96295.42, 129854.94, 49503.28, 14449.71, 12490.51, 28578.20, 84054.54, 69364.10, 0.09, -0.13, 0.99
228, 96286.93, 129852.59, 49505.11, 14445.53, 12475.80, 28572.44, 84047.90, 69356.03, 0.00, 0.00, 0.00
229, 96288.83, 129856.39, 49516.36, 14448.68, 12509.40, 28583.41, 84048.68, 69358.45, 0.00, 0.00, 0.00
230, 96283.53, 129855.72, 49512.02, 14446.25, 12529.72, 28577.69, 84046.45, 69353.39, 0.00, 0.00, 0.00
231, 96286.71, 129856.23, 49505.89, 14436.79, 12503.32, 28567.52, 84048.34, 69355.20, 0.00, 0.00, 0.00
232, 96290.93, 129861.17, 49510.32, 14445.66, 12481.91, 28570.98, 84054.07, 69359.20, 0.00, 0.00, 0.00
233, 96289.77, 129863.66, 49513.85, 14459.75, 12498.22, 28577.51, 84054.23, 69356.41, 0.00, 0.00, 0.00
234, 96290.10, 129862.83, 49506.61, 14452.26, 12531.17, 28576.44, 84058.90, 69359.54, 0.00, 0.00, 0.00
235, 96293.01, 129858.71, 49502.94, 14449.96, 12562.28, 28578.29, 84064.77, 69363.00, 0.00, 0.00, 0.00
236, 96294.62, 129854.49, 49501.96, 14450.65, 12542.84, 28575.21, 84062.41, 69365.41, 0.00, 0.00, 0.00
237, 96294.91, 129850.58, 49502.77, 14446.07, 12502.02, 28570.74, 84062.63, 69371.95, 0.08, -0.13, 0.99
238, 96298.87, 129854.06, 49499.75, 14435.96, 12460.58, 28555.67, 84063.03, 69378.34, 0.00, 0.00, 0.00
239, 96294.71, 129862.09, 49493.69, 14432.48, 12462.10, 28544.43, 84052.86, 69365.77, 0.00, 0.00, 0.00
240, 96291.11, 129856.73, 49490.45, 14433.17, 12470.95, 28540.70, 84049.42, 69357.35, 0.00, 0.00, 0.00
241, 96284.45, 129851.96, 49494.54, 14437.68, 12496.32, 28553.03, 84056.17, 69349.93, 0.00, 0.00, 0.00
242, 96292.79, 129848.30, 49487.79, 14426.06, 12486.65, 28541.14, 84049.33, 69351.67, 0.00, 0.00, 0.00
243, 96290.35, 129846.29, 49483.90, 14420.58, 12476.25, 28531.58, 84041.59, 69350.45, 0.00, 0.00, 0.00
244, 96274.16, 129843.31, 49482.00, 14418.39, 12497.11, 28525.36, 84037.62, 69336.41, 0.00, 0.00, 0.00
245, 96268.47, 129843.47, 49483.34, 14422.17, 12514.14, 28530.17, 84041.86, 69331.06, 0.00, 0.00, 0.00
246, 96270.32, 129847.59, 49485.22, 14426.02, 12503.74, 28532.29, 84036.45, 69330.62, 0.00, 0.00, 0.00
247, 96275.15, 129851.07, 49484.04, 14424.68, 12487.29, 28534.79, 84032.38, 69336.65, 0.08, -0.13, 0.99
248, 96273.97, 129852.30, 49489.62, 14432.28, 12478.22, 28535.04, 84030.51, 69337.70, 0.00, 0.00, 0.00
249, 96270.93, 129848.01, 49484.35, 14424.05, 12448.09, 28521.70, 84020.98, 69334.28, 0.00, 0.00, 0.00
250, 96274.01, 129847.70, 49480.48, 14420.54, 12495.85, 28527.71, 84022.38, 69337.45, 0.00, 0.00, 0.00
251, 96278.33, 129852.86, 49488.53, 14429.91, 12550.15, 28533.03, 84025.97, 69340.95, 0.00, 0.00, 0.00
252, 96279.78, 129853.13, 49489.60, 14426.33, 12506.25, 28526.14, 84026.42, 69343.34, 0.00, 0.00, 0.00
253, 96274.81, 129850.78, 49484.37, 14420.81, 12466.64, 28528.71, 84024.41, 69340.54, 0.00, 0.00, 0.00
254, 96272.78, 129850.27, 49482.69, 14426.35, 12492.70, 28533.12, 84018.77, 69338.22, 0.00, 0.00, 0.00
255, 96274.91, 129853.59, 49486.05, 14428.03, 12526.95, 28536.94, 84021.01, 69339.67, 0.00, 0.00, 0.00
0, 96277.27, 129853.30, 49483.63, 14425.28, 12535.15, 28539.89, 84022.71, 69339.40, 0.00, 0.00, 0.00
1, 96277.86, 129851.16, 49486.16, 14427.71, 12514.47, 28543.04, 84026.33, 69340.36, 0.07, -0.13, 0.99
2, 96272.83, 129845.37, 49482.47, 14424.54, 12483.69, 28540.58, 84021.95, 69334.57, 0.00, 0.00, 0.00
3, 96273.74, 129843.18, 49478.18, 14424.34, 12502.74, 28540.18, 84019.66, 69333.63, 0.00, 0.00, 0.00
4, 96274.77, 129844.72, 49479.45, 14427.02, 12538.99, 28543.62, 84022.64, 69336.07, 0.00, 0.00, 0.00
5, 96273.72, 129847.78, 49480.93, 14424.38, 12522.59, 28542.86, 84021.39, 69336.18, 0.00, 0.00, 0.00
6, 96276.70, 129848.97, 49476.43, 14424.79, 12481.46, 28542.39, 84020.43, 69338.57, 0.00, 0.00, 0.00
7, 96272.58, 129848.52, 49478.47, 14424.18, 12449.76, 28541.57, 84022.98, 69337.63, 0.00, 0.00, 0.00
8, 96269.92, 129846.40, 49475.72, 14415.80, 12467.38, 28538.06, 84022.17, 69336.65, 0.00, 0.00, 0.00
9, 96272.11, 129844.16, 49468.43, 14411.17, 12509.29, 28534.75, 84019.94, 69340.49, 0.00, 0.00, 0.00
10, 96273.74, 129845.88, 49472.05, 14411.67, 12479.40, 28526.61, 84017.77, 69341.59, 0.00, 0.00, 0.00
11, 96272.47, 129848.74, 49471.05, 14405.39, 12441.38, 28529.30, 84017.92, 69340.45, 0.08, -0.13, 0.99
12, 96272.13, 129845.91, 49470.04, 14405.14, 12464.14, 28533.41, 84020.07, 69342.06, 0.00, 0.00, 0.00
13, 96274.95, 129845.99, 49474.00, 14409.23, 12475.40, 28532.78, 84023.22, 69346.13, 0.00, 0.00, 0.00
14, 96275.58, 129850.38, 49478.87, 14409.86, 12499.90, 28534.62, 84023.58, 69347.88, 0.00, 0.00, 0.00
15, 96276.90, 129853.88, 49477.13, 14411.78, 12505.62, 28536.05, 84022.06, 69346.28, 0.00, 0.00, 0.00
16, 96276.76, 129852.70, 49475.63, 14409.95, 12485.33, 28533.88, 84022.77, 69347.05, 0.00, 0.00, 0.00
17, 96278.80, 129849.08, 49475.25, 14410.01, 12484.43, 28542.80, 84025.03, 69351.85, 0.00, 0.00, 0.00
18, 96277.14, 129846.55, 49472.30, 14407.58, 12510.36, 28544.99, 84025.16, 69350.71, 0.00, 0.00, 0.00
19, 96275.35, 129847.38, 49471.20, 14408.40, 12532.98, 28542.10, 84030.48, 69351.94, 0.00, 0.00, 0.00
20, 96275.58, 129850.13, 49470.42, 14408.56, 12517.74, 28542.71, 84028.12, 69353.48, 0.00, 0.00, 0.00
21, 96271.33, 129848.95, 49468.05, 14405.23, 12484.21, 28534.77, 84020.27, 69350.66, 0.08, -0.12, 0.99
22, 96268.54, 129847.29, 49470.22, 14409.45, 12466.89, 28535.82, 84023.47, 69352.38, 0.00, 0.00, 0.00
23, 96279.58, 129846.71, 49471.92, 14408.74, 12491.90, 28535.22, 84024.36, 69365.87, 0.00, 0.00, 0.00
24, 96287.58, 129846.48, 49467.61, 14401.76, 12496.17, 28528.78, 84019.04, 69365.30, 0.00, 0.00, 0.00
25, 96272.67, 129847.65, 49467.94, 14402.52, 12507.72, 28534.39, 84019.51, 69344.20, 0.00, 0.00, 0.00
26, 96256.45, 129848.19, 49470.78, 14402.14, 12477.82, 28536.56, 84017.63, 69327.17, 0.00, 0.00, 0.00
27, 96257.27, 129845.17, 49466.55, 14398.46, 12446.48, 28531.04, 84015.94, 69328.36, 0.00, 0.00, 0.00
28, 96257.92, 129841.63, 49464.70, 14396.60, 12496.59, 28531.46, 84017.55, 69328.42, 0.00, 0.00, 0.00
29, 96252.15, 129842.69, 49468.48, 14397.67, 12541.63, 28534.82, 84018.48, 69320.71, 0.00, 0.00, 0.00
30, 96251.23, 129845.37, 49467.29, 14397.50, 12522.23, 28533.92, 84020.70, 69318.93, 0.00, 0.00, 0.00
31, 96248.71, 129849.57, 49471.09, 14402.08, 12493.78, 28535.67, 84022.75, 69317.30, 0.08, -0.13, 0.99
32, 96248.09, 129844.99, 49472.97, 14407.87, 12478.87, 28537.54, 84025.86, 69318.66, 0.00, 0.00, 0.00
33, 96250.16, 129841.81, 49468.52, 14400.74, 12500.64, 28538.88, 84026.64, 69317.41, 0.00, 0.00, 0.00
34, 96246.07, 129832.88, 49460.34, 14382.52, 12472.65, 28527.73, 84017.73, 69310.66, 0.00, 0.00, 0.00
35, 96240.73, 129831.18, 49462.87, 14384.89, 12436.69, 28521.34, 84014.55, 69306.34, 0.00, 0.00, 0.00
36, 96246.32, 129835.94, 49468.48, 14401.63, 12475.36, 28541.03, 84023.24, 69312.27, 0.00, 0.00, 0.00
37, 96253.90, 129836.32, 49466.40, 14396.49, 12520.42, 28550.42, 84027.85, 69319.73, 0.00, 0.00, 0.00
38, 96258.23, 129838.77, 49471.16, 14401.03, 12561.95, 28559.20, 84032.37, 69325.56, 0.00, 0.00, 0.00
39, 96254.05, 129833.08, 49463.83, 14390.37, 12576.30, 28546.89, 84023.18, 69318.48, 0.00, 0.00, 0.00
40, 96251.99, 129837.55, 49465.66, 14391.19, 12556.61, 28545.37, 84024.59, 69317.74, 0.00, 0.00, 0.00
41, 96254.30, 129835.83, 49464.16, 14387.84, 12502.07, 28543.49, 84023.55, 69321.25, 0.07, -0.13, 0.99
42, 96252.29, 129831.65, 49461.86, 14388.40, 12474.49, 28541.79, 84020.02, 69319.75, 0.00, 0.00, 0.00
43, 96250.66, 129831.04, 49462.13, 14387.84, 12488.48, 28544.14, 84017.12, 69318.10, 0.00, 0.00, 0.00
44, 96253.96, 129832.96, 49464.03, 14392.24, 12513.58, 28545.72, 84020.98, 69322.10, 0.00, 0.00, 0.00
45, 96254.52, 129835.34, 49464.90, 14392.65, 12507.10, 28542.19, 84023.31, 69325.45, 0.00, 0.00, 0.00
46, 96255.62, 129838.73, 49461.05, 14388.87, 12458.10, 28541.75, 84026.44, 69328.38, 0.00, 0.00, 0.00
47, 96254.97, 129837.34, 49460.83, 14390.70, 12448.09, 28548.00, 84026.53, 69328.05, 0.00, 0.00, 0.00
48, 96259.23, 129835.31, 49462.60, 14396.62, 12493.93, 28558.02, 84030.82, 69332.31, 0.00, 0.00, 0.00
49, 96256.53, 129837.23, 49460.90, 14388.35, 12530.45, 28552.59, 84026.28, 69331.47, 0.00, 0.00, 0.00
50, 96251.15, 129837.48, 49461.08, 14382.50, 12503.48, 28545.70, 84022.57, 69327.66, 0.00, 0.00, 0.00
51, 96249.65, 129830.13, 49456.68, 14377.85, 12460.29, 28539.55, 84016.16, 69324.96, 0.07, -0.13, 0.99
52, 96247.68, 129830.15, 49456.68, 14367.28, 12413.29, 28524.65, 84010.33, 69322.30, 0.00, 0.00, 0.00
53, 96246.18, 129834.44, 49456.65, 14369.38, 12433.40, 28533.65, 84017.37, 69326.21, 0.00, 0.00, 0.00
54, 96251.88, 129839.73, 49458.98, 14377.07, 12510.34, 28549.68, 84019.73, 69330.88, 0.00, 0.00, 0.00
55, 96249.60, 129838.24, 49457.50, 14378.25, 12507.16, 28540.00, 84013.61, 69328.88, 0.00, 0.00, 0.00
56, 96249.00, 129835.53, 49451.82, 14372.15, 12466.91, 28541.50, 84011.38, 69326.95, 0.00, 0.00, 0.00
57, 96255.46, 129835.83, 49453.41, 14374.50, 12476.70, 28548.47, 84013.68, 69331.69, 0.00, 0.00, 0.00
58, 96254.61, 129840.66, 49459.31, 14378.45, 12496.93, 28543.15, 84010.80, 69330.95, 0.00, 0.00, 0.00
59, 96251.33, 129848.05, 49453.52, 14371.59, 12517.07, 28534.53, 84011.06, 69327.48, 0.00, 0.00, 0.00
60, 96251.21, 129844.07, 49452.54, 14365.73, 12509.71, 28535.55, 84015.27, 69327.98, 0.00, 0.00, 0.00
61, 96248.66, 129831.73, 49450.24, 14364.08, 12477.97, 28538.88, 84007.02, 69324.73, 0.07, -0.13, 0.99
62, 96248.24, 129826.44, 49448.81, 14362.40, 12461.75, 28533.59, 83998.37, 69321.77, 0.00, 0.00, 0.00
63, 96249.58, 129828.88, 49449.66, 14363.59, 12478.46, 28533.65, 84001.90, 69322.75, 0.00, 0.00, 0.00
64, 96248.33, 129829.52, 49449.46, 14366.09, 12513.13, 28537.48, 84004.18, 69322.03, 0.00, 0.00, 0.00
65, 96247.19, 129831.84, 49449.81, 14368.89, 12521.29, 28544.38, 84008.54, 69321.01, 0.00, 0.00, 0.00
66, 96247.13, 129833.92, 49449.52, 14367.61, 12491.27, 28543.36, 84009.09, 69321.14, 0.00, 0.00, 0.00
67, 96247.86, 129838.89, 49448.18, 14367.23, 12458.73, 28541.79, 84009.90, 69323.24, 0.00, 0.00, 0.00
68, 96245.00, 129833.91, 49446.32, 14366.32, 12481.50, 28539.36, 84008.80, 69320.05, 0.00, 0.00, 0.00
69, 96244.41, 129830.13, 49443.09, 14364.24, 12532.67, 28550.08, 84007.84, 69319.41, 0.00, 0.00, 0.00
70, 96246.30, 129835.55, 49445.66, 14363.59, 12533.38, 28548.85, 84004.85, 69322.23, 0.00, 0.00, 0.00
71, 96247.21, 129835.71, 49444.79, 14360.53, 12482.87, 28543.58, 84001.95, 69323.35, 0.08, -0.13, 0.99
72, 96250.12, 129837.21, 49444.89, 14360.64, 12468.45, 28545.23, 84007.42, 69327.95, 0.00, 0.00, 0.00
73, 96246.90, 129829.05, 49440.52, 14355.72, 12484.12, 28544.38, 84004.98, 69327.35, 0.00, 0.00, 0.00
74, 96245.18, 129821.37, 49436.63, 14352.14, 12489.66, 28541.97, 84006.59, 69327.66, 0.00, 0.00, 0.00
75, 96248.69, 129825.37, 49439.15, 14356.53, 12502.07, 28551.13, 84012.18, 69331.84, 0.00, 0.00, 0.00
76, 96251.70, 129831.53, 49440.78, 14358.49, 12482.96, 28555.89, 84017.77, 69337.08, 0.00, 0.00, 0.00
77, 96248.44, 129827.78, 49436.22, 14353.64, 12432.20, 28542.17, 84015.09, 69335.63, 0.00, 0.00, 0.00
78, 96247.05, 129825.48, 49436.94, 14352.26, 12436.44, 28540.63, 84012.13, 69333.99, 0.00, 0.00, 0.00
79, 96247.79, 129829.90, 49443.89, 14361.80, 12526.21, 28561.57, 84015.96, 69335.91, 0.00, 0.00, 0.00
80, 96253.11, 129840.19, 49447.58, 14363.28, 12546.48, 28565.86, 84024.01, 69340.30, 0.00, 0.00, 0.00
81, 96257.80, 129843.65, 49446.10, 14359.41, 12488.05, 28552.79, 84025.19, 69342.17, 0.08, -0.13, 0.99
82, 96257.25, 129832.27, 49445.61, 14357.37, 12461.14, 28552.16, 84021.52, 69339.22, 0.00, 0.00, 0.00
83, 96257.96, 129833.86, 49443.71, 14358.18, 12492.34, 28556.03, 84019.96, 69342.26, 0.00, 0.00, 0.00
84, 96257.41, 129840.56, 49442.46, 14363.43, 12537.00, 28557.77, 84020.72, 69341.13, 0.00, 0.00, 0.00
85, 96258.25, 129844.50, 49439.98, 14356.37, 12522.14, 28551.11, 84020.96, 69340.30, 0.00, 0.00, 0.00
86, 96257.43, 129834.93, 49438.55, 14346.85, 12476.99, 28550.96, 84016.16, 69338.71, 0.00, 0.00, 0.00
87, 96254.09, 129830.46, 49441.41, 14357.24, 12490.33, 28556.43, 84011.66, 69337.21, 0.00, 0.00, 0.00
88, 96252.95, 129833.08, 49443.02, 14355.18, 12475.67, 28546.39, 84008.63, 69338.15, 0.00, 0.00, 0.00
89, 96247.59, 129831.89, 49439.51, 14350.78, 12506.20, 28543.02, 84003.42, 69334.38, 0.00, 0.00, 0.00
90, 96254.19, 129835.38, 49442.46, 14357.22, 12526.50, 28556.59, 84009.74, 69339.11, 0.00, 0.00, 0.00
91, 96259.37, 129838.66, 49447.71, 14358.02, 12495.25, 28556.97, 84015.09, 69345.15, 0.08, -0.13, 0.99
92, 96257.70, 129839.06, 49449.52, 14351.27, 12451.75, 28545.86, 84013.45, 69342.89, 0.00, 0.00, 0.00
93, 96253.96, 129834.23, 49438.21, 14340.52, 12453.88, 28537.63, 84007.64, 69336.61, 0.00, 0.00, 0.00
94, 96254.25, 129832.20, 49434.10, 14339.54, 12496.10, 28538.13, 84007.22, 69337.12, 0.00, 0.00, 0.00
95, 96254.16, 129834.40, 49435.89, 14342.98, 12515.50, 28540.70, 84005.84, 69338.82, 0.00, 0.00, 0.00
96, 96256.31, 129836.98, 49435.95, 14341.30, 12466.42, 28538.75, 84008.20, 69339.11, 0.00, 0.00, 0.00
97, 96256.53, 129836.27, 49436.22, 14349.57, 12461.92, 28547.09, 84013.32, 69341.39, 0.00, 0.00, 0.00
98, 96259.35, 129835.00, 49434.43, 14349.22, 12484.99, 28548.14, 84015.22, 69344.67, 0.00, 0.00, 0.00
99, 96260.45, 129836.32, 49437.23, 14350.56, 12517.60, 28549.57, 84017.39, 69345.93, 0.00, 0.00, 0.00
100, 96261.20, 129841.70, 49439.13, 14349.77, 12516.95, 28553.06, 84019.91, 69347.49, 0.00, 0.00, 0.00
101, 96259.86, 129839.91, 49434.99, 14340.59, 12473.28, 28547.83, 84015.69, 69346.27, 0.07, -0.12, 0.99
102, 96257.25, 129835.09, 49429.43, 14334.98, 12439.17, 28542.24, 84010.52, 69343.78, 0.00, 0.00, 0.00
103, 96252.45, 129831.34, 49431.62, 14335.51, 12433.69, 28534.66, 84007.55, 69339.18, 0.00, 0.00, 0.00
104, 96254.14, 129827.33, 49427.11, 14331.16, 12491.18, 28540.58, 84005.63, 69337.66, 0.00, 0.00, 0.00
105, 96260.20, 129832.30, 49429.65, 14336.43, 12539.46, 28553.06, 84014.05, 69345.05, 0.00, 0.00, 0.00
106, 96260.58, 129834.22, 49431.24, 14340.54, 12502.63, 28558.67, 84017.70, 69345.48, 0.00, 0.00, 0.00
107, 96260.49, 129833.26, 49431.62, 14339.74, 12473.17, 28552.68, 84016.38, 69345.97, 0.00, 0.00, 0.00
108, 96260.89, 129840.25, 49434.64, 14338.24, 12478.08, 28551.47, 84018.26, 69349.13, 0.00, 0.00, 0.00
109, 96259.44, 129846.78, 49429.85, 14335.18, 12522.72, 28554.64, 84018.59, 69346.71, 0.00, 0.00, 0.00
110, 96258.86, 129841.44, 49431.64, 14338.73, 12523.66, 28558.17, 84019.42, 69349.95, 0.00, 0.00, 0.00
111, 96255.80, 129827.73, 49429.18, 14335.87, 12486.24, 28552.07, 84016.49, 69348.54, 0.08, -0.13, 0.99
112, 96248.98, 129822.59, 49421.00, 14330.62, 12454.48, 28545.01, 84011.24, 69341.91, 0.00, 0.00, 0.00
113, 96248.76, 129820.78, 49421.92, 14328.09, 12437.20, 28538.73, 84008.16, 69340.05, 0.00, 0.00, 0.00
114, 96252.76, 129826.05, 49422.25, 14326.75, 12491.12, 28550.75, 84012.78, 69344.32, 0.00, 0.00, 0.00
115, 96257.41, 129827.78, 49425.83, 14333.93, 12533.03, 28557.73, 84018.06, 69348.68, 0.00, 0.00, 0.00
116, 96260.53, 129826.17, 49425.41, 14330.62, 12493.69, 28553.86, 84018.93, 69350.42, 0.00, 0.00, 0.00
117, 96263.91, 129826.52, 49415.39, 14327.09, 12470.53, 28553.21, 84020.92, 69354.42, 0.00, 0.00, 0.00
118, 96265.74, 129821.59, 49411.34, 14327.00, 12498.00, 28556.99, 84024.66, 69358.31, 0.00, 0.00, 0.00
119, 96264.67, 129815.15, 49414.88, 14326.46, 12522.21, 28556.05, 84023.36, 69356.97, 0.00, 0.00, 0.00
120, 96264.84, 129815.41, 49417.05, 14324.14, 12498.18, 28553.84, 84024.01, 69359.14, 0.00, 0.00, 0.00
121, 96261.88, 129815.15, 49415.01, 14317.90, 12461.99, 28548.88, 84019.13, 69356.74, 0.08, -0.13, 0.99
122, 96256.29, 129813.61, 49412.57, 14312.25, 12460.67, 28544.21, 84012.85, 69349.01, 0.00, 0.00, 0.00
123, 96256.76, 129817.61, 49419.84, 14323.98, 12498.20, 28548.63, 84015.66, 69351.85, 0.00, 0.00, 0.00
124, 96262.68, 129819.24, 49420.00, 14329.64, 12511.97, 28553.53, 84021.57, 69359.34, 0.00, 0.00, 0.00
125, 96260.09, 129813.90, 49409.47, 14317.23, 12489.22, 28545.12, 84019.45, 69355.13, 0.00, 0.00, 0.00
126, 96258.52, 129816.36, 49406.32, 14314.01, 12468.81, 28544.76, 84015.47, 69353.41, 0.00, 0.00, 0.00
127, 96260.87, 129822.28, 49413.52, 14316.96, 12445.54, 28544.07, 84015.38, 69354.89, 0.00, 0.00, 0.00
128, 96258.86, 129824.27, 49425.27, 14316.65, 12457.36, 28542.93, 84011.82, 69351.45, 0.00, 0.00, 0.00
129, 96258.09, 129826.39, 49419.66, 14315.84, 12507.61, 28542.69, 84009.50, 69347.83, 0.00, 0.00, 0.00
130, 96259.21, 129823.42, 49414.48, 14313.18, 12520.28, 28545.39, 84010.55, 69348.90, 0.00, 0.00, 0.00
131, 96264.20, 129824.65, 49414.16, 14313.41, 12488.01, 28534.37, 84013.03, 69356.09, 0.08, -0.12, 0.99
132, 96266.03, 129824.59, 49416.78, 14313.92, 12463.58, 28550.62, 84020.36, 69358.82, 0.00, 0.00, 0.00
133, 96258.03, 129813.98, 49407.46, 14308.85, 12484.39, 28542.71, 84013.30, 69350.60, 0.00, 0.00, 0.00
134, 96259.62, 129814.81, 49407.48, 14310.66, 12503.99, 28552.41, 84015.94, 69354.55, 0.00, 0.00, 0.00
135, 96257.54, 129815.38, 49405.78, 14300.11, 12491.36, 28544.58, 84011.40, 69351.88, 0.00, 0.00, 0.00
136, 96257.36, 129814.70, 49401.45, 14298.37, 12454.50, 28539.67, 84010.39, 69350.51, 0.00, 0.00, 0.00
137, 96257.76, 129816.29, 49402.47, 14303.01, 12444.47, 28540.67, 84012.72, 69351.78, 0.00, 0.00, 0.00
138, 96261.56, 129817.19, 49401.04, 14300.27, 12460.49, 28540.07, 84016.74, 69355.88, 0.00, 0.00, 0.00
139, 96264.67, 129821.84, 49398.76, 14301.18, 12473.73, 28545.81, 84020.83, 69358.55, 0.00, 0.00, 0.00
140, 96266.77, 129823.35, 49403.63, 14300.74, 12480.34, 28548.68, 84025.46, 69359.88, 0.00, 0.00, 0.00
141, 96266.13, 129821.74, 49402.76, 14296.82, 12473.26, 28546.62, 84026.62, 69356.41, 0.08, -0.12, 0.99
142, 96264.29, 129828.34, 49399.70, 14297.16, 12457.28, 28542.17, 84022.13, 69351.47, 0.00, 0.00, 0.00
143, 96265.00, 129827.63, 49400.10, 14296.15, 12452.80, 28536.94, 84020.02, 69351.88, 0.00, 0.00, 0.00
144, 96263.13, 129818.81, 49398.83, 14294.19, 12469.84, 28533.14, 84020.23, 69349.64, 0.00, 0.00, 0.00
145, 96266.77, 129826.57, 49400.97, 14295.06, 12472.25, 28540.23, 84024.81, 69353.30, 0.00, 0.00, 0.00
146, 96269.97, 129825.50, 49401.58, 14292.89, 12441.54, 28537.79, 84024.07, 69356.88, 0.00, 0.00, 0.00
147, 96268.06, 129819.35, 49400.89, 14294.90, 12458.82, 28547.04, 84026.98, 69357.20, 0.00, 0.00, 0.00
148, 96269.38, 129824.16, 49404.75, 14303.91, 12529.02, 28558.53, 84033.59, 69357.48, 0.00, 0.00, 0.00
149, 96270.05, 129818.77, 49405.54, 14301.74, 12551.49, 28554.82, 84037.39, 69359.36, 0.00, 0.00, 0.00
150, 96270.55, 129817.02, 49405.71, 14301.03, 12511.01, 28549.93, 84040.57, 69360.73, 0.00, 0.00, 0.00
151, 96271.53, 129817.34, 49399.50, 14299.97, 12437.38, 28547.94, 84041.69, 69360.26, 0.08, -0.13, 0.99
152, 96271.35, 129820.89, 49398.61, 14298.88, 12443.48, 28554.06, 84043.72, 69356.48, 0.00, 0.00, 0.00
153, 96271.73, 129823.98, 49402.14, 14298.72, 12500.86, 28557.88, 84045.95, 69356.09, 0.00, 0.00, 0.00
154, 96277.21, 129824.88, 49399.77, 14300.91, 12526.27, 28559.14, 84048.66, 69362.06, 0.00, 0.00, 0.00
155, 96274.37, 129822.26, 49397.06, 14295.91, 12502.18, 28550.11, 84044.68, 69358.89, 0.00, 0.00, 0.00
156, 96268.91, 129821.37, 49400.24, 14294.48, 12449.07, 28545.10, 84045.26, 69355.31, 0.00, 0.00, 0.00
157, 96262.75, 129820.56, 49403.48, 14290.50, 12454.35, 28537.77, 84035.90, 69348.27, 0.00, 0.00, 0.00
158, 96264.40, 129830.77, 49409.20, 14293.38, 12476.05, 28540.76, 84037.86, 69350.04, 0.00, 0.00, 0.00
159, 96268.18, 129833.14, 49409.20, 14295.77, 12499.01, 28544.54, 84043.80, 69353.05, 0.00, 0.00, 0.00
160, 96268.29, 129819.42, 49401.69, 14292.22, 12507.81, 28539.53, 84044.50, 69353.46, 0.00, 0.00, 0.00
161, 96268.98, 129815.46, 49400.15, 14291.77, 12473.41, 28541.03, 84041.69, 69349.99, 0.08, -0.13, 0.99
162, 96266.23, 129814.91, 49395.92, 14288.55, 12448.38, 28539.06, 84041.15, 69348.50, 0.00, 0.00, 0.00
163, 96267.48, 129816.96, 49395.10, 14288.75, 12492.55, 28547.11, 84047.38, 69354.64, 0.00, 0.00, 0.00
164, 96267.80, 129817.54, 49394.83, 14288.93, 12514.47, 28539.64, 84047.67, 69355.31, 0.00, 0.00, 0.00
165, 96268.96, 129820.05, 49397.04, 14285.94, 12493.78, 28535.85, 84050.09, 69358.71, 0.00, 0.00, 0.00
166, 96266.63, 129819.27, 49394.89, 14284.57, 12462.10, 28534.19, 84048.32, 69356.12, 0.00, 0.00, 0.00
167, 96267.84, 129820.54, 49395.75, 14288.04, 12452.38, 28534.64, 84047.05, 69356.79, 0.00, 0.00, 0.00
168, 96268.98, 129824.31, 49398.76, 14293.78, 12488.50, 28536.90, 84051.63, 69357.64, 0.00, 0.00, 0.00
169, 96270.57, 129826.33, 49399.59, 14294.75, 12519.52, 28540.58, 84054.31, 69357.59, 0.00, 0.00, 0.00
170, 96271.40, 129828.72, 49399.10, 14293.47, 12510.81, 28540.47, 84057.09, 69358.16, 0.00, 0.00, 0.00
171, 96276.94, 129838.77, 49399.05, 14293.09, 12449.16, 28537.95, 84061.82, 69365.13, 0.07, -0.13, 0.99
172, 96273.97, 129834.15, 49391.23, 14280.64, 12427.08, 28525.38, 84058.96, 69364.16, 0.00, 0.00, 0.00
173, 96271.30, 129820.73, 49384.34, 14272.71, 12471.74, 28517.34, 84052.66, 69359.72, 0.00, 0.00, 0.00
174, 96271.55, 129811.64, 49380.46, 14276.64, 12491.29, 28536.22, 84056.73, 69358.78, 0.00, 0.00, 0.00
175, 96267.44, 129801.67, 49376.97, 14266.04, 12463.82, 28519.82, 84051.25, 69353.55, 0.00, 0.00, 0.00
176, 96263.22, 129809.72, 49392.35, 14265.20, 12434.74, 28516.15, 84048.10, 69350.45, 0.00, 0.00, 0.00
177, 96260.71, 129817.72, 49403.07, 14269.82, 12450.06, 28521.74, 84044.52, 69344.14, 0.00, 0.00, 0.00
178, 96262.88, 129820.41, 49404.75, 14274.47, 12484.21, 28519.55, 84046.45, 69347.05, 0.00, 0.00, 0.00
179, 96260.17, 129816.87, 49395.05, 14269.11, 12504.88, 28514.61, 84045.98, 69346.80, 0.00, 0.00, 0.00
180, 96261.05, 129817.32, 49392.50, 14271.77, 12495.50, 28520.13, 84048.84, 69348.48, 0.00, 0.00, 0.00
181, 96262.12, 129817.23, 49391.61, 14273.87, 12483.25, 28515.08, 84048.01, 69348.66, 0.07, -0.13, 0.99
182, 96262.01, 129817.54, 49393.15, 14276.57, 12465.75, 28517.25, 84051.19, 69348.59, 0.00, 0.00, 0.00
183, 96262.97, 129817.67, 49390.34, 14276.89, 12470.95, 28520.36, 84053.13, 69351.29, 0.00, 0.00, 0.00
184, 96261.90, 129817.32, 49389.46, 14273.18, 12503.72, 28524.13, 84052.10, 69348.81, 0.00, 0.00, 0.00
185, 96264.78, 129821.41, 49393.78, 14270.22, 12486.98, 28521.03, 84054.88, 69351.41, 0.00, 0.00, 0.00
186, 96264.65, 129826.75, 49394.20, 14268.41, 12455.60, 28520.24, 84059.92, 69351.59, 0.00, 0.00, 0.00
187, 96263.98, 129825.99, 49391.90, 14270.45, 12457.12, 28522.01, 84060.04, 69350.80, 0.00, 0.00, 0.00
188, 96264.40, 129824.56, 49391.79, 14273.85, 12465.99, 28515.71, 84055.84, 69348.25, 0.00, 0.00, 0.00
189, 96263.62, 129816.60, 49389.44, 14271.70, 12506.16, 28517.56, 84052.80, 69348.54, 0.00, 0.00, 0.00
190, 96263.69, 129815.58, 49387.99, 14271.14, 12509.51, 28522.68, 84053.64, 69348.59, 0.00, 0.00, 0.00
191, 96265.85, 129819.24, 49388.73, 14270.90, 12469.79, 28522.23, 84055.23, 69352.32, 0.08, -0.13, 0.99
192, 96271.73, 129822.91, 49387.27, 14268.53, 12455.98, 28522.39, 84058.38, 69358.38, 0.00, 0.00, 0.00
193, 96270.66, 129828.16, 49388.35, 14270.87, 12491.03, 28525.72, 84062.31, 69359.02, 0.00, 0.00, 0.00
194, 96269.66, 129834.53, 49386.38, 14274.43, 12514.96, 28524.04, 84062.63, 69359.05, 0.00, 0.00, 0.00
195, 96267.64, 129822.39, 49381.77, 14269.02, 12477.59, 28514.46, 84058.27, 69357.17, 0.00, 0.00, 0.00
196, 96263.22, 129805.43, 49377.30, 14264.06, 12405.44, 28500.57, 84049.91, 69350.45, 0.00, 0.00, 0.00
197, 96261.34, 129803.59, 49377.64, 14263.68, 12414.31, 28505.13, 84049.51, 69347.27, 0.00, 0.00, 0.00
198, 96263.15, 129806.25, 49377.97, 14263.21, 12496.44, 28515.19, 84049.06, 69346.87, 0.00, 0.00, 0.00
199, 96262.86, 129810.23, 49378.82, 14264.68, 12550.48, 28518.34, 84050.52, 69346.46, 0.00, 0.00, 0.00
200, 96262.01, 129815.80, 49380.55, 14265.04, 12519.77, 28520.36, 84054.54, 69346.62, 0.00, 0.00, 0.00
201, 96260.65, 129820.20, 49379.05, 14260.84, 12464.47, 28516.20, 84054.42, 69347.72, 0.08, -0.13, 0.99
202, 96262.86, 129821.50, 49381.17, 14261.37, 12456.89, 28518.59, 84054.52, 69350.69, 0.00, 0.00, 0.00
203, 96262.32, 129817.61, 49383.56, 14264.61, 12489.51, 28522.12, 84058.00, 69349.99, 0.00, 0.00, 0.00
204, 96260.98, 129812.55, 49374.96, 14258.36, 12511.75, 28515.33, 84057.66, 69347.05, 0.00, 0.00, 0.00
205, 96259.33, 129811.17, 49371.14, 14255.00, 12481.79, 28505.74, 84051.59, 69343.60, 0.00, 0.00, 0.00
206, 96258.52, 129811.13, 49370.60, 14255.67, 12451.64, 28507.46, 84051.74, 69344.25, 0.00, 0.00, 0.00
207, 96258.92, 129808.73, 49365.30, 14251.27, 12437.83, 28507.62, 84049.82, 69343.67, 0.00, 0.00, 0.00
208, 96257.07, 129808.47, 49365.12, 14247.63, 12464.03, 28504.84, 84048.10, 69342.44, 0.00, 0.00, 0.00
209, 96256.78, 129813.72, 49369.48, 14254.22, 12516.84, 28514.21, 84051.72, 69344.25, 0.00, 0.00, 0.00
210, 96260.35, 129819.15, 49371.40, 14260.43, 12511.14, 28519.46, 84055.14, 69349.10, 0.00, 0.00, 0.00
211, 96258.97, 129820.47, 49366.60, 14254.47, 12437.43, 28508.06, 84051.54, 69346.77, 0.08, -0.13, 0.99
212, 96256.35, 129814.26, 49362.55, 14249.19, 12436.55, 28515.88, 84053.51, 69343.13, 0.00, 0.00, 0.00
213, 96255.73, 129815.10, 49363.63, 14244.90, 12498.83, 28513.49, 84050.00, 69340.98, 0.00, 0.00, 0.00
214, 96255.51, 129823.27, 49367.60, 14250.35, 12519.97, 28508.78, 84049.17, 69342.33, 0.00, 0.00, 0.00
215, 96253.63, 129806.39, 49365.50, 14246.26, 12508.55, 28506.81, 84048.21, 69342.04, 0.00, 0.00, 0.00
216, 96254.03, 129796.64, 49368.34, 14241.66, 12450.06, 28498.47, 84048.77, 69342.44, 0.00, 0.00, 0.00
217, 96254.23, 129800.48, 49370.93, 14244.50, 12431.62, 28495.99, 84049.17, 69341.68, 0.00, 0.00, 0.00
218, 96254.63, 129804.91, 49367.67, 14247.36, 12484.81, 28520.80, 84056.82, 69342.98, 0.00, 0.00, 0.00
219, 96254.52, 129808.27, 49369.37, 14248.97, 12505.08, 28521.27, 84058.74, 69341.75, 0.00, 0.00, 0.00
220, 96252.06, 129806.99, 49364.59, 14241.93, 12486.87, 28517.05, 84054.31, 69338.98, 0.00, 0.00, 0.00
221, 96253.49, 129806.52, 49360.81, 14236.65, 12455.93, 28511.75, 84053.45, 69339.22, 0.08, -0.13, 0.99
222, 96252.48, 129808.66, 49359.58, 14235.85, 12449.05, 28506.59, 84051.77, 69337.81, 0.00, 0.00, 0.00
223, 96253.90, 129814.08, 49363.85, 14245.28, 12502.13, 28516.27, 84052.80, 69338.46, 0.00, 0.00, 0.00
224, 96254.30, 129815.10, 49361.23, 14242.82, 12523.30, 28507.95, 84050.83, 69337.70, 0.00, 0.00, 0.00
225, 96257.18, 129812.02, 49361.61, 14240.68, 12512.98, 28507.71, 84050.76, 69341.05, 0.00, 0.00, 0.00
226, 96257.31, 129812.31, 49363.09, 14241.03, 12468.76, 28505.67, 84047.95, 69341.16, 0.00, 0.00, 0.00
227, 96255.98, 129815.82, 49356.85, 14235.40, 12446.93, 28501.24, 84044.59, 69340.43, 0.00, 0.00, 0.00
228, 96256.48, 129818.08, 49356.72, 14232.81, 12476.03, 28498.12, 84044.77, 69341.70, 0.00, 0.00, 0.00
229, 96260.87, 129818.39, 49361.73, 14238.87, 12494.13, 28506.61, 84052.03, 69347.49, 0.00, 0.00, 0.00
230, 96257.45, 129811.71, 49361.61, 14236.05, 12471.69, 28501.51, 84047.49, 69341.57, 0.00, 0.00, 0.00
231, 96250.03, 129803.39, 49355.69, 14228.81, 12465.75, 28508.40, 84042.40, 69332.43, 0.08, -0.13, 0.99
232, 96254.86, 129804.91, 49356.18, 14233.50, 12468.61, 28510.41, 84044.57, 69336.77, 0.00, 0.00, 0.00
233, 96263.13, 129809.18, 49358.95, 14240.23, 12466.33, 28512.64, 84050.06, 69346.53, 0.00, 0.00, 0.00
234, 96266.14, 129811.59, 49361.25, 14240.39, 12492.41, 28515.42, 84049.66, 69350.15, 0.00, 0.00, 0.00
235, 96258.97, 129806.59, 49356.18, 14232.70, 12509.44, 28513.52, 84045.17, 69345.23, 0.00, 0.00, 0.00
236, 96260.34, 129805.94, 49353.43, 14230.08, 12478.53, 28510.50, 84049.10, 69349.66, 0.00, 0.00, 0.00
237, 96262.55, 129811.35, 49357.63, 14235.78, 12454.46, 28514.19, 84056.66, 69354.64, 0.00, 0.00, 0.00
238, 96260.11, 129812.34, 49362.17, 14241.28, 12488.03, 28517.43, 84057.17, 69352.50, 0.00, 0.00, 0.00
239, 96254.23, 129808.00, 49354.06, 14235.38, 12498.07, 28506.41, 84049.62, 69347.40, 0.00, 0.00, 0.00
240, 96256.95, 129817.19, 49356.54, 14239.25, 12490.47, 28510.30, 84051.48, 69351.60, 0.00, 0.00, 0.00
241, 96259.30, 129809.83, 49352.29, 14234.66, 12465.77, 28517.09, 84053.24, 69354.47, 0.08, -0.13, 0.99
242, 96262.05, 129800.87, 49351.18, 14228.25, 12447.98, 28508.55, 84050.52, 69352.88, 0.00, 0.00, 0.00
243, 96264.96, 129804.06, 49349.45, 14230.82, 12455.98, 28507.03, 84055.48, 69355.29, 0.00, 0.00, 0.00
244, 96264.18, 129799.33, 49347.09, 14230.42, 12478.82, 28505.92, 84053.66, 69355.74, 0.00, 0.00, 0.00
245, 96262.77, 129795.88, 49345.25, 14224.07, 12487.23, 28504.55, 84048.32, 69353.95, 0.00, 0.00, 0.00
246, 96263.04, 129797.98, 49346.41, 14228.63, 12469.19, 28513.14, 84053.13, 69353.70, 0.00, 0.00, 0.00
247, 96270.63, 129802.27, 49347.69, 14231.29, 12461.88, 28517.43, 84059.63, 69360.79, 0.00, 0.00, 0.00
248, 96271.28, 129803.91, 49342.77, 14227.96, 12478.93, 28517.90, 84059.86, 69359.61, 0.00, 0.00, 0.00
249, 96273.56, 129809.45, 49345.00, 14236.59, 12512.55, 28521.50, 84059.72, 69357.66, 0.00, 0.00, 0.00
250, 96272.40, 129811.98, 49345.43, 14231.76, 12509.11, 28515.86, 84056.70, 69356.34, 0.00, 0.00, 0.00
251, 96266.68, 129807.73, 49343.13, 14222.28, 12459.51, 28510.54, 84049.22, 69349.93, 0.08, -0.13, 0.98
252, 96264.04, 129802.07, 49343.39, 14217.18, 12435.57, 28517.27, 84044.99, 69345.52, 0.00, 0.00, 0.00
253, 96262.61, 129804.69, 49347.35, 14219.53, 12449.88, 28521.92, 84049.73, 69346.48, 0.00, 0.00, 0.00
254, 96262.45, 129807.93, 49349.21, 14221.70, 12471.45, 28518.63, 84053.13, 69347.05, 0.00, 0.00, 0.00
255, 96263.66, 129807.05, 49344.11, 14217.41, 12465.28, 28516.56, 84055.88, 69348.12, 0.00, 0.00, 0.00
0, 96264.40, 129806.41, 49345.25, 14219.98, 12412.59, 28513.76, 84058.78, 69349.33, 0.00, 0.00, 0.00
1, 96266.05, 129812.60, 49347.33, 14220.36, 12427.59, 28525.92, 84065.65, 69349.33, 0.00, 0.00, 0.00
2, 96265.34, 129811.62, 49344.22, 14218.77, 12518.63, 28530.79, 84064.48, 69346.30, 0.00, 0.00, 0.00
3, 96264.52, 129807.35, 49344.78, 14218.73, 12539.31, 28521.85, 84059.12, 69345.70, 0.00, 0.00, 0.00
4, 96271.46, 129814.48, 49349.72, 14222.68, 12532.38, 28528.94, 84063.48, 69350.22, 0.00, 0.00, 0.00
5, 96273.84, 129817.38, 49348.78, 14223.22, 12488.66, 28523.37, 84061.73, 69350.40, 0.08, -0.13, 0.99
6, 96267.57, 129809.67, 49343.02, 14220.13, 12459.78, 28515.21, 84058.74, 69346.82, 0.00, 0.00, 0.00
7, 96269.07, 129814.32, 49347.57, 14224.85, 12484.79, 28517.52, 84066.12, 69348.79, 0.00, 0.00, 0.00
8, 96261.78, 129802.27, 49343.39, 14217.23, 12506.49, 28504.73, 84062.54, 69341.84, 0.00, 0.00, 0.00
9, 96257.94, 129800.22, 49346.14, 14218.79, 12497.91, 28522.93, 84067.57, 69341.55, 0.00, 0.00, 0.00
10, 96254.50, 129804.13, 49345.86, 14218.37, 12451.82, 28516.67, 84064.66, 69339.96, 0.00, 0.00, 0.00
11, 96258.12, 129809.34, 49347.17, 14222.03, 12444.09, 28519.44, 84065.98, 69341.03, 0.00, 0.00, 0.00
12, 96262.21, 129816.83, 49355.13, 14227.29, 12480.83, 28522.61, 84067.16, 69343.89, 0.00, 0.00, 0.00
13, 96262.61, 129811.41, 49347.91, 14220.18, 12507.12, 28521.00, 84064.93, 69343.91, 0.00, 0.00, 0.00
14, 96257.34, 129803.55, 49341.95, 14214.79, 12484.81, 28516.11, 84060.55, 69336.41, 0.00, 0.00, 0.00
15, 96259.77, 129809.52, 49341.23, 14213.07, 12448.38, 28510.77, 84063.09, 69338.64, 0.08, -0.13, 0.98
16, 96266.08, 129818.57, 49346.19, 14217.07, 12450.66, 28524.83, 84073.87, 69345.93, 0.00, 0.00, 0.00
17, 96262.48, 129816.38, 49348.54, 14219.20, 12492.66, 28522.23, 84072.58, 69345.10, 0.00, 0.00, 0.00
18, 96255.73, 129814.14, 49341.05, 14214.05, 12508.59, 28515.42, 84065.89, 69337.81, 0.00, 0.00, 0.00
19, 96255.68, 129808.96, 49342.75, 14215.06, 12492.90, 28514.07, 84064.30, 69338.38, 0.00, 0.00, 0.00
20, 96260.34, 129810.27, 49346.21, 14217.54, 12457.10, 28516.24, 84068.46, 69344.90, 0.00, 0.00, 0.00
21, 96257.31, 129809.72, 49341.96, 14211.22, 12437.11, 28509.74, 84065.53, 69342.09, 0.00, 0.00, 0.00
22, 96255.73, 129809.90, 49340.31, 14207.57, 12462.66, 28509.11, 84061.89, 69338.23, 0.00, 0.00, 0.00
23, 96260.00, 129811.40, 49340.78, 14206.14, 12482.02, 28509.80, 84063.19, 69339.40, 0.00, 0.00, 0.00
24, 96263.82, 129815.09, 49341.00, 14214.17, 12473.70, 28517.49, 84068.44, 69343.24, 0.00, 0.00, 0.00
25, 96263.64, 129821.19, 49336.85, 14211.13, 12461.90, 28513.47, 84067.16, 69342.59, 0.07, -0.13, 0.99
26, 96262.21, 129826.44, 49338.73, 14207.55, 12446.10, 28508.71, 84067.08, 69342.82, 0.00, 0.00, 0.00
27, 96261.20, 129810.81, 49335.30, 14206.68, 12450.46, 28504.26, 84063.61, 69342.28, 0.00, 0.00, 0.00
28, 96257.65, 129802.52, 49334.10, 14198.59, 12454.01, 28495.43, 84055.66, 69336.00, 0.00, 0.00, 0.00
29, 96256.95, 129810.59, 49336.91, 14197.92, 12446.03, 28498.14, 84054.94, 69335.42, 0.00, 0.00, 0.00
30, 96261.65, 129809.45, 49337.83, 14197.36, 12438.32, 28496.33, 84056.13, 69340.74, 0.00, 0.00, 0.00
