%OpenBCI Raw EEG Data
%Sample Rate = 250.0 Hz
%First Column = SampleIndex
%Other Columns = EEG data in microvolts followed by Accel Data (in G) interleaved with Aux Data
249, 101854.33, 115409.32, 27238.06, 20997.70, 17445.42, 33703.73, 92858.62, 76762.46, 0.00, 0.00, 0.00
250, 101851.11, 115427.49, 27238.71, 20992.13, 17436.24, 33700.17, 92863.00, 76760.34, 0.00, 0.00, 0.00
251, 101853.86, 115475.27, 27241.10, 20992.53, 17442.07, 33705.11, 92884.98, 76765.52, 0.00, 0.00, 0.00
252, 101858.82, 115488.60, 27254.46, 21002.84, 17451.55, 33714.07, 92894.77, 76771.55, 0.00, 0.00, 0.00
253, 101860.77, 115556.68, 27265.69, 21011.96, 17461.34, 33728.63, 92909.59, 76771.45, 0.00, 0.00, 0.00
254, 101851.11, 115526.69, 27257.46, 21000.89, 17453.54, 33711.70, 92900.84, 76761.21, 0.00, 0.00, 0.00
255, 101835.13, 115459.45, 27229.16, 20979.77, 17427.16, 33684.14, 92893.13, 76746.21, 0.09, -0.21, 0.97
0, 101844.36, 115377.35, 27232.87, 20991.15, 17426.38, 33689.69, 92882.91, 76755.20, 0.00, 0.00, 0.00
1, 101855.87, 115436.12, 27244.54, 21002.48, 17438.23, 33699.03, 92849.32, 76768.31, 0.00, 0.00, 0.00
2, 101853.74, 115417.16, 27256.72, 21004.54, 17423.59, 33705.78, 92848.25, 76769.99, 0.00, 0.00, 0.00
3, 101846.57, 115385.42, 27247.58, 20994.72, 17433.58, 33695.52, 92859.16, 76760.47, 0.00, 0.00, 0.00
4, 101858.21, 115457.04, 27255.85, 21001.16, 17458.97, 33711.44, 92882.60, 76769.55, 0.00, 0.00, 0.00
5, 101860.43, 115479.48, 27252.12, 20999.08, 17437.45, 33699.52, 92889.11, 76772.61, 0.00, 0.00, 0.00
6, 101858.84, 115447.16, 27256.81, 21001.50, 17428.50, 33687.90, 92885.22, 76770.66, 0.00, 0.00, 0.00
7, 101860.54, 115509.54, 27263.03, 21000.04, 17456.47, 33706.23, 92899.57, 76773.55, 0.00, 0.00, 0.00
8, 101859.09, 115565.13, 27265.19, 21000.42, 17454.14, 33712.40, 92897.16, 76769.43, 0.00, 0.00, 0.00
9, 101858.21, 115463.77, 27257.44, 20998.59, 17447.84, 33708.71, 92906.77, 76768.38, 0.09, -0.20, 0.98
10, 101855.29, 115465.15, 27256.05, 20998.14, 17443.95, 33700.48, 92888.66, 76762.13, 0.00, 0.00, 0.00
11, 101839.88, 115377.38, 27230.86, 20983.84, 17422.60, 33683.39, 92838.88, 76745.30, 0.00, 0.00, 0.00
12, 101852.27, 115370.73, 27243.51, 20999.29, 17455.10, 33706.18, 92867.90, 76757.48, 0.00, 0.00, 0.00
13, 101856.16, 115398.79, 27248.97, 21004.02, 17469.21, 33716.89, 92880.52, 76762.33, 0.00, 0.00, 0.00
14, 101860.12, 115432.23, 27256.19, 21006.64, 17457.81, 33711.10, 92874.83, 76767.48, 0.00, 0.00, 0.00
15, 101861.86, 115484.98, 27263.79, 21005.95, 17443.26, 33705.36, 92887.50, 76768.77, 0.00, 0.00, 0.00
16, 101855.64, 115511.62, 27259.20, 20996.47, 17458.59, 33703.59, 92880.97, 76763.24, 0.00, 0.00, 0.00
17, 101859.76, 115532.88, 27263.25, 21001.61, 17460.29, 33712.71, 92887.66, 76770.62, 0.00, 0.00, 0.00
18, 101853.30, 115433.91, 27252.14, 20997.88, 17448.89, 33709.36, 92918.75, 76766.88, 0.09, -0.21, 0.98
19, 101859.17, 115474.67, 27257.19, 21003.44, 17450.59, 33724.96, 92910.59, 76771.38, 0.00, 0.00, 0.00
20, 101858.84, 115460.68, 27257.68, 21005.32, 17458.30, 33729.18, 92872.88, 76768.31, 0.00, 0.00, 0.00
21, 101854.46, 115371.41, 27248.74, 20998.88, 17472.22, 33722.48, 92883.41, 76763.66, 0.00, 0.00, 0.00
22, 101851.40, 115477.47, 27255.76, 21000.60, 17465.61, 33723.86, 92863.96, 76760.96, 0.00, 0.00, 0.00
23, 101835.57, 115523.49, 27245.59, 20985.81, 17438.67, 33692.86, 92845.70, 76743.35, 0.00, 0.00, 0.00
24, 101841.97, 115522.95, 27259.31, 20993.63, 17443.61, 33697.46, 92880.68, 76750.05, 0.00, 0.00, 0.00
25, 101851.27, 115460.63, 27267.92, 20999.98, 17449.20, 33709.36, 92890.83, 76755.35, 0.00, 0.00, 0.00
26, 101851.80, 115423.84, 27260.10, 20999.22, 17449.51, 33709.47, 92872.92, 76753.70, 0.00, 0.00, 0.00
27, 101854.28, 115438.58, 27270.51, 21002.10, 17451.91, 33713.07, 92851.91, 76759.45, 0.00, 0.00, 0.00
28, 101844.65, 115383.05, 27250.82, 20997.81, 17432.37, 33708.02, 92845.26, 76751.44, 0.08, -0.21, 0.97
29, 101855.80, 115392.58, 27240.27, 20997.92, 17421.71, 33715.13, 92873.33, 76764.85, 0.00, 0.00, 0.00
30, 101857.19, 115470.54, 27249.55, 21000.29, 17458.08, 33714.97, 92896.80, 76766.46, 0.00, 0.00, 0.00
31, 101848.54, 115480.28, 27247.20, 20998.08, 17459.04, 33709.69, 92888.33, 76759.04, 0.00, 0.00, 0.00
32, 101853.07, 115471.30, 27250.15, 20996.33, 17455.57, 33715.46, 92893.69, 76765.68, 0.00, 0.00, 0.00
33, 101865.34, 115460.86, 27253.77, 20992.38, 17446.90, 33713.70, 92892.33, 76777.84, 0.00, 0.00, 0.00
34, 101874.51, 115505.27, 27237.79, 20981.52, 17421.37, 33687.27, 92863.29, 76790.98, 0.00, 0.00, 0.00
35, 101856.76, 115534.02, 27246.51, 20990.97, 17427.05, 33699.14, 92846.04, 76761.95, 0.00, 0.00, 0.00
36, 101832.80, 115404.76, 27236.02, 20988.91, 17432.55, 33709.36, 92848.83, 76732.20, 0.00, 0.00, 0.00
37, 101865.57, 115459.98, 27259.27, 21008.81, 17459.66, 33722.93, 92848.05, 76767.87, 0.00, 0.00, 0.00
38, 101873.62, 115461.84, 27261.17, 21003.31, 17431.81, 33711.84, 92856.41, 76773.75, 0.08, -0.21, 0.98
39, 101860.85, 115393.18, 27248.81, 20993.56, 17433.87, 33702.27, 92845.66, 76756.96, 0.00, 0.00, 0.00
40, 101872.88, 115436.77, 27260.10, 21005.12, 17464.71, 33709.94, 92861.73, 76766.98, 0.00, 0.00, 0.00
41, 101876.61, 115490.55, 27264.54, 21009.39, 17451.53, 33719.93, 92874.96, 76775.29, 0.00, 0.00, 0.00
42, 101881.91, 115493.83, 27262.71, 21009.77, 17449.31, 33715.41, 92879.20, 76782.64, 0.00, 0.00, 0.00
43, 101880.55, 115495.95, 27260.90, 21012.88, 17458.48, 33709.40, 92882.65, 76782.38, 0.00, 0.00, 0.00
44, 101877.35, 115486.61, 27268.79, 21020.23, 17459.84, 33712.66, 92897.96, 76781.19, 0.00, 0.00, 0.00
45, 101882.45, 115519.63, 27270.11, 21024.01, 17466.75, 33712.38, 92844.07, 76788.07, 0.00, 0.00, 0.00
46, 101879.67, 115506.03, 27257.21, 21019.36, 17460.36, 33717.65, 92850.22, 76789.59, 0.00, 0.00, 0.00
47, 101876.92, 115512.42, 27256.97, 21014.13, 17438.63, 33724.07, 92853.63, 76785.88, 0.00, 0.00, 0.00
48, 101879.20, 115510.33, 27246.42, 21002.44, 17444.73, 33710.25, 92861.50, 76785.93, 0.08, -0.20, 0.98
49, 101879.63, 115562.00, 27243.56, 20996.40, 17460.69, 33719.46, 92857.93, 76784.54, 0.00, 0.00, 0.00
50, 101879.78, 115506.19, 27256.90, 20999.60, 17453.54, 33718.61, 92845.27, 76783.27, 0.00, 0.00, 0.00
51, 101875.90, 115439.31, 27248.14, 20998.99, 17449.25, 33710.30, 92855.58, 76778.09, 0.00, 0.00, 0.00
52, 101877.99, 115427.82, 27241.61, 20996.92, 17444.31, 33704.53, 92890.78, 76781.70, 0.00, 0.00, 0.00
53, 101877.73, 115463.99, 27251.63, 21003.33, 17443.12, 33703.30, 92855.78, 76781.44, 0.00, 0.00, 0.00
54, 101878.22, 115512.65, 27253.55, 21004.34, 17440.51, 33701.54, 92831.55, 76779.91, 0.00, 0.00, 0.00
55, 101875.34, 115462.73, 27244.45, 20996.92, 17435.48, 33698.45, 92830.01, 76776.66, 0.00, 0.00, 0.00
56, 101874.35, 115457.17, 27244.50, 21000.49, 17436.84, 33695.23, 92828.98, 76774.28, 0.00, 0.00, 0.00
57, 101885.57, 115510.03, 27255.40, 21010.66, 17443.52, 33705.63, 92843.82, 76785.21, 0.00, 0.00, 0.00
58, 101885.41, 115632.97, 27261.44, 21008.29, 17445.92, 33711.28, 92861.95, 76785.08, 0.08, -0.20, 0.98
59, 101880.05, 115553.13, 27262.49, 21002.79, 17434.18, 33707.28, 92839.89, 76780.92, 0.00, 0.00, 0.00
60, 101878.20, 115420.67, 27249.77, 20993.96, 17428.62, 33699.01, 92839.55, 76779.05, 0.00, 0.00, 0.00
61, 101872.59, 115422.66, 27241.32, 20983.21, 17421.53, 33694.89, 92853.01, 76773.84, 0.00, 0.00, 0.00
62, 101880.01, 115433.41, 27239.73, 20985.43, 17424.66, 33702.72, 92838.17, 76778.38, 0.00, 0.00, 0.00
63, 101881.05, 115487.77, 27238.01, 20986.46, 17420.48, 33691.36, 92825.95, 76777.48, 0.00, 0.00, 0.00
64, 101878.40, 115544.12, 27237.03, 20984.40, 17411.88, 33687.43, 92820.38, 76774.95, 0.00, 0.00, 0.00
65, 101881.02, 115540.45, 27239.33, 20991.77, 17432.53, 33691.88, 92827.93, 76773.88, 0.00, 0.00, 0.00
66, 101864.67, 115480.44, 27226.30, 20977.42, 17419.68, 33672.81, 92803.12, 76755.35, 0.00, 0.00, 0.00
67, 101877.44, 115561.87, 27251.71, 20989.70, 17420.14, 33685.66, 92819.73, 76768.83, 0.00, 0.00, 0.00
68, 101874.29, 115540.73, 27244.63, 20990.43, 17424.66, 33676.57, 92818.70, 76767.71, 0.07, -0.21, 0.98
69, 101868.88, 115461.17, 27223.28, 20982.45, 17403.58, 33665.93, 92805.83, 76761.09, 0.00, 0.00, 0.00
70, 101865.19, 115462.20, 27222.28, 20978.92, 17402.51, 33681.71, 92814.92, 76753.95, 0.00, 0.00, 0.00
71, 101875.74, 115427.09, 27221.88, 20976.37, 17391.51, 33679.56, 92825.36, 76760.27, 0.00, 0.00, 0.00
72, 101905.66, 115507.62, 27233.50, 20992.15, 17432.75, 33684.66, 92830.73, 76793.75, 0.00, 0.00, 0.00
73, 101853.09, 115496.06, 27223.08, 20984.44, 17416.39, 33676.50, 92821.90, 76756.71, 0.00, 0.00, 0.00
74, 101835.23, 115480.71, 27225.12, 20986.95, 17441.11, 33690.61, 92829.79, 76743.28, 0.00, 0.00, 0.00
75, 101841.00, 115385.91, 27226.86, 20982.88, 17428.66, 33678.73, 92802.00, 76745.94, 0.00, 0.00, 0.00
76, 101832.58, 115407.66, 27225.83, 20984.33, 17421.80, 33678.22, 92817.20, 76737.00, 0.00, 0.00, 0.00
77, 101832.11, 115553.58, 27251.49, 20995.48, 17448.46, 33700.02, 92838.66, 76737.67, 0.00, 0.00, 0.00
78, 101835.95, 115512.78, 27236.70, 20990.54, 17429.46, 33695.88, 92837.79, 76740.38, 0.07, -0.20, 0.98
79, 101792.10, 115437.62, 27199.43, 20960.86, 17408.46, 33668.14, 92787.01, 76691.49, 0.00, 0.00, 0.00
80, 101814.96, 115467.74, 27223.40, 20984.73, 17427.92, 33691.14, 92810.50, 76713.66, 0.00, 0.00, 0.00
81, 101820.40, 115391.57, 27236.90, 20994.61, 17438.70, 33702.03, 92828.31, 76721.71, 0.00, 0.00, 0.00
82, 101822.70, 115441.46, 27232.87, 20996.36, 17439.57, 33703.73, 92815.80, 76723.37, 0.00, 0.00, 0.00
83, 101831.80, 115406.21, 27222.21, 20991.75, 17430.22, 33697.46, 92829.54, 76732.02, 0.00, 0.00, 0.00
84, 101835.53, 115408.84, 27224.33, 20987.53, 17419.03, 33691.83, 92818.37, 76738.05, 0.00, 0.00, 0.00
85, 101831.70, 115457.82, 27228.65, 20983.28, 17417.46, 33685.53, 92797.29, 76735.73, 0.00, 0.00, 0.00
86, 101835.57, 115496.96, 27237.16, 20980.38, 17418.00, 33685.73, 92826.63, 76738.14, 0.00, 0.00, 0.00
87, 101826.79, 115477.13, 27236.56, 20986.30, 17413.64, 33673.48, 92810.12, 76730.61, 0.00, 0.00, 0.00
88, 101819.08, 115454.67, 27221.74, 20988.15, 17417.62, 33678.71, 92804.17, 76726.74, 0.07, -0.20, 0.98
89, 101830.37, 115500.29, 27235.91, 20993.34, 17419.88, 33686.60, 92813.42, 76736.42, 0.00, 0.00, 0.00
90, 101824.51, 115537.37, 27234.57, 20986.28, 17415.05, 33680.32, 92804.40, 76729.06, 0.00, 0.00, 0.00
91, 101826.03, 115559.72, 27228.16, 20983.30, 17416.17, 33679.59, 92809.89, 76727.81, 0.00, 0.00, 0.00
92, 101834.19, 115613.01, 27251.04, 20996.24, 17420.93, 33692.06, 92811.68, 76735.34, 0.00, 0.00, 0.00
93, 101819.41, 115469.06, 27229.03, 20976.73, 17392.81, 33666.80, 92812.58, 76725.58, 0.00, 0.00, 0.00
94, 101814.98, 115346.91, 27208.17, 20968.64, 17367.39, 33653.25, 92795.19, 76721.04, 0.00, 0.00, 0.00
95, 101828.60, 115425.37, 27226.28, 20982.70, 17350.23, 33661.64, 92791.12, 76728.59, 0.00, 0.00, 0.00
96, 101832.82, 115454.27, 27229.34, 20978.01, 17373.92, 33660.32, 92802.48, 76733.49, 0.00, 0.00, 0.00
97, 101830.59, 115476.20, 27225.43, 20976.69, 17440.06, 33692.55, 92810.50, 76733.45, 0.00, 0.00, 0.00
98, 101828.46, 115485.72, 27226.66, 20977.07, 17432.19, 33693.71, 92839.17, 76734.85, 0.08, -0.20, 0.98
99, 101831.33, 115474.56, 27225.79, 20972.62, 17415.90, 33672.95, 92799.27, 76735.44, 0.00, 0.00, 0.00
100, 101836.65, 115527.34, 27238.08, 20981.65, 17422.54, 33678.02, 92813.02, 76738.74, 0.00, 0.00, 0.00
101, 101830.30, 115582.27, 27232.38, 20982.36, 17435.08, 33682.98, 92805.98, 76734.56, 0.00, 0.00, 0.00
102, 101834.03, 115576.59, 27240.16, 20991.89, 17436.75, 33692.68, 92806.20, 76742.68, 0.00, 0.00, 0.00
103, 101829.00, 115529.05, 27232.27, 20977.07, 17412.30, 33679.74, 92816.02, 76735.52, 0.00, 0.00, 0.00
104, 101826.99, 115368.99, 27217.12, 20971.81, 17413.86, 33679.07, 92836.98, 76730.20, 0.00, 0.00, 0.00
105, 101827.19, 115372.98, 27226.35, 20977.31, 17423.65, 33689.31, 92832.13, 76731.16, 0.00, 0.00, 0.00
106, 101828.80, 115462.02, 27236.07, 20985.74, 17428.50, 33697.13, 92805.06, 76731.19, 0.00, 0.00, 0.00
107, 101832.06, 115429.61, 27227.93, 20984.62, 17431.97, 33686.34, 92779.77, 76732.15, 0.00, 0.00, 0.00
108, 101825.31, 115462.65, 27226.75, 20982.19, 17423.50, 33675.41, 92782.89, 76728.80, 0.08, -0.20, 0.99
109, 101836.47, 115561.11, 27242.80, 20997.96, 17431.90, 33689.69, 92803.05, 76739.30, 0.00, 0.00, 0.00
110, 101824.84, 115508.24, 27222.72, 20981.31, 17419.36, 33678.51, 92799.88, 76724.28, 0.00, 0.00, 0.00
111, 101823.05, 115405.74, 27221.27, 20982.16, 17422.51, 33689.04, 92826.19, 76724.75, 0.00, 0.00, 0.00
112, 101834.41, 115462.36, 27235.02, 20997.12, 17437.67, 33702.83, 92807.14, 76735.70, 0.00, 0.00, 0.00
113, 101833.23, 115555.99, 27244.00, 20997.00, 17431.37, 33690.25, 92798.70, 76735.15, 0.00, 0.00, 0.00
114, 101813.45, 115540.95, 27227.91, 20974.09, 17408.19, 33670.27, 92797.96, 76717.84, 0.00, 0.00, 0.00
115, 101828.24, 115474.72, 27235.82, 20981.49, 17418.11, 33684.50, 92804.93, 76731.93, 0.00, 0.00, 0.00
116, 101827.70, 115439.13, 27227.75, 20985.45, 17414.11, 33681.60, 92785.77, 76729.20, 0.00, 0.00, 0.00
117, 101822.48, 115384.75, 27211.77, 20979.26, 17414.67, 33678.45, 92788.68, 76726.14, 0.00, 0.00, 0.00
118, 101835.55, 115436.56, 27231.31, 20990.52, 17422.87, 33689.78, 92834.52, 76742.16, 0.08, -0.21, 0.98
119, 101834.01, 115492.20, 27238.82, 20992.96, 17418.98, 33688.68, 92809.58, 76740.95, 0.00, 0.00, 0.00
120, 101820.98, 115474.83, 27221.25, 20978.88, 17401.37, 33677.95, 92805.69, 76726.00, 0.00, 0.00, 0.00
121, 101834.08, 115540.73, 27239.20, 20992.78, 17411.63, 33690.54, 92804.10, 76737.90, 0.00, 0.00, 0.00
122, 101825.78, 115494.63, 27231.73, 20980.87, 17376.76, 33664.32, 92780.28, 76729.13, 0.00, 0.00, 0.00
123, 101826.81, 115517.12, 27240.94, 20991.04, 17384.13, 33681.93, 92800.95, 76729.71, 0.00, 0.00, 0.00
124, 101825.16, 115499.57, 27226.90, 20983.71, 17377.90, 33674.62, 92789.42, 76723.59, 0.00, 0.00, 0.00
125, 101829.20, 115455.72, 27227.58, 20981.11, 17412.01, 33677.37, 92768.25, 76726.52, 0.00, 0.00, 0.00
126, 101825.09, 115438.28, 27230.10, 20979.37, 17436.39, 33676.68, 92792.34, 76724.04, 0.00, 0.00, 0.00
127, 101824.95, 115443.47, 27223.26, 20978.30, 17418.78, 33672.86, 92794.78, 76721.06, 0.00, 0.00, 0.00
128, 101831.10, 115517.34, 27229.32, 20981.67, 17405.32, 33676.55, 92791.95, 76723.91, 0.08, -0.21, 0.98
129, 101838.55, 115548.10, 27229.86, 20987.08, 17406.62, 33692.28, 92797.35, 76734.07, 0.00, 0.00, 0.00
130, 101829.02, 115459.59, 27230.12, 20987.42, 17405.08, 33693.22, 92790.78, 76724.57, 0.00, 0.00, 0.00
131, 101824.44, 115417.72, 27219.93, 20984.06, 17414.58, 33676.84, 92780.75, 76720.66, 0.00, 0.00, 0.00
132, 101817.96, 115433.26, 27215.46, 20977.36, 17413.91, 33668.05, 92763.34, 76716.73, 0.00, 0.00, 0.00
133, 101825.56, 115480.87, 27233.03, 20985.40, 17411.03, 33674.98, 92774.71, 76723.50, 0.00, 0.00, 0.00
134, 101827.66, 115554.13, 27247.09, 20990.37, 17409.64, 33677.80, 92784.28, 76726.90, 0.00, 0.00, 0.00
135, 101817.52, 115480.59, 27218.86, 20974.79, 17394.71, 33667.63, 92801.83, 76712.84, 0.00, 0.00, 0.00
136, 101816.39, 115402.74, 27210.57, 20971.77, 17395.15, 33661.35, 92812.30, 76709.51, 0.00, 0.00, 0.00
137, 101826.30, 115478.48, 27237.07, 20984.02, 17404.03, 33668.81, 92790.67, 76720.04, 0.00, 0.00, 0.00
138, 101824.91, 115574.97, 27243.67, 20983.01, 17386.77, 33662.87, 92753.19, 76720.55, 0.08, -0.20, 0.99
139, 101829.16, 115576.09, 27236.94, 20980.71, 17398.40, 33683.30, 92779.36, 76724.66, 0.00, 0.00, 0.00
140, 101818.49, 115440.07, 27226.84, 20985.74, 17408.43, 33675.38, 92785.73, 76718.34, 0.00, 0.00, 0.00
141, 101819.26, 115341.59, 27212.82, 20984.76, 17406.33, 33675.00, 92785.02, 76718.45, 0.00, 0.00, 0.00
142, 101825.27, 115389.96, 27215.33, 20984.80, 17407.00, 33684.59, 92772.68, 76722.67, 0.00, 0.00, 0.00
143, 101810.83, 115406.70, 27211.64, 20976.51, 17398.80, 33663.49, 92765.62, 76709.38, 0.00, 0.00, 0.00
144, 101787.07, 115453.48, 27196.89, 20951.96, 17372.33, 33636.07, 92770.17, 76689.19, 0.00, 0.00, 0.00
145, 101840.04, 115633.08, 27264.61, 21007.09, 17418.54, 33690.80, 92822.50, 76741.49, 0.00, 0.00, 0.00
146, 101812.95, 115448.79, 27226.99, 20975.30, 17396.21, 33654.98, 92775.59, 76710.05, 0.00, 0.00, 0.00
147, 101812.53, 115439.34, 27228.42, 20974.16, 17389.75, 33649.68, 92765.55, 76710.80, 0.00, 0.00, 0.00
148, 101817.22, 115483.21, 27233.34, 20980.93, 17390.53, 33661.93, 92775.13, 76715.37, 0.08, -0.21, 0.99
149, 101814.59, 115500.71, 27237.05, 20983.55, 17389.08, 33675.61, 92795.95, 76715.07, 0.00, 0.00, 0.00
150, 101817.13, 115586.23, 27255.78, 20986.16, 17394.89, 33667.71, 92795.84, 76720.04, 0.00, 0.00, 0.00
151, 101816.33, 115446.66, 27225.83, 20976.24, 17383.13, 33657.97, 92772.55, 76715.97, 0.00, 0.00, 0.00
152, 101816.35, 115356.32, 27212.02, 20972.33, 17370.59, 33655.00, 92797.24, 76715.23, 0.00, 0.00, 0.00
153, 101817.09, 115451.85, 27217.81, 20971.77, 17368.56, 33652.47, 92776.97, 76714.65, 0.00, 0.00, 0.00
154, 101809.89, 115430.04, 27211.84, 20964.68, 17393.70, 33650.35, 92761.10, 76707.50, 0.00, 0.00, 0.00
155, 101812.38, 115438.80, 27224.40, 20977.51, 17432.77, 33667.83, 92784.57, 76712.50, 0.00, 0.00, 0.00
156, 101803.09, 115517.41, 27216.24, 20971.14, 17419.70, 33662.96, 92779.52, 76704.95, 0.00, 0.00, 0.00
157, 101804.03, 115601.03, 27216.24, 20965.00, 17405.93, 33662.13, 92782.52, 76706.13, 0.00, 0.00, 0.00
158, 101810.83, 115555.36, 27227.78, 20974.23, 17397.90, 33661.46, 92797.00, 76711.59, 0.08, -0.20, 0.98
159, 101814.43, 115446.45, 27218.63, 20967.14, 17384.47, 33652.02, 92784.73, 76711.68, 0.00, 0.00, 0.00
160, 101811.70, 115358.04, 27205.78, 20958.27, 17381.36, 33653.25, 92768.92, 76711.66, 0.00, 0.00, 0.00
161, 101815.77, 115428.30, 27216.82, 20967.12, 17412.99, 33670.31, 92804.08, 76719.63, 0.00, 0.00, 0.00
162, 101812.70, 115464.81, 27222.39, 20970.65, 17405.46, 33674.22, 92818.16, 76715.38, 0.00, 0.00, 0.00
163, 101811.59, 115500.11, 27221.23, 20966.25, 17390.06, 33680.93, 92783.43, 76712.88, 0.00, 0.00, 0.00
164, 101819.32, 115523.52, 27220.06, 20968.64, 17409.24, 33672.12, 92754.69, 76722.90, 0.00, 0.00, 0.00
165, 101811.88, 115528.52, 27221.25, 20970.76, 17401.41, 33655.16, 92769.66, 76720.21, 0.00, 0.00, 0.00
166, 101800.77, 115388.66, 27207.79, 20961.51, 17398.78, 33655.18, 92782.94, 76710.58, 0.00, 0.00, 0.00
167, 101807.68, 115416.05, 27209.96, 20957.58, 17403.25, 33665.75, 92786.52, 76717.29, 0.00, 0.00, 0.00
168, 101798.22, 115415.42, 27215.17, 20957.55, 17388.25, 33654.20, 92775.07, 76706.89, 0.08, -0.20, 0.98
169, 101800.63, 115423.69, 27214.16, 20960.53, 17384.65, 33652.90, 92781.06, 76706.42, 0.00, 0.00, 0.00
170, 101812.35, 115459.50, 27214.81, 20964.93, 17391.47, 33663.60, 92795.34, 76715.61, 0.00, 0.00, 0.00
171, 101816.51, 115491.55, 27220.65, 20970.18, 17403.78, 33673.98, 92767.20, 76718.85, 0.00, 0.00, 0.00
172, 101801.30, 115489.56, 27208.40, 20957.40, 17394.08, 33662.55, 92746.84, 76702.04, 0.00, 0.00, 0.00
173, 101811.30, 115470.13, 27224.22, 20969.71, 17403.69, 33677.57, 92778.02, 76709.35, 0.00, 0.00, 0.00
174, 101797.02, 115460.57, 27213.11, 20959.41, 17379.35, 33662.44, 92787.14, 76694.42, 0.00, 0.00, 0.00
175, 101807.07, 115560.17, 27232.83, 20967.66, 17363.21, 33668.07, 92751.53, 76705.22, 0.00, 0.00, 0.00
176, 101809.53, 115593.16, 27238.33, 20973.65, 17403.98, 33676.32, 92776.34, 76707.38, 0.00, 0.00, 0.00
177, 101805.66, 115486.85, 27225.41, 20977.36, 17421.51, 33686.02, 92792.10, 76703.61, 0.00, 0.00, 0.00
178, 101794.71, 115435.20, 27208.80, 20959.48, 17387.53, 33658.35, 92779.80, 76691.72, 0.08, -0.21, 0.98
179, 101796.48, 115337.66, 27196.10, 20956.79, 17383.93, 33654.86, 92773.33, 76694.66, 0.00, 0.00, 0.00
180, 101803.56, 115385.80, 27212.38, 20966.74, 17410.00, 33670.96, 92758.13, 76700.88, 0.00, 0.00, 0.00
181, 101814.02, 115545.06, 27235.96, 20983.73, 17421.75, 33682.27, 92771.54, 76710.02, 0.00, 0.00, 0.00
182, 101804.01, 115643.77, 27242.04, 20975.23, 17394.08, 33672.54, 92776.43, 76696.97, 0.00, 0.00, 0.00
183, 101809.91, 115484.44, 27246.17, 20988.60, 17419.92, 33686.18, 92785.58, 76702.71, 0.00, 0.00, 0.00
184, 101806.52, 115360.66, 27230.03, 20983.66, 17416.54, 33685.64, 92771.45, 76700.37, 0.00, 0.00, 0.00
185, 101810.20, 115383.68, 27236.14, 20977.80, 17397.35, 33685.62, 92816.47, 76701.48, 0.00, 0.00, 0.00
186, 101802.42, 115421.03, 27229.41, 20973.29, 17407.40, 33680.64, 92796.48, 76692.50, 0.00, 0.00, 0.00
187, 101801.66, 115467.72, 27228.45, 20976.26, 17413.21, 33667.71, 92754.46, 76693.48, 0.00, 0.00, 0.00
188, 101789.04, 115436.67, 27213.63, 20964.57, 17389.52, 33659.82, 92746.73, 76681.37, 0.08, -0.20, 0.98
189, 101811.92, 115476.06, 27241.61, 20986.37, 17401.14, 33681.15, 92775.90, 76706.55, 0.00, 0.00, 0.00
190, 101807.88, 115495.91, 27235.33, 20978.59, 17408.43, 33676.39, 92764.23, 76702.42, 0.00, 0.00, 0.00
191, 101813.00, 115559.25, 27242.71, 20984.22, 17432.66, 33688.30, 92781.77, 76707.74, 0.00, 0.00, 0.00
192, 101814.88, 115618.51, 27252.63, 20989.79, 17429.80, 33691.81, 92803.88, 76711.19, 0.00, 0.00, 0.00
193, 101794.22, 115533.30, 27233.21, 20966.18, 17391.13, 33661.86, 92783.01, 76688.43, 0.00, 0.00, 0.00
194, 101802.78, 115419.66, 27232.04, 20968.35, 17388.18, 33666.09, 92805.20, 76696.72, 0.00, 0.00, 0.00
195, 101814.30, 115410.19, 27239.04, 20982.59, 17404.61, 33682.96, 92810.09, 76711.05, 0.00, 0.00, 0.00
196, 101809.82, 115471.99, 27234.41, 20976.60, 17405.12, 33682.49, 92774.89, 76705.69, 0.00, 0.00, 0.00
197, 101796.79, 115402.68, 27213.90, 20965.02, 17397.10, 33661.03, 92735.46, 76695.92, 0.00, 0.00, 0.00
198, 101801.35, 115388.93, 27219.69, 20973.69, 17396.68, 33664.52, 92766.66, 76702.78, 0.08, -0.20, 0.98
199, 101805.22, 115471.14, 27226.97, 20974.43, 17393.99, 33671.02, 92795.48, 76707.30, 0.00, 0.00, 0.00
200, 101801.64, 115467.21, 27222.93, 20967.46, 17392.16, 33666.04, 92779.65, 76702.27, 0.00, 0.00, 0.00
201, 101805.33, 115532.27, 27230.08, 20969.67, 17374.97, 33660.92, 92762.71, 76704.73, 0.00, 0.00, 0.00
202, 101808.46, 115536.45, 27236.40, 20970.74, 17392.70, 33663.43, 92770.80, 76706.60, 0.00, 0.00, 0.00
203, 101803.01, 115446.22, 27229.88, 20963.68, 17407.34, 33666.40, 92784.08, 76699.96, 0.00, 0.00, 0.00
204, 101818.63, 115490.88, 27239.56, 20965.87, 17394.28, 33664.59, 92816.71, 76714.11, 0.00, 0.00, 0.00
205, 101813.35, 115481.16, 27203.97, 20940.54, 17367.46, 33642.57, 92782.67, 76711.85, 0.00, 0.00, 0.00
206, 101813.06, 115535.73, 27214.92, 20952.79, 17384.38, 33663.94, 92771.59, 76710.52, 0.00, 0.00, 0.00
207, 101789.30, 115512.56, 27224.16, 20961.89, 17384.22, 33653.46, 92764.74, 76682.98, 0.00, 0.00, 0.00
208, 101801.76, 115430.57, 27215.30, 20953.96, 17362.03, 33647.40, 92745.43, 76696.39, 0.08, -0.20, 0.98
209, 101824.44, 115460.63, 27216.76, 20955.47, 17371.39, 33657.93, 92754.51, 76721.00, 0.00, 0.00, 0.00
210, 101826.88, 115422.10, 27224.27, 20967.72, 17402.20, 33674.80, 92768.84, 76717.60, 0.00, 0.00, 0.00
211, 101820.75, 115403.48, 27234.37, 20970.50, 17386.39, 33673.95, 92765.91, 76706.89, 0.00, 0.00, 0.00
212, 101822.50, 115438.42, 27245.97, 20971.03, 17369.88, 33672.30, 92770.60, 76708.79, 0.00, 0.00, 0.00
213, 101819.03, 115461.71, 27248.70, 20965.89, 17374.93, 33668.86, 92778.09, 76711.63, 0.00, 0.00, 0.00
214, 101827.59, 115507.42, 27233.77, 20963.23, 17419.21, 33679.14, 92779.79, 76718.85, 0.00, 0.00, 0.00
215, 101824.51, 115507.11, 27215.64, 20955.41, 17393.39, 33658.20, 92780.05, 76712.59, 0.00, 0.00, 0.00
216, 101842.21, 115561.22, 27226.41, 20961.33, 17395.78, 33657.95, 92801.34, 76732.89, 0.00, 0.00, 0.00
217, 101853.30, 115661.87, 27245.95, 20972.11, 17436.06, 33682.80, 92771.16, 76746.32, 0.00, 0.00, 0.00
218, 101838.75, 115549.06, 27231.93, 20960.37, 17406.13, 33663.76, 92746.15, 76728.75, 0.08, -0.20, 0.98
219, 101829.13, 115369.51, 27216.11, 20958.11, 17365.12, 33647.89, 92777.08, 76718.43, 0.00, 0.00, 0.00
220, 101829.54, 115381.73, 27207.19, 20952.95, 17392.54, 33651.06, 92748.02, 76719.21, 0.00, 0.00, 0.00
221, 101834.25, 115453.08, 27215.42, 20955.63, 17406.42, 33660.25, 92751.60, 76722.41, 0.00, 0.00, 0.00
222, 101843.59, 115472.69, 27226.08, 20962.70, 17404.72, 33667.47, 92776.08, 76730.92, 0.00, 0.00, 0.00
223, 101838.14, 115499.38, 27226.64, 20956.21, 17383.89, 33655.31, 92760.61, 76723.88, 0.00, 0.00, 0.00
224, 101834.86, 115476.10, 27224.94, 20950.02, 17373.72, 33648.16, 92770.35, 76720.62, 0.00, 0.00, 0.00
225, 101839.48, 115429.08, 27223.78, 20956.86, 17380.49, 33660.45, 92776.74, 76726.92, 0.00, 0.00, 0.00
226, 101831.44, 115410.26, 27210.63, 20945.77, 17378.01, 33657.50, 92772.41, 76720.39, 0.00, 0.00, 0.00
227, 101832.63, 115460.30, 27217.67, 20950.29, 17383.29, 33660.86, 92782.87, 76722.49, 0.00, 0.00, 0.00
228, 101836.29, 115532.88, 27220.31, 20954.78, 17381.59, 33655.85, 92790.31, 76724.66, 0.09, -0.21, 0.98
229, 101844.29, 115561.55, 27238.53, 20963.83, 17380.89, 33660.09, 92779.14, 76734.45, 0.00, 0.00, 0.00
230, 101842.14, 115558.20, 27229.59, 20956.32, 17365.83, 33654.08, 92726.30, 76735.88, 0.00, 0.00, 0.00
231, 101837.52, 115500.60, 27221.09, 20948.90, 17361.56, 33651.33, 92739.75, 76730.32, 0.00, 0.00, 0.00
232, 101832.63, 115398.39, 27214.88, 20943.74, 17361.18, 33650.24, 92745.41, 76728.46, 0.00, 0.00, 0.00
233, 101842.45, 115470.60, 27230.57, 20957.49, 17383.60, 33656.34, 92777.82, 76739.88, 0.00, 0.00, 0.00
234, 101834.21, 115501.38, 27222.12, 20953.11, 17363.48, 33648.56, 92790.94, 76730.90, 0.00, 0.00, 0.00
235, 101841.36, 115432.09, 27219.30, 20959.52, 17371.89, 33659.02, 92788.75, 76737.16, 0.00, 0.00, 0.00
236, 101835.75, 115460.15, 27223.46, 20957.75, 17388.38, 33676.41, 92781.28, 76730.16, 0.00, 0.00, 0.00
237, 101822.09, 115428.67, 27217.63, 20948.81, 17370.46, 33650.24, 92768.25, 76714.38, 0.00, 0.00, 0.00
238, 101835.73, 115547.07, 27232.00, 20963.61, 17383.29, 33648.89, 92779.31, 76725.34, 0.09, -0.21, 0.98
239, 101824.71, 115465.22, 27225.70, 20954.94, 17358.50, 33629.74, 92746.10, 76716.86, 0.00, 0.00, 0.00
240, 101839.04, 115450.96, 27241.41, 20970.88, 17388.38, 33660.23, 92791.56, 76736.84, 0.00, 0.00, 0.00
241, 101835.51, 115451.49, 27220.02, 20950.96, 17378.46, 33647.06, 92773.13, 76732.04, 0.00, 0.00, 0.00
242, 101816.91, 115451.77, 27213.99, 20935.43, 17357.56, 33631.66, 92760.79, 76711.61, 0.00, 0.00, 0.00
243, 101819.21, 115446.51, 27212.26, 20943.00, 17344.51, 33633.94, 92774.98, 76714.23, 0.00, 0.00, 0.00
244, 101822.98, 115547.16, 27219.10, 20944.84, 17351.37, 33634.32, 92745.41, 76719.92, 0.00, 0.00, 0.00
245, 101828.42, 115584.33, 27235.73, 20948.68, 17381.36, 33654.08, 92747.20, 76727.52, 0.00, 0.00, 0.00
246, 101825.70, 115445.88, 27225.97, 20947.34, 17378.88, 33650.17, 92753.48, 76724.70, 0.00, 0.00, 0.00
247, 101831.64, 115454.65, 27227.73, 20959.05, 17384.83, 33647.22, 92776.03, 76728.64, 0.00, 0.00, 0.00
248, 101826.01, 115414.97, 27231.08, 20961.87, 17371.69, 33637.72, 92771.23, 76718.72, 0.08, -0.21, 0.98
249, 101824.06, 115460.93, 27238.82, 20963.74, 17365.16, 33641.18, 92782.47, 76718.29, 0.00, 0.00, 0.00
250, 101820.20, 115434.46, 27228.16, 20954.34, 17372.24, 33636.02, 92768.66, 76713.15, 0.00, 0.00, 0.00
251, 101815.39, 115429.86, 27226.59, 20948.19, 17366.52, 33631.95, 92784.97, 76705.13, 0.00, 0.00, 0.00
252, 101826.66, 115455.56, 27229.07, 20960.04, 17354.79, 33640.40, 92779.14, 76713.55, 0.00, 0.00, 0.00
253, 101823.23, 115493.12, 27225.68, 20953.11, 17364.76, 33637.56, 92764.05, 76712.28, 0.00, 0.00, 0.00
254, 101826.52, 115511.66, 27231.55, 20956.97, 17383.20, 33646.82, 92781.82, 76718.36, 0.00, 0.00, 0.00
255, 101822.01, 115471.16, 27238.24, 20959.48, 17377.10, 33651.04, 92793.30, 76717.15, 0.00, 0.00, 0.00
0, 101824.42, 115487.44, 27239.87, 20965.67, 17390.77, 33655.00, 92800.26, 76715.41, 0.00, 0.00, 0.00
1, 101826.54, 115559.92, 27241.03, 20966.40, 17394.02, 33660.18, 92818.66, 76716.19, 0.00, 0.00, 0.00
2, 101813.34, 115506.28, 27238.39, 20959.70, 17379.82, 33655.85, 92829.05, 76702.87, 0.08, -0.20, 0.98
3, 101802.60, 115505.32, 27233.37, 20943.72, 17352.57, 33629.18, 92807.57, 76686.73, 0.00, 0.00, 0.00
4, 101827.08, 115504.34, 27239.02, 20958.80, 17365.27, 33644.05, 92810.77, 76707.34, 0.00, 0.00, 0.00
5, 101821.80, 115471.97, 27229.30, 20954.80, 17364.69, 33641.54, 92819.57, 76703.63, 0.00, 0.00, 0.00
6, 101826.23, 115428.80, 27230.32, 20955.12, 17373.50, 33651.98, 92828.73, 76708.37, 0.00, 0.00, 0.00
7, 101816.84, 115419.33, 27232.43, 20951.34, 17350.12, 33644.80, 92825.34, 76701.62, 0.00, 0.00, 0.00
8, 101814.02, 115418.48, 27222.28, 20945.24, 17363.82, 33644.40, 92832.91, 76695.88, 0.00, 0.00, 0.00
9, 101819.81, 115561.48, 27230.41, 20949.31, 17392.21, 33662.44, 92857.46, 76703.72, 0.00, 0.00, 0.00
10, 101814.61, 115543.45, 27233.79, 20953.73, 17381.68, 33645.01, 92862.22, 76698.91, 0.00, 0.00, 0.00
11, 101819.03, 115432.18, 27227.55, 20951.50, 17381.92, 33653.66, 92801.18, 76702.98, 0.00, 0.00, 0.00
12, 101812.70, 115443.72, 27224.71, 20945.51, 17371.24, 33644.14, 92827.87, 76698.55, 0.08, -0.20, 0.98
13, 101808.08, 115424.49, 27222.21, 20938.78, 17365.14, 33634.99, 92828.16, 76692.95, 0.00, 0.00, 0.00
14, 101826.63, 115516.02, 27242.62, 20958.69, 17376.47, 33655.96, 92842.46, 76711.32, 0.00, 0.00, 0.00
15, 101816.38, 115523.04, 27246.37, 20953.44, 17367.30, 33650.98, 92846.28, 76699.92, 0.00, 0.00, 0.00
16, 101823.03, 115497.59, 27258.31, 20963.43, 17379.33, 33659.07, 92851.87, 76703.38, 0.00, 0.00, 0.00
17, 101812.20, 115472.64, 27222.59, 20950.27, 17368.87, 33642.41, 92855.47, 76689.01, 0.00, 0.00, 0.00
18, 101804.91, 115465.17, 27216.09, 20940.92, 17356.08, 33626.59, 92859.56, 76681.70, 0.00, 0.00, 0.00
19, 101824.59, 115594.37, 27244.16, 20958.47, 17370.10, 33649.32, 92868.90, 76702.31, 0.00, 0.00, 0.00
20, 101830.55, 115604.02, 27237.50, 20959.30, 17389.46, 33660.86, 92876.14, 76706.67, 0.00, 0.00, 0.00
21, 101813.49, 115420.23, 27218.08, 20938.31, 17369.76, 33635.71, 92862.55, 76686.95, 0.00, 0.00, 0.00
22, 101826.01, 115371.50, 27229.36, 20948.52, 17367.53, 33642.37, 92852.23, 76700.12, 0.08, -0.20, 0.99
23, 101825.36, 115376.33, 27233.92, 20951.14, 17368.15, 33648.29, 92856.14, 76701.77, 0.00, 0.00, 0.00
24, 101806.38, 115432.12, 27225.79, 20938.44, 17358.14, 33634.08, 92858.04, 76682.06, 0.00, 0.00, 0.00
25, 101811.77, 115480.30, 27241.72, 20944.43, 17355.30, 33640.47, 92854.15, 76686.02, 0.00, 0.00, 0.00
26, 101824.89, 115554.63, 27254.76, 20946.58, 17368.62, 33644.61, 92869.69, 76699.92, 0.00, 0.00, 0.00
27, 101811.32, 115639.54, 27234.88, 20939.29, 17348.04, 33629.50, 92882.80, 76689.59, 0.00, 0.00, 0.00
28, 101813.49, 115567.48, 27230.21, 20938.87, 17344.39, 33624.46, 92833.14, 76690.98, 0.00, 0.00, 0.00
29, 101817.67, 115433.34, 27209.89, 20923.49, 17339.34, 33622.45, 92837.72, 76690.35, 0.00, 0.00, 0.00
30, 101824.69, 115368.13, 27210.43, 20932.65, 17341.73, 33638.05, 92862.29, 76699.49, 0.00, 0.00, 0.00
31, 101830.05, 115388.22, 27217.00, 20941.95, 17345.45, 33644.29, 92876.44, 76709.48, 0.00, 0.00, 0.00
32, 101821.00, 115424.59, 27215.28, 20936.28, 17367.66, 33636.71, 92867.77, 76703.31, 0.08, -0.20, 0.98
33, 101811.16, 115478.18, 27212.11, 20921.19, 17341.91, 33620.13, 92836.60, 76692.61, 0.00, 0.00, 0.00
34, 101829.49, 115475.52, 27221.36, 20926.48, 17328.32, 33620.18, 92845.97, 76711.68, 0.00, 0.00, 0.00
35, 101824.62, 115477.06, 27222.30, 20936.03, 17333.20, 33632.18, 92840.85, 76705.35, 0.00, 0.00, 0.00
36, 101832.78, 115559.61, 27234.10, 20941.88, 17366.50, 33646.62, 92870.24, 76712.26, 0.00, 0.00, 0.00
37, 101830.16, 115624.45, 27243.56, 20939.94, 17365.92, 33637.68, 92883.92, 76711.54, 0.00, 0.00, 0.00
38, 101811.59, 115482.32, 27218.61, 20917.30, 17349.00, 33624.62, 92855.52, 76696.30, 0.00, 0.00, 0.00
39, 101801.66, 115339.91, 27193.36, 20899.80, 17321.17, 33600.23, 92815.33, 76687.80, 0.00, 0.00, 0.00
40, 101827.93, 115430.28, 27213.16, 20927.18, 17349.51, 33632.29, 92841.01, 76713.15, 0.00, 0.00, 0.00
41, 101829.27, 115464.34, 27214.70, 20924.72, 17347.54, 33635.33, 92855.87, 76710.40, 0.00, 0.00, 0.00
42, 101832.66, 115523.78, 27224.00, 20930.15, 17342.72, 33630.90, 92858.53, 76712.46, 0.08, -0.20, 0.98
43, 101832.94, 115522.10, 27232.52, 20936.97, 17351.95, 33636.60, 92875.49, 76717.17, 0.00, 0.00, 0.00
44, 101834.45, 115524.98, 27239.11, 20937.93, 17352.24, 33637.68, 92890.63, 76719.50, 0.00, 0.00, 0.00
45, 101824.24, 115473.89, 27225.05, 20924.63, 17344.57, 33622.50, 92854.91, 76710.20, 0.00, 0.00, 0.00
46, 101816.88, 115418.91, 27208.13, 20912.31, 17320.66, 33612.57, 92851.78, 76699.27, 0.00, 0.00, 0.00
47, 101830.52, 115481.80, 27221.47, 20920.25, 17332.12, 33623.59, 92862.02, 76711.14, 0.00, 0.00, 0.00
48, 101829.98, 115487.88, 27220.58, 20924.90, 17344.75, 33637.32, 92862.91, 76714.67, 0.00, 0.00, 0.00
49, 101825.02, 115524.48, 27225.27, 20925.55, 17347.32, 33637.79, 92832.20, 76710.94, 0.00, 0.00, 0.00
50, 101807.01, 115590.73, 27221.34, 20910.17, 17324.72, 33614.05, 92827.41, 76689.84, 0.00, 0.00, 0.00
51, 101827.44, 115505.05, 27233.43, 20928.03, 17333.96, 33624.62, 92847.63, 76711.95, 0.00, 0.00, 0.00
52, 101827.95, 115391.75, 27218.84, 20919.76, 17342.67, 33627.95, 92843.89, 76711.41, 0.08, -0.21, 0.98
53, 101822.02, 115393.34, 27231.82, 20922.93, 17338.72, 33629.94, 92849.10, 76705.35, 0.00, 0.00, 0.00
54, 101825.00, 115455.63, 27219.19, 20924.00, 17345.04, 33635.02, 92849.19, 76706.06, 0.00, 0.00, 0.00
55, 101825.45, 115501.79, 27222.77, 20935.52, 17350.41, 33635.33, 92825.79, 76708.05, 0.00, 0.00, 0.00
56, 101814.18, 115461.06, 27217.38, 20931.71, 17350.29, 33636.94, 92823.17, 76697.13, 0.00, 0.00, 0.00
57, 101806.94, 115532.61, 27218.90, 20931.36, 17360.62, 33634.64, 92853.68, 76691.73, 0.00, 0.00, 0.00
58, 101812.26, 115547.63, 27231.64, 20936.61, 17363.08, 33638.39, 92849.37, 76697.52, 0.00, 0.00, 0.00
59, 101815.34, 115459.12, 27235.55, 20941.24, 17348.51, 33641.34, 92821.38, 76699.90, 0.00, 0.00, 0.00
60, 101819.73, 115458.06, 27238.77, 20941.37, 17326.78, 33631.60, 92829.23, 76703.80, 0.00, 0.00, 0.00
61, 101814.49, 115515.58, 27235.87, 20935.80, 17353.85, 33633.52, 92830.95, 76698.31, 0.00, 0.00, 0.00
62, 101811.30, 115478.70, 27229.50, 20932.14, 17382.48, 33651.69, 92816.30, 76693.88, 0.08, -0.20, 0.98
63, 101794.94, 115431.98, 27206.32, 20909.56, 17333.17, 33616.33, 92814.30, 76678.28, 0.00, 0.00, 0.00
64, 101816.17, 115470.72, 27219.37, 20920.47, 17341.13, 33633.47, 92842.02, 76699.12, 0.00, 0.00, 0.00
65, 101835.26, 115532.61, 27239.29, 20944.43, 17375.84, 33648.83, 92844.63, 76716.99, 0.00, 0.00, 0.00
66, 101823.01, 115515.73, 27222.32, 20926.37, 17362.30, 33636.89, 92809.58, 76702.27, 0.00, 0.00, 0.00
67, 101814.30, 115412.27, 27213.56, 20916.09, 17353.92, 33625.56, 92797.24, 76693.77, 0.00, 0.00, 0.00
68, 101810.90, 115409.23, 27213.76, 20914.88, 17360.26, 33636.31, 92825.43, 76691.94, 0.00, 0.00, 0.00
69, 101814.00, 115461.71, 27214.66, 20922.26, 17354.25, 33635.73, 92863.63, 76697.15, 0.00, 0.00, 0.00
70, 101832.45, 115487.91, 27227.96, 20939.43, 17358.54, 33648.49, 92889.40, 76728.40, 0.00, 0.00, 0.00
71, 101836.94, 115476.22, 27227.20, 20933.48, 17340.30, 33640.74, 92846.38, 76729.53, 0.00, 0.00, 0.00
72, 101826.48, 115509.20, 27222.03, 20923.76, 17346.36, 33640.25, 92811.64, 76711.74, 0.08, -0.21, 0.98
73, 101822.05, 115548.81, 27225.83, 20924.05, 17366.99, 33649.84, 92808.46, 76705.22, 0.00, 0.00, 0.00
74, 101806.85, 115403.70, 27198.63, 20903.28, 17349.87, 33625.94, 92810.34, 76695.09, 0.00, 0.00, 0.00
75, 101810.83, 115456.39, 27192.64, 20897.63, 17342.63, 33618.90, 92822.12, 76697.52, 0.00, 0.00, 0.00
76, 101828.82, 115496.60, 27229.03, 20921.66, 17362.57, 33638.12, 92825.85, 76714.63, 0.00, 0.00, 0.00
77, 101833.94, 115557.09, 27226.97, 20929.37, 17358.34, 33640.13, 92844.98, 76715.12, 0.00, 0.00, 0.00
78, 101820.06, 115466.67, 27217.81, 20915.60, 17332.30, 33627.41, 92820.40, 76700.84, 0.00, 0.00, 0.00
79, 101820.04, 115444.16, 27216.96, 20915.82, 17328.73, 33640.07, 92843.69, 76704.32, 0.00, 0.00, 0.00
80, 101817.91, 115403.75, 27215.44, 20920.47, 17331.79, 33647.53, 92887.50, 76703.92, 0.00, 0.00, 0.00
81, 101812.30, 115381.69, 27208.69, 20917.97, 17330.45, 33642.64, 92819.21, 76695.63, 0.00, 0.00, 0.00
82, 101827.05, 115489.36, 27218.43, 20926.13, 17348.15, 33656.03, 92827.28, 76712.59, 0.07, -0.20, 0.98
83, 101822.56, 115605.72, 27225.85, 20927.51, 17345.76, 33646.57, 92852.01, 76714.13, 0.00, 0.00, 0.00
84, 101818.92, 115510.86, 27212.87, 20915.11, 17339.34, 33631.02, 92825.09, 76707.41, 0.00, 0.00, 0.00
85, 101813.94, 115426.88, 27202.54, 20901.09, 17326.36, 33619.55, 92852.70, 76699.72, 0.00, 0.00, 0.00
86, 101830.77, 115525.79, 27232.56, 20916.74, 17318.94, 33628.18, 92882.11, 76718.96, 0.00, 0.00, 0.00
87, 101823.46, 115499.04, 27231.22, 20914.10, 17304.16, 33625.49, 92858.15, 76711.52, 0.00, 0.00, 0.00
88, 101831.91, 115535.85, 27220.58, 20922.44, 17338.43, 33643.62, 92851.11, 76722.31, 0.00, 0.00, 0.00
89, 101825.76, 115411.98, 27195.37, 20899.19, 17305.21, 33611.19, 92807.01, 76704.32, 0.00, 0.00, 0.00
90, 101844.36, 115345.97, 27212.09, 20915.71, 17317.79, 33650.98, 92842.66, 76726.36, 0.00, 0.00, 0.00
91, 101835.39, 115437.91, 27211.66, 20916.94, 17360.96, 33665.04, 92871.95, 76722.67, 0.00, 0.00, 0.00
92, 101846.34, 115598.62, 27234.30, 20913.83, 17341.29, 33660.54, 92913.96, 76730.98, 0.08, -0.20, 0.99
93, 101828.20, 115549.41, 27241.17, 20887.62, 17319.85, 33664.61, 92798.47, 76711.68, 0.00, 0.00, 0.00
94, 101805.24, 115379.95, 27215.88, 20878.52, 17306.17, 33613.00, 92778.53, 76691.05, 0.00, 0.00, 0.00
95, 101827.68, 115468.30, 27198.41, 20896.33, 17289.57, 33608.84, 92839.38, 76708.30, 0.00, 0.00, 0.00
96, 101853.23, 115502.23, 27221.21, 20921.34, 17315.54, 33642.41, 92919.02, 76737.42, 0.00, 0.00, 0.00
97, 101861.19, 115492.45, 27234.13, 20902.14, 17287.38, 33641.25, 92868.88, 76749.12, 0.00, 0.00, 0.00
98, 101831.82, 115358.20, 27214.83, 20875.17, 17334.02, 33685.42, 92805.31, 76711.07, 0.00, 0.00, 0.00
99, 101864.02, 115373.06, 27264.01, 20907.84, 17382.41, 33746.80, 92815.34, 76743.08, 0.00, 0.00, 0.00
100, 101873.13, 115558.91, 27239.47, 20930.20, 17375.29, 33705.29, 92865.44, 76757.56, 0.00, 0.00, 0.00
101, 101827.15, 115550.96, 27196.57, 20908.80, 17307.20, 33624.58, 92810.56, 76712.37, 0.00, 0.00, 0.00
102, 101823.75, 115436.20, 27231.44, 20892.67, 17300.54, 33684.93, 92793.71, 76697.20, 0.08, -0.20, 0.99
103, 101858.73, 115509.97, 27276.39, 20933.10, 17335.48, 33719.68, 92836.23, 76724.44, 0.00, 0.00, 0.00
104, 101889.51, 115558.67, 27284.13, 20952.17, 17343.79, 33658.15, 92942.75, 76770.93, 0.00, 0.00, 0.00
105, 101862.41, 115432.41, 27265.35, 20948.32, 17320.50, 33675.34, 92881.44, 76748.78, 0.00, 0.00, 0.00
106, 101846.93, 115353.95, 27258.06, 20938.17, 17330.29, 33760.50, 92797.00, 76724.02, 0.00, 0.00, 0.00
107, 101851.73, 115451.09, 27217.72, 20922.44, 17321.80, 33698.58, 92843.33, 76734.95, 0.00, 0.00, 0.00
108, 101808.03, 115387.03, 27203.77, 20892.46, 17327.03, 33631.62, 92808.48, 76675.69, 0.00, 0.00, 0.00
109, 101819.03, 115485.72, 27247.92, 20910.75, 17331.07, 33644.31, 92819.04, 76679.06, 0.00, 0.00, 0.00
110, 101856.63, 115500.76, 27245.90, 20937.55, 17387.22, 33759.47, 92812.76, 76727.10, 0.00, 0.00, 0.00
111, 101840.83, 115495.73, 27282.70, 20934.73, 17342.79, 33637.77, 92818.90, 76718.41, 0.00, 0.00, 0.00
112, 101836.96, 115427.45, 27311.80, 20927.56, 17325.04, 33626.19, 92815.82, 76697.73, 0.08, -0.21, 0.98
113, 101823.95, 115520.43, 27296.15, 20917.23, 17323.34, 33664.83, 92832.70, 76688.88, 0.00, 0.00, 0.00
114, 101797.06, 115470.41, 27242.10, 20881.29, 17283.66, 33580.86, 92795.84, 76667.98, 0.00, 0.00, 0.00
115, 101835.73, 115509.48, 27287.75, 20911.91, 17320.21, 33618.57, 92881.71, 76705.59, 0.00, 0.00, 0.00
116, 101834.57, 115488.35, 27286.67, 20915.82, 17326.20, 33647.11, 92843.40, 76709.38, 0.00, 0.00, 0.00
117, 101828.42, 115368.66, 27267.90, 20891.68, 17314.49, 33677.35, 92811.55, 76707.01, 0.00, 0.00, 0.00
118, 101821.98, 115354.91, 27309.29, 20885.38, 17307.85, 33674.94, 92889.45, 76702.73, 0.00, 0.00, 0.00
119, 101827.62, 115543.96, 27367.27, 20936.01, 17337.51, 33655.96, 92892.15, 76702.38, 0.00, 0.00, 0.00
120, 101791.20, 115539.49, 27308.42, 20878.67, 17291.78, 33616.04, 92804.26, 76672.00, 0.00, 0.00, 0.00
121, 101816.35, 115458.16, 27289.02, 20865.96, 17276.09, 33641.63, 92819.86, 76692.32, 0.00, 0.00, 0.00
122, 101807.63, 115369.69, 27312.49, 20914.82, 17306.80, 33681.21, 92806.07, 76670.75, 0.08, -0.20, 0.98
123, 101803.50, 115316.09, 27321.41, 20925.57, 17359.79, 33690.43, 92843.82, 76672.31, 0.00, 0.00, 0.00
124, 101845.56, 115498.14, 27383.43, 20976.29, 17391.96, 33678.09, 92910.88, 76725.91, 0.00, 0.00, 0.00
125, 101803.72, 115499.26, 27334.93, 20902.43, 17328.41, 33652.23, 92896.40, 76683.78, 0.00, 0.00, 0.00
126, 101781.39, 115390.56, 27308.31, 20868.71, 17336.53, 33700.04, 92824.91, 76650.32, 0.00, 0.00, 0.00
127, 101809.06, 115381.00, 27361.19, 20935.16, 17359.37, 33769.46, 92790.98, 76658.68, 0.00, 0.00, 0.00
128, 101780.52, 115367.92, 27359.05, 20933.35, 17341.51, 33735.80, 92900.53, 76646.70, 0.00, 0.00, 0.00
129, 101812.93, 115432.41, 27451.25, 20962.67, 17348.93, 33645.79, 92868.41, 76688.79, 0.00, 0.00, 0.00
130, 101794.63, 115481.31, 27517.21, 20932.88, 17316.75, 33634.05, 92781.87, 76649.85, 0.00, 0.00, 0.00
131, 101776.74, 115456.93, 27589.41, 20922.75, 17309.03, 33631.20, 92813.41, 76636.84, 0.08, -0.20, 0.98
132, 101787.41, 115340.72, 27385.98, 20891.82, 17319.83, 33669.04, 92873.24, 76663.66, 0.00, 0.00, 0.00
133, 101779.72, 115297.58, 27350.62, 20892.62, 17319.88, 33662.73, 92840.88, 76663.02, 0.00, 0.00, 0.00
134, 101777.23, 115380.26, 27313.63, 20895.28, 17312.74, 33645.48, 92800.95, 76637.85, 0.00, 0.00, 0.00
135, 101807.59, 115406.05, 27380.19, 20937.86, 17354.10, 33689.75, 92862.42, 76661.20, 0.00, 0.00, 0.00
136, 101798.91, 115329.32, 27375.99, 20914.15, 17344.48, 33666.82, 92860.03, 76674.48, 0.00, 0.00, 0.00
137, 101757.56, 115298.99, 27380.82, 20893.38, 17311.11, 33637.77, 92794.29, 76627.70, 0.00, 0.00, 0.00
138, 101744.38, 115337.97, 27401.72, 20891.88, 17304.18, 33614.39, 92834.37, 76610.02, 0.00, 0.00, 0.00
139, 101764.61, 115419.69, 27440.83, 20913.30, 17313.59, 33630.07, 92852.90, 76637.16, 0.00, 0.00, 0.00
140, 101749.36, 115355.90, 27424.76, 20894.03, 17303.07, 33620.75, 92828.49, 76611.74, 0.00, 0.00, 0.00
141, 101792.05, 115339.63, 27470.18, 20934.26, 17349.83, 33686.29, 92844.85, 76654.48, 0.09, -0.20, 0.98
142, 101786.96, 115318.34, 27472.01, 20933.71, 17353.58, 33707.12, 92935.96, 76660.65, 0.00, 0.00, 0.00
143, 101778.64, 115354.51, 27459.03, 20907.78, 17342.20, 33674.54, 92864.41, 76638.16, 0.00, 0.00, 0.00
144, 101783.67, 115241.41, 27490.77, 20903.89, 17323.14, 33643.80, 92780.19, 76634.32, 0.00, 0.00, 0.00
145, 101758.66, 115354.06, 27506.01, 20899.57, 17308.92, 33637.88, 92763.16, 76621.06, 0.00, 0.00, 0.00
146, 101771.16, 115328.16, 27506.88, 20902.43, 17330.83, 33696.55, 92882.00, 76639.99, 0.00, 0.00, 0.00
147, 101766.55, 115163.36, 27453.24, 20880.06, 17310.87, 33651.46, 92907.66, 76634.48, 0.00, 0.00, 0.00
148, 101794.24, 115304.29, 27515.18, 20908.56, 17328.86, 33666.46, 92845.27, 76658.13, 0.00, 0.00, 0.00
149, 101807.07, 115336.05, 27516.87, 20912.34, 17331.14, 33655.40, 92861.75, 76657.14, 0.00, 0.00, 0.00
150, 101787.13, 115316.06, 27478.18, 20889.87, 17310.62, 33633.21, 92784.03, 76632.26, 0.00, 0.00, 0.00
151, 101776.50, 115224.02, 27479.64, 20891.68, 17313.26, 33632.87, 92807.52, 76627.09, 0.08, -0.20, 0.98
152, 101801.15, 115179.38, 27484.75, 20882.09, 17300.16, 33624.42, 92813.60, 76629.24, 0.00, 0.00, 0.00
153, 101782.53, 115258.22, 27527.78, 20867.05, 17266.34, 33605.85, 92887.52, 76630.85, 0.00, 0.00, 0.00
154, 101776.34, 115269.77, 27539.83, 20913.05, 17320.63, 33652.02, 92897.02, 76644.87, 0.00, 0.00, 0.00
155, 101799.05, 115304.64, 27567.95, 20930.78, 17369.41, 33682.22, 92841.84, 76661.74, 0.00, 0.00, 0.00
156, 101807.50, 115268.70, 27575.48, 20936.74, 17391.20, 33674.20, 92819.91, 76673.73, 0.00, 0.00, 0.00
157, 101813.49, 115378.16, 27567.12, 20949.42, 17401.14, 33668.88, 92885.94, 76670.80, 0.00, 0.00, 0.00
158, 101807.59, 115228.23, 27540.84, 20923.33, 17377.34, 33641.79, 92861.50, 76654.57, 0.00, 0.00, 0.00
159, 101798.58, 115102.61, 27541.01, 20919.06, 17367.21, 33642.86, 92845.74, 76663.66, 0.00, 0.00, 0.00
160, 101748.40, 115062.44, 27526.62, 20895.68, 17351.79, 33626.93, 92839.06, 76619.25, 0.00, 0.00, 0.00
161, 101767.84, 115167.67, 27553.64, 20918.37, 17361.94, 33635.89, 92884.98, 76634.02, 0.08, -0.20, 0.98
162, 101778.28, 115284.73, 27577.69, 20921.77, 17375.13, 33648.61, 92868.05, 76636.93, 0.00, 0.00, 0.00
163, 101793.08, 115366.36, 27578.07, 20918.01, 17402.58, 33651.18, 92850.06, 76640.69, 0.00, 0.00, 0.00
164, 101832.76, 115312.29, 27606.33, 20931.85, 17387.09, 33649.41, 92865.23, 76695.70, 0.00, 0.00, 0.00
165, 101828.84, 115119.28, 27567.05, 20854.27, 17396.14, 33673.26, 92870.22, 76702.09, 0.00, 0.00, 0.00
166, 101822.38, 115144.23, 27552.37, 20824.02, 17383.11, 33665.19, 92880.26, 76669.03, 0.00, 0.00, 0.00
167, 101800.55, 115233.74, 27612.54, 20956.12, 17396.27, 33665.82, 92848.47, 76654.70, 0.00, 0.00, 0.00
168, 101792.68, 115161.57, 27597.70, 20949.87, 17369.83, 33641.86, 92865.48, 76655.28, 0.00, 0.00, 0.00
169, 101812.26, 115183.41, 27592.78, 20929.70, 17363.21, 33622.50, 92881.93, 76664.38, 0.00, 0.00, 0.00
170, 101804.66, 115195.95, 27583.26, 20910.03, 17363.08, 33628.15, 92898.38, 76655.62, 0.00, 0.00, 0.00
171, 101801.77, 115118.05, 27585.47, 20910.19, 17373.36, 33632.36, 92895.86, 76652.69, 0.08, -0.20, 0.99
172, 101795.97, 115058.51, 27571.72, 20880.37, 17322.62, 33608.06, 92800.70, 76647.99, 0.00, 0.00, 0.00
173, 101825.07, 115161.16, 27590.68, 20894.01, 17339.21, 33632.96, 92877.82, 76672.92, 0.00, 0.00, 0.00
174, 101851.55, 115200.35, 27623.31, 20930.89, 17405.73, 33668.01, 92917.85, 76685.81, 0.00, 0.00, 0.00
175, 101829.16, 115132.45, 27613.48, 20914.73, 17390.97, 33647.04, 92921.95, 76669.81, 0.00, 0.00, 0.00
176, 101811.84, 115115.57, 27606.19, 20907.98, 17361.45, 33642.88, 92946.64, 76665.61, 0.00, 0.00, 0.00
177, 101816.91, 115105.06, 27612.88, 20904.76, 17366.39, 33633.85, 92897.34, 76666.28, 0.00, 0.00, 0.00
178, 101818.43, 115173.38, 27628.65, 20912.13, 17366.32, 33632.02, 92851.87, 76665.48, 0.00, 0.00, 0.00
179, 101808.41, 115184.46, 27616.09, 20895.48, 17336.19, 33619.32, 92904.02, 76656.49, 0.00, 0.00, 0.00
180, 101800.62, 115070.48, 27602.93, 20887.57, 17343.34, 33628.22, 92945.84, 76651.41, 0.00, 0.00, 0.00
181, 101845.01, 115129.79, 27651.65, 20937.17, 17410.87, 33679.43, 92968.48, 76700.99, 0.08, -0.20, 0.98
182, 101818.16, 115087.88, 27627.16, 20912.78, 17373.36, 33644.22, 92899.01, 76672.07, 0.00, 0.00, 0.00
183, 101816.04, 115007.50, 27593.07, 20889.89, 17335.63, 33627.71, 92919.91, 76667.91, 0.00, 0.00, 0.00
184, 101833.07, 115087.02, 27608.14, 20914.68, 17358.68, 33650.95, 92939.96, 76686.55, 0.00, 0.00, 0.00
185, 101833.34, 115129.23, 27616.41, 20919.09, 17368.04, 33645.39, 92976.17, 76684.95, 0.00, 0.00, 0.00
186, 101844.29, 115123.39, 27630.46, 20925.79, 17385.48, 33648.98, 92963.67, 76695.60, 0.00, 0.00, 0.00
187, 101812.62, 115035.10, 27611.40, 20897.23, 17382.19, 33625.81, 92902.95, 76667.17, 0.00, 0.00, 0.00
188, 101808.93, 114960.88, 27604.47, 20896.00, 17377.99, 33619.79, 92907.73, 76660.31, 0.00, 0.00, 0.00
189, 101817.29, 115058.10, 27606.84, 20896.27, 17368.62, 33623.13, 92942.33, 76667.89, 0.00, 0.00, 0.00
190, 101847.87, 115131.66, 27614.10, 20911.26, 17389.39, 33638.17, 93009.47, 76705.40, 0.00, 0.00, 0.00
191, 101846.41, 115009.78, 27602.35, 20910.03, 17393.63, 33641.34, 92951.11, 76711.50, 0.08, -0.20, 0.98
192, 101828.91, 114914.54, 27606.88, 20916.36, 17407.67, 33644.63, 92948.23, 76685.66, 0.00, 0.00, 0.00
193, 101827.37, 114996.66, 27607.31, 20904.94, 17394.24, 33642.14, 92954.91, 76676.96, 0.00, 0.00, 0.00
194, 101836.58, 115023.05, 27610.17, 20901.83, 17384.74, 33629.05, 92920.47, 76679.27, 0.00, 0.00, 0.00
195, 101836.09, 115024.60, 27592.36, 20890.97, 17380.02, 33610.79, 92934.55, 76679.16, 0.00, 0.00, 0.00
196, 101863.89, 115069.19, 27610.46, 20899.55, 17397.46, 33638.66, 93015.26, 76714.73, 0.00, 0.00, 0.00
197, 101851.94, 115058.62, 27603.53, 20887.28, 17380.00, 33630.39, 92943.76, 76698.80, 0.00, 0.00, 0.00
198, 101857.59, 115062.95, 27593.72, 20892.17, 17362.07, 33618.05, 92977.80, 76704.88, 0.00, 0.00, 0.00
199, 101839.23, 114983.38, 27589.25, 20883.19, 17364.09, 33622.70, 92922.32, 76689.81, 0.00, 0.00, 0.00
200, 101810.23, 114858.66, 27563.14, 20852.25, 17328.48, 33572.27, 92913.09, 76664.54, 0.00, 0.00, 0.00
201, 101848.13, 114962.26, 27604.04, 20889.89, 17356.11, 33620.13, 92955.90, 76705.51, 0.08, -0.20, 0.98
202, 101860.65, 114972.59, 27605.45, 20907.33, 17405.82, 33644.80, 92956.39, 76716.99, 0.00, 0.00, 0.00
203, 101854.68, 115031.95, 27600.13, 20900.31, 17434.67, 33637.25, 92978.09, 76712.26, 0.00, 0.00, 0.00
204, 101853.86, 115023.88, 27607.18, 20892.78, 17425.22, 33635.75, 93018.88, 76714.07, 0.00, 0.00, 0.00
205, 101856.56, 114869.34, 27596.78, 20877.85, 17417.06, 33648.85, 93008.47, 76724.51, 0.00, 0.00, 0.00
206, 101847.30, 114937.88, 27591.53, 20867.30, 17408.12, 33632.40, 92998.09, 76708.48, 0.00, 0.00, 0.00
207, 101841.79, 114939.13, 27594.50, 20897.92, 17404.86, 33627.39, 92970.02, 76701.59, 0.00, 0.00, 0.00
208, 101843.53, 114936.02, 27597.07, 20904.98, 17406.60, 33631.71, 92903.10, 76699.47, 0.00, 0.00, 0.00
209, 101863.96, 115012.38, 27608.96, 20924.67, 17428.24, 33648.38, 92954.84, 76717.24, 0.00, 0.00, 0.00
210, 101848.09, 115017.22, 27595.20, 20917.28, 17419.00, 33623.37, 92985.63, 76700.10, 0.00, 0.00, 0.00
211, 101847.58, 114924.48, 27603.29, 20910.97, 17414.65, 33632.18, 92996.62, 76713.55, 0.09, -0.20, 0.98
212, 101856.29, 114940.27, 27600.11, 20908.29, 17407.61, 33633.25, 92983.39, 76720.86, 0.00, 0.00, 0.00
213, 101871.83, 114920.17, 27599.69, 20908.13, 17406.49, 33643.87, 93006.90, 76729.71, 0.00, 0.00, 0.00
214, 101852.72, 114903.20, 27588.04, 20887.23, 17396.68, 33634.64, 92964.84, 76707.43, 0.00, 0.00, 0.00
215, 101866.33, 115016.89, 27600.58, 20915.06, 17423.30, 33643.02, 92969.98, 76718.76, 0.00, 0.00, 0.00
216, 101857.19, 115031.20, 27600.29, 20897.96, 17382.41, 33605.45, 92950.35, 76717.45, 0.00, 0.00, 0.00
217, 101841.30, 114886.42, 27581.94, 20879.77, 17376.49, 33614.18, 92981.91, 76711.07, 0.00, 0.00, 0.00
218, 101872.99, 114867.73, 27569.22, 20896.69, 17419.63, 33644.16, 93036.63, 76739.99, 0.00, 0.00, 0.00
219, 101876.07, 114879.49, 27570.05, 20895.75, 17426.51, 33642.44, 92990.85, 76742.16, 0.00, 0.00, 0.00
220, 101862.39, 114855.38, 27557.55, 20874.83, 17393.90, 33607.23, 92940.23, 76725.45, 0.00, 0.00, 0.00
221, 101881.75, 114944.09, 27578.14, 20888.42, 17410.18, 33628.85, 92985.20, 76741.72, 0.08, -0.21, 0.98
222, 101883.77, 115032.84, 27584.33, 20890.68, 17401.19, 33637.83, 93009.02, 76749.38, 0.00, 0.00, 0.00
223, 101873.01, 115001.87, 27579.32, 20877.98, 17380.78, 33618.83, 92971.59, 76736.84, 0.00, 0.00, 0.00
224, 101847.58, 114880.66, 27560.10, 20864.53, 17367.21, 33600.55, 92952.41, 76706.45, 0.00, 0.00, 0.00
225, 101875.74, 114885.46, 27579.39, 20894.72, 17414.04, 33646.77, 93003.73, 76736.27, 0.00, 0.00, 0.00
226, 101880.74, 114882.95, 27573.78, 20898.17, 17421.08, 33648.07, 93016.52, 76736.87, 0.00, 0.00, 0.00
227, 101880.23, 114948.91, 27577.00, 20894.37, 17406.38, 33629.07, 92985.11, 76734.43, 0.00, 0.00, 0.00
228, 101848.89, 114988.32, 27558.78, 20873.09, 17364.02, 33604.93, 92998.81, 76708.30, 0.00, 0.00, 0.00
229, 101866.59, 115050.59, 27585.38, 20888.15, 17359.88, 33629.63, 93035.80, 76723.27, 0.00, 0.00, 0.00
230, 101866.91, 114878.93, 27561.35, 20869.09, 17390.75, 33628.36, 92963.96, 76722.72, 0.00, 0.00, 0.00
231, 101863.55, 114826.74, 27543.47, 20856.61, 17397.41, 33617.67, 92951.36, 76721.91, 0.08, -0.20, 0.98
232, 101877.26, 114903.27, 27576.35, 20900.24, 17417.02, 33642.19, 92985.06, 76739.59, 0.00, 0.00, 0.00
233, 101860.09, 114940.24, 27565.47, 20892.33, 17404.36, 33619.32, 92974.24, 76721.98, 0.00, 0.00, 0.00
234, 101874.09, 114953.74, 27568.95, 20894.25, 17412.70, 33620.11, 92997.85, 76729.65, 0.00, 0.00, 0.00
235, 101856.54, 114878.30, 27558.45, 20880.87, 17414.45, 33617.69, 92970.34, 76715.09, 0.00, 0.00, 0.00
236, 101871.05, 114914.41, 27573.04, 20896.51, 17406.00, 33618.61, 92984.55, 76728.71, 0.00, 0.00, 0.00
237, 101868.34, 114867.42, 27568.73, 20895.42, 17348.19, 33608.86, 92983.16, 76726.25, 0.00, 0.00, 0.00
238, 101865.93, 114889.95, 27567.61, 20905.00, 17401.79, 33624.76, 93053.44, 76730.09, 0.00, 0.00, 0.00
239, 101839.39, 114879.42, 27548.79, 20884.24, 17433.27, 33608.06, 92942.71, 76694.51, 0.00, 0.00, 0.00
240, 101861.68, 114951.55, 27559.72, 20893.38, 17435.39, 33622.92, 92923.84, 76708.19, 0.00, 0.00, 0.00
241, 101851.66, 114905.27, 27547.94, 20879.39, 17417.28, 33624.49, 92958.91, 76706.63, 0.09, -0.20, 0.99
242, 101860.43, 114877.81, 27559.70, 20889.45, 17418.11, 33635.26, 93000.66, 76722.23, 0.00, 0.00, 0.00
243, 101859.35, 114940.94, 27572.55, 20897.63, 17417.17, 33633.32, 93003.70, 76716.80, 0.00, 0.00, 0.00
244, 101825.78, 114833.54, 27531.07, 20857.89, 17369.56, 33597.29, 92944.54, 76679.45, 0.00, 0.00, 0.00
245, 101838.52, 114852.55, 27544.50, 20876.33, 17369.34, 33595.36, 92937.90, 76694.55, 0.00, 0.00, 0.00
246, 101854.84, 114954.39, 27564.26, 20896.82, 17374.90, 33613.65, 92956.72, 76710.83, 0.00, 0.00, 0.00
247, 101833.36, 114860.85, 27543.81, 20871.37, 17386.79, 33605.27, 92955.20, 76685.73, 0.00, 0.00, 0.00
248, 101823.39, 114898.20, 27540.10, 20868.75, 17403.38, 33597.35, 92967.80, 76675.42, 0.00, 0.00, 0.00
249, 101841.32, 114873.21, 27550.45, 20880.80, 17407.05, 33631.06, 93006.16, 76699.25, 0.00, 0.00, 0.00
250, 101839.10, 114898.34, 27541.19, 20865.15, 17389.37, 33623.23, 93045.86, 76694.38, 0.00, 0.00, 0.00
251, 101833.74, 114816.23, 27531.96, 20862.67, 17386.17, 33603.03, 92931.35, 76686.77, 0.09, -0.20, 0.98
252, 101831.48, 114806.87, 27540.48, 20880.75, 17377.83, 33594.31, 92911.37, 76685.46, 0.00, 0.00, 0.00
253, 101845.81, 114905.76, 27555.30, 20886.54, 17382.97, 33587.05, 92920.36, 76694.45, 0.00, 0.00, 0.00
254, 101862.35, 114975.89, 27568.06, 20901.74, 17413.53, 33625.81, 92978.52, 76724.84, 0.00, 0.00, 0.00
255, 101838.27, 114872.12, 27565.36, 20895.62, 17414.60, 33634.81, 93015.13, 76701.66, 0.00, 0.00, 0.00
0, 101829.49, 114878.62, 27561.22, 20878.21, 17389.03, 33603.97, 92989.53, 76687.13, 0.00, 0.00, 0.00
1, 101860.61, 114853.79, 27559.72, 20896.56, 17399.67, 33611.48, 92963.67, 76721.04, 0.00, 0.00, 0.00
2, 101839.73, 114849.61, 27532.30, 20871.79, 17362.59, 33583.00, 92923.20, 76695.72, 0.00, 0.00, 0.00
3, 101844.06, 114831.14, 27533.75, 20858.40, 17362.61, 33585.71, 92951.76, 76697.15, 0.00, 0.00, 0.00
4, 101866.46, 114853.77, 27537.04, 20873.33, 17390.44, 33621.89, 93000.55, 76724.98, 0.00, 0.00, 0.00
5, 101890.22, 114908.59, 27561.20, 20911.22, 17425.91, 33647.60, 93038.77, 76754.23, 0.09, -0.19, 0.98
6, 101891.72, 114855.55, 27562.11, 20902.63, 17418.40, 33645.66, 92991.28, 76758.64, 0.00, 0.00, 0.00
7, 101886.38, 114905.42, 27553.98, 20892.80, 17408.61, 33640.74, 92985.40, 76752.20, 0.00, 0.00, 0.00
8, 101863.06, 114865.14, 27545.13, 20883.19, 17387.33, 33593.46, 92947.70, 76724.46, 0.00, 0.00, 0.00
9, 101870.82, 114879.91, 27534.17, 20880.33, 17390.75, 33595.05, 92978.16, 76725.63, 0.00, 0.00, 0.00
10, 101880.55, 114844.91, 27545.98, 20882.68, 17403.92, 33609.67, 93008.84, 76740.11, 0.00, 0.00, 0.00
11, 101881.70, 114789.70, 27553.35, 20890.34, 17404.95, 33617.87, 92977.45, 76747.93, 0.00, 0.00, 0.00
12, 101895.48, 114857.43, 27575.05, 20904.45, 17416.21, 33641.74, 92984.69, 76760.56, 0.00, 0.00, 0.00
13, 101891.79, 114901.24, 27566.29, 20886.83, 17404.54, 33638.01, 92972.77, 76751.04, 0.00, 0.00, 0.00
14, 101875.74, 114953.85, 27570.67, 20882.63, 17381.86, 33611.32, 92966.11, 76729.65, 0.00, 0.00, 0.00
15, 101880.73, 114859.64, 27577.98, 20889.76, 17349.92, 33597.55, 92989.80, 76733.09, 0.09, -0.20, 0.98
16, 101897.66, 114822.27, 27587.13, 20907.91, 17390.66, 33632.76, 93030.93, 76759.04, 0.00, 0.00, 0.00
17, 101891.95, 114779.27, 27561.96, 20902.46, 17428.12, 33627.21, 93007.70, 76756.67, 0.00, 0.00, 0.00
18, 101875.29, 114905.48, 27540.32, 20878.18, 17405.32, 33605.02, 92955.96, 76736.15, 0.00, 0.00, 0.00
19, 101894.29, 114970.66, 27564.10, 20896.62, 17397.50, 33618.18, 93001.42, 76752.24, 0.00, 0.00, 0.00
20, 101888.66, 114753.72, 27543.14, 20892.69, 17399.20, 33625.98, 92997.78, 76754.34, 0.00, 0.00, 0.00
21, 101868.85, 114786.27, 27545.64, 20889.36, 17389.41, 33629.74, 92956.34, 76738.05, 0.00, 0.00, 0.00
22, 101865.61, 114809.42, 27542.02, 20877.29, 17356.17, 33607.66, 93013.00, 76733.07, 0.00, 0.00, 0.00
23, 101888.16, 114906.09, 27556.93, 20889.40, 17395.04, 33625.88, 93000.66, 76739.68, 0.00, 0.00, 0.00
24, 101888.39, 114898.20, 27563.03, 20893.29, 17419.70, 33629.45, 92944.83, 76739.88, 0.00, 0.00, 0.00
25, 101884.95, 114853.05, 27564.39, 20898.54, 17425.22, 33640.47, 92992.84, 76745.85, 0.09, -0.20, 0.98
26, 101887.80, 114909.64, 27567.81, 20911.76, 17423.56, 33640.02, 93022.99, 76748.83, 0.00, 0.00, 0.00
27, 101876.19, 114809.69, 27547.03, 20899.73, 17404.54, 33627.89, 92974.91, 76738.23, 0.00, 0.00, 0.00
28, 101884.05, 114779.24, 27555.72, 20902.41, 17401.75, 33627.89, 92982.98, 76748.02, 0.00, 0.00, 0.00
29, 101881.62, 114862.62, 27560.46, 20894.10, 17403.31, 33624.80, 92982.72, 76738.38, 0.00, 0.00, 0.00
30, 101867.96, 114807.81, 27540.88, 20884.84, 17391.20, 33613.22, 92980.57, 76726.74, 0.00, 0.00, 0.00
31, 101892.86, 114897.57, 27565.09, 20905.12, 17402.24, 33634.55, 92993.54, 76753.41, 0.00, 0.00, 0.00
32, 101898.56, 114917.51, 27594.59, 20917.41, 17403.25, 33632.51, 93020.42, 76756.58, 0.00, 0.00, 0.00
33, 101870.06, 114741.31, 27545.75, 20887.01, 17375.11, 33594.96, 92964.34, 76721.51, 0.00, 0.00, 0.00
34, 101876.48, 114743.86, 27535.27, 20885.31, 17365.85, 33603.79, 92987.63, 76728.66, 0.00, 0.00, 0.00
35, 101870.84, 114812.70, 27537.66, 20885.22, 17378.30, 33614.92, 93014.30, 76727.28, 0.09, -0.20, 0.98
36, 101900.82, 114982.38, 27585.47, 20917.05, 17420.23, 33632.73, 93005.27, 76755.69, 0.00, 0.00, 0.00
37, 101889.17, 114859.77, 27562.18, 20900.65, 17371.08, 33609.31, 92995.39, 76742.74, 0.00, 0.00, 0.00
38, 101870.82, 114740.40, 27531.49, 20877.89, 17351.30, 33591.18, 92948.85, 76726.49, 0.00, 0.00, 0.00
39, 101889.09, 114843.62, 27558.18, 20893.94, 17399.40, 33611.19, 92966.36, 76753.23, 0.00, 0.00, 0.00
40, 101894.42, 114866.95, 27567.81, 20902.84, 17437.56, 33644.87, 93007.30, 76759.60, 0.00, 0.00, 0.00
41, 101866.91, 114827.12, 27551.81, 20889.74, 17402.22, 33620.13, 93018.66, 76730.48, 0.00, 0.00, 0.00
42, 101867.31, 114824.44, 27541.66, 20872.15, 17383.40, 33596.91, 92983.03, 76723.77, 0.00, 0.00, 0.00
43, 101870.48, 114837.41, 27545.71, 20866.04, 17375.55, 33593.11, 92986.00, 76723.95, 0.00, 0.00, 0.00
44, 101902.63, 114753.02, 27576.93, 20921.54, 17417.51, 33642.44, 93025.30, 76763.29, 0.00, 0.00, 0.00
45, 101888.75, 114826.34, 27599.62, 20931.58, 17420.86, 33658.66, 92975.43, 76753.97, 0.08, -0.20, 0.98
46, 101885.55, 114890.58, 27589.18, 20917.28, 17397.10, 33664.07, 92986.79, 76741.94, 0.00, 0.00, 0.00
47, 101887.74, 114896.23, 27563.48, 20900.42, 17369.27, 33615.88, 93036.43, 76733.83, 0.00, 0.00, 0.00
48, 101888.79, 114817.55, 27549.44, 20905.32, 17394.87, 33633.07, 92999.30, 76746.81, 0.00, 0.00, 0.00
49, 101884.41, 114785.57, 27557.08, 20905.12, 17403.04, 33641.54, 93056.34, 76746.01, 0.00, 0.00, 0.00
50, 101875.83, 114762.05, 27547.65, 20891.26, 17384.87, 33624.69, 93011.64, 76727.99, 0.00, 0.00, 0.00
51, 101871.11, 114851.62, 27554.47, 20894.28, 17376.36, 33605.38, 92950.06, 76721.00, 0.00, 0.00, 0.00
52, 101873.57, 114808.70, 27565.62, 20901.03, 17367.06, 33598.20, 92949.46, 76724.59, 0.00, 0.00, 0.00
53, 101888.05, 114850.73, 27571.30, 20912.47, 17388.40, 33618.27, 92977.09, 76743.41, 0.00, 0.00, 0.00
54, 101884.99, 114970.75, 27575.50, 20913.19, 17401.99, 33635.82, 93002.43, 76736.40, 0.00, 0.00, 0.00
55, 101863.58, 114834.99, 27561.40, 20889.43, 17388.54, 33608.21, 92982.23, 76712.21, 0.08, -0.20, 0.98
56, 101862.66, 114687.42, 27541.62, 20881.94, 17376.22, 33600.66, 93027.09, 76707.98, 0.00, 0.00, 0.00
57, 101899.12, 114761.70, 27577.94, 20916.54, 17405.35, 33648.43, 93107.04, 76754.08, 0.00, 0.00, 0.00
58, 101894.72, 114902.73, 27604.87, 20922.15, 17425.67, 33670.27, 93018.88, 76754.55, 0.00, 0.00, 0.00
59, 101882.17, 114845.59, 27574.03, 20914.01, 17405.64, 33643.38, 92993.52, 76742.23, 0.00, 0.00, 0.00
60, 101879.20, 114759.71, 27552.10, 20903.42, 17359.21, 33608.91, 93002.27, 76731.62, 0.00, 0.00, 0.00
61, 101881.66, 114848.98, 27562.29, 20899.10, 17386.55, 33618.39, 93012.22, 76735.97, 0.00, 0.00, 0.00
62, 101889.28, 114825.38, 27565.89, 20901.47, 17412.54, 33628.51, 93025.92, 76745.80, 0.00, 0.00, 0.00
63, 101878.64, 114833.52, 27565.09, 20893.36, 17391.20, 33618.23, 92965.13, 76724.23, 0.00, 0.00, 0.00
64, 101882.34, 114907.77, 27571.37, 20894.37, 17391.00, 33620.96, 92951.47, 76722.70, 0.00, 0.00, 0.00
65, 101884.92, 114884.59, 27578.54, 20900.38, 17386.10, 33616.33, 93039.98, 76733.40, 0.08, -0.20, 0.98
66, 101875.09, 114770.70, 27560.77, 20890.50, 17369.25, 33623.57, 93049.88, 76730.02, 0.00, 0.00, 0.00
67, 101885.10, 114825.58, 27578.32, 20899.82, 17381.79, 33636.78, 92987.30, 76735.62, 0.00, 0.00, 0.00
68, 101893.28, 114786.17, 27579.97, 20898.70, 17379.91, 33634.19, 92988.20, 76741.49, 0.00, 0.00, 0.00
69, 101883.30, 114806.71, 27585.05, 20888.91, 17356.04, 33614.07, 92965.08, 76726.90, 0.00, 0.00, 0.00
70, 101889.10, 114835.55, 27576.35, 20910.75, 17387.49, 33640.74, 93002.68, 76733.07, 0.00, 0.00, 0.00
71, 101885.02, 114820.30, 27565.53, 20900.29, 17415.34, 33649.37, 93038.93, 76733.38, 0.00, 0.00, 0.00
72, 101885.08, 114875.47, 27563.88, 20891.48, 17420.97, 33643.78, 92985.40, 76731.34, 0.00, 0.00, 0.00
73, 101887.59, 114882.02, 27573.63, 20903.93, 17412.41, 33643.09, 93035.91, 76726.72, 0.00, 0.00, 0.00
74, 101871.45, 114718.52, 27563.54, 20900.24, 17400.90, 33623.06, 92975.74, 76718.23, 0.00, 0.00, 0.00
75, 101877.98, 114714.60, 27564.64, 20909.16, 17408.88, 33638.91, 92961.38, 76727.28, 0.08, -0.21, 0.99
76, 101875.90, 114848.98, 27582.95, 20909.41, 17397.10, 33633.88, 93008.53, 76721.29, 0.00, 0.00, 0.00
77, 101874.48, 114929.38, 27585.38, 20900.47, 17388.00, 33617.00, 92978.42, 76713.27, 0.00, 0.00, 0.00
78, 101897.29, 114848.91, 27574.41, 20904.54, 17393.63, 33634.81, 93032.56, 76738.48, 0.00, 0.00, 0.00
79, 101864.56, 114691.52, 27558.36, 20902.90, 17390.91, 33645.54, 92975.16, 76720.30, 0.00, 0.00, 0.00
80, 101856.13, 114772.27, 27572.73, 20915.04, 17410.06, 33649.05, 93014.95, 76721.27, 0.00, 0.00, 0.00
81, 101879.60, 114838.14, 27594.84, 20916.09, 17392.41, 33637.34, 93031.73, 76737.91, 0.00, 0.00, 0.00
82, 101867.36, 114847.23, 27581.76, 20905.72, 17363.95, 33614.21, 92977.87, 76718.25, 0.00, 0.00, 0.00
83, 101864.85, 114863.30, 27586.50, 20912.34, 17363.30, 33627.08, 93023.73, 76713.55, 0.00, 0.00, 0.00
84, 101870.33, 114871.73, 27584.33, 20912.60, 17399.63, 33628.24, 93017.30, 76724.55, 0.00, 0.00, 0.00
85, 101870.66, 114817.13, 27595.55, 20911.55, 17399.80, 33619.79, 92962.94, 76723.10, 0.08, -0.21, 0.98
86, 101847.13, 114783.94, 27571.26, 20894.37, 17388.14, 33631.64, 92971.52, 76695.83, 0.00, 0.00, 0.00
87, 101865.68, 114846.16, 27576.75, 20907.46, 17408.21, 33656.38, 93045.73, 76716.13, 0.00, 0.00, 0.00
88, 101861.77, 114819.41, 27555.68, 20887.39, 17390.95, 33629.56, 93058.38, 76706.63, 0.00, 0.00, 0.00
89, 101886.83, 114828.82, 27590.90, 20920.61, 17414.94, 33645.59, 93006.21, 76736.91, 0.00, 0.00, 0.00
90, 101876.77, 114783.22, 27589.16, 20916.67, 17408.05, 33642.23, 92959.59, 76736.29, 0.00, 0.00, 0.00
91, 101875.16, 114891.74, 27597.52, 20919.00, 17409.84, 33645.79, 92994.41, 76735.32, 0.00, 0.00, 0.00
92, 101874.69, 114895.07, 27602.71, 20918.86, 17397.50, 33635.71, 93008.65, 76726.98, 0.00, 0.00, 0.00
93, 101843.51, 114832.71, 27582.34, 20890.14, 17361.16, 33605.87, 92971.07, 76695.83, 0.00, 0.00, 0.00
94, 101872.05, 114827.08, 27597.52, 20909.52, 17364.96, 33630.03, 93018.52, 76728.66, 0.00, 0.00, 0.00
95, 101884.12, 114855.53, 27590.37, 20915.22, 17393.81, 33649.10, 93000.04, 76741.43, 0.08, -0.20, 0.98
96, 101880.99, 114809.84, 27592.42, 20915.62, 17387.31, 33651.64, 93006.59, 76741.67, 0.00, 0.00, 0.00
97, 101871.02, 114767.62, 27583.48, 20906.57, 17382.46, 33647.06, 93009.70, 76734.38, 0.00, 0.00, 0.00
98, 101865.73, 114858.91, 27576.55, 20900.62, 17396.21, 33639.13, 92968.48, 76721.22, 0.00, 0.00, 0.00
99, 101861.48, 114755.71, 27566.65, 20894.63, 17396.00, 33621.40, 92937.45, 76719.86, 0.00, 0.00, 0.00
100, 101861.34, 114769.05, 27567.99, 20894.90, 17395.38, 33627.66, 92982.27, 76726.79, 0.00, 0.00, 0.00
101, 101867.02, 114802.53, 27575.77, 20899.35, 17394.35, 33643.73, 93028.49, 76735.97, 0.00, 0.00, 0.00
102, 101889.87, 114847.75, 27586.72, 20912.25, 17408.41, 33660.81, 93017.48, 76759.58, 0.00, 0.00, 0.00
103, 101890.18, 114986.38, 27599.62, 20911.20, 17404.39, 33658.84, 93009.83, 76759.64, 0.00, 0.00, 0.00
104, 101883.02, 114872.80, 27589.16, 20904.83, 17404.68, 33646.21, 92973.73, 76747.30, 0.00, 0.00, 0.00
105, 101882.47, 114799.20, 27582.79, 20901.09, 17399.92, 33638.66, 93048.88, 76748.91, 0.09, -0.21, 0.98
106, 101859.20, 114797.73, 27570.07, 20895.42, 17378.62, 33632.16, 93069.53, 76728.17, 0.00, 0.00, 0.00
107, 101859.16, 114785.10, 27564.46, 20893.85, 17359.33, 33621.05, 93003.39, 76715.86, 0.00, 0.00, 0.00
108, 101883.67, 114843.23, 27603.20, 20918.68, 17378.12, 33648.16, 92961.59, 76737.45, 0.00, 0.00, 0.00
109, 101874.58, 114779.16, 27591.22, 20912.69, 17369.07, 33631.86, 92931.04, 76723.16, 0.00, 0.00, 0.00
110, 101860.43, 114742.90, 27563.14, 20894.50, 17361.36, 33623.97, 92932.27, 76710.29, 0.00, 0.00, 0.00
111, 101839.30, 114730.59, 27552.90, 20872.86, 17361.43, 33603.81, 92994.85, 76700.92, 0.00, 0.00, 0.00
112, 101883.63, 114850.92, 27611.18, 20917.52, 17364.78, 33632.36, 93011.08, 76742.19, 0.00, 0.00, 0.00
113, 101867.94, 114828.71, 27584.31, 20911.71, 17411.88, 33641.92, 92959.54, 76721.78, 0.00, 0.00, 0.00
114, 101869.99, 114849.30, 27595.08, 20924.45, 17437.96, 33660.86, 92961.15, 76729.02, 0.00, 0.00, 0.00
115, 101871.00, 114809.58, 27584.94, 20914.06, 17406.40, 33644.65, 93008.13, 76726.79, 0.09, -0.21, 0.98
116, 101854.98, 114750.63, 27574.43, 20897.12, 17379.42, 33621.54, 93038.73, 76705.38, 0.00, 0.00, 0.00
117, 101865.45, 114710.63, 27585.03, 20905.05, 17386.68, 33636.02, 92994.41, 76714.02, 0.00, 0.00, 0.00
118, 101879.54, 114728.80, 27588.96, 20921.77, 17405.68, 33656.36, 92944.83, 76737.54, 0.00, 0.00, 0.00
119, 101888.13, 114844.38, 27597.70, 20926.15, 17408.90, 33654.48, 92983.01, 76742.27, 0.00, 0.00, 0.00
120, 101891.54, 114802.09, 27595.11, 20914.55, 17390.80, 33639.55, 92977.20, 76741.00, 0.00, 0.00, 0.00
121, 101862.69, 114713.75, 27593.12, 20908.04, 17375.08, 33626.84, 92941.03, 76719.50, 0.00, 0.00, 0.00
122, 101837.18, 114686.41, 27572.51, 20896.11, 17358.05, 33622.48, 92965.87, 76687.80, 0.00, 0.00, 0.00
123, 101857.90, 114757.00, 27580.73, 20905.70, 17369.83, 33653.19, 93012.84, 76708.05, 0.00, 0.00, 0.00
124, 101859.53, 114773.45, 27587.48, 20904.49, 17373.85, 33629.72, 93018.28, 76718.13, 0.00, 0.00, 0.00
125, 101874.55, 114795.38, 27588.71, 20911.69, 17383.42, 33638.37, 92969.98, 76721.00, 0.08, -0.21, 0.98
126, 101867.36, 114754.84, 27584.98, 20906.30, 17376.16, 33638.21, 92913.56, 76714.38, 0.00, 0.00, 0.00
127, 101870.53, 114768.83, 27589.52, 20913.50, 17384.72, 33649.63, 92954.69, 76720.05, 0.00, 0.00, 0.00
128, 101858.23, 114676.23, 27571.17, 20902.03, 17374.03, 33637.27, 92991.50, 76707.45, 0.00, 0.00, 0.00
129, 101853.48, 114733.42, 27569.09, 20896.18, 17367.39, 33624.60, 92972.05, 76699.13, 0.00, 0.00, 0.00
130, 101861.39, 114770.13, 27583.57, 20900.51, 17381.30, 33629.34, 92966.78, 76706.22, 0.00, 0.00, 0.00
131, 101880.66, 114838.25, 27613.66, 20923.00, 17376.83, 33648.38, 92989.89, 76729.22, 0.00, 0.00, 0.00
132, 101872.68, 114799.43, 27592.67, 20913.32, 17354.01, 33640.67, 92967.45, 76720.86, 0.00, 0.00, 0.00
133, 101850.86, 114682.08, 27559.45, 20896.20, 17366.70, 33630.21, 92928.78, 76698.76, 0.00, 0.00, 0.00
134, 101854.73, 114674.01, 27568.62, 20898.19, 17365.05, 33635.30, 93011.57, 76704.95, 0.00, 0.00, 0.00
135, 101876.09, 114729.24, 27589.21, 20910.19, 17380.40, 33649.14, 92999.03, 76730.95, 0.08, -0.21, 0.98
136, 101877.44, 114769.81, 27596.74, 20913.61, 17376.38, 33650.53, 92971.99, 76730.05, 0.00, 0.00, 0.00
137, 101876.90, 114812.52, 27600.02, 20912.65, 17353.85, 33644.25, 92997.27, 76727.34, 0.00, 0.00, 0.00
138, 101855.48, 114708.12, 27563.90, 20885.65, 17333.96, 33617.22, 92930.75, 76706.45, 0.00, 0.00, 0.00
139, 101875.52, 114718.78, 27582.79, 20901.85, 17372.96, 33637.83, 92951.52, 76717.80, 0.00, 0.00, 0.00
140, 101871.31, 114768.00, 27586.07, 20903.69, 17372.11, 33633.09, 92961.93, 76715.45, 0.00, 0.00, 0.00
141, 101878.33, 114788.77, 27587.01, 20909.14, 17368.96, 33635.39, 92987.21, 76725.55, 0.00, 0.00, 0.00
142, 101872.52, 114698.04, 27585.72, 20896.56, 17354.38, 33634.59, 92994.02, 76715.61, 0.00, 0.00, 0.00
143, 101864.45, 114725.71, 27581.09, 20902.12, 17344.33, 33623.59, 92984.91, 76710.27, 0.00, 0.00, 0.00
144, 101849.95, 114775.17, 27565.71, 20886.27, 17323.92, 33597.00, 92958.98, 76698.58, 0.00, 0.00, 0.00
145, 101872.72, 114721.73, 27583.44, 20904.11, 17361.92, 33627.28, 92982.31, 76715.34, 0.08, -0.20, 0.98
146, 101889.06, 114741.54, 27585.49, 20911.62, 17383.67, 33658.55, 92981.20, 76735.16, 0.00, 0.00, 0.00
147, 101870.06, 114668.05, 27574.50, 20898.34, 17350.99, 33632.11, 92990.92, 76721.47, 0.00, 0.00, 0.00
148, 101878.29, 114785.84, 27590.34, 20910.75, 17344.71, 33633.83, 92956.90, 76722.20, 0.00, 0.00, 0.00
149, 101871.54, 114779.09, 27578.77, 20904.00, 17359.41, 33630.01, 92952.30, 76716.70, 0.00, 0.00, 0.00
150, 101863.02, 114657.54, 27569.78, 20894.88, 17361.81, 33626.66, 93001.16, 76710.76, 0.00, 0.00, 0.00
151, 101889.35, 114786.44, 27606.62, 20923.09, 17388.79, 33659.74, 92985.58, 76735.15, 0.00, 0.00, 0.00
152, 101890.42, 114818.31, 27598.46, 20917.75, 17376.00, 33647.51, 92988.48, 76731.37, 0.00, 0.00, 0.00
153, 101869.81, 114721.45, 27573.96, 20897.61, 17336.86, 33625.20, 92973.64, 76714.85, 0.00, 0.00, 0.00
154, 101878.87, 114734.07, 27586.03, 20917.95, 17362.57, 33635.44, 92972.52, 76731.73, 0.00, 0.00, 0.00
155, 101879.38, 114649.09, 27587.93, 20917.28, 17401.19, 33632.98, 92981.78, 76727.92, 0.08, -0.21, 0.98
156, 101880.63, 114701.19, 27583.79, 20911.35, 17402.42, 33640.85, 93021.92, 76723.16, 0.00, 0.00, 0.00
157, 101871.91, 114792.14, 27576.11, 20903.04, 17364.80, 33628.20, 93016.34, 76714.11, 0.00, 0.00, 0.00
158, 101872.61, 114788.27, 27584.42, 20909.74, 17372.29, 33637.74, 92995.97, 76722.02, 0.00, 0.00, 0.00
159, 101869.99, 114738.90, 27582.92, 20906.46, 17382.62, 33642.79, 92996.84, 76716.55, 0.00, 0.00, 0.00
160, 101884.37, 114765.77, 27588.11, 20911.69, 17381.63, 33644.16, 93003.66, 76729.94, 0.00, 0.00, 0.00
161, 101874.35, 114732.69, 27591.17, 20908.11, 17368.20, 33633.50, 92963.20, 76718.00, 0.00, 0.00, 0.00
162, 101884.10, 114771.80, 27590.41, 20909.88, 17374.23, 33643.62, 92962.20, 76726.23, 0.00, 0.00, 0.00
163, 101870.11, 114734.52, 27582.52, 20897.74, 17357.67, 33634.52, 92997.91, 76712.81, 0.00, 0.00, 0.00
164, 101873.08, 114751.26, 27590.93, 20902.77, 17341.06, 33622.50, 92952.84, 76712.10, 0.00, 0.00, 0.00
165, 101869.84, 114694.35, 27571.86, 20906.44, 17363.64, 33635.57, 92972.03, 76713.55, 0.08, -0.20, 0.98
166, 101868.16, 114662.41, 27582.01, 20914.50, 17394.22, 33657.73, 93036.27, 76718.07, 0.00, 0.00, 0.00
167, 101868.70, 114702.73, 27579.68, 20912.74, 17382.55, 33652.07, 93085.98, 76719.43, 0.00, 0.00, 0.00
168, 101870.77, 114768.80, 27593.00, 20919.13, 17389.08, 33648.16, 92965.04, 76715.74, 0.00, 0.00, 0.00
169, 101855.87, 114714.70, 27585.45, 20904.76, 17372.96, 33633.85, 92935.80, 76704.73, 0.00, 0.00, 0.00
170, 101875.65, 114776.85, 27588.62, 20915.73, 17382.86, 33643.93, 93029.25, 76722.96, 0.00, 0.00, 0.00
171, 101886.40, 114867.94, 27596.69, 20915.20, 17377.03, 33645.50, 92997.96, 76729.83, 0.00, 0.00, 0.00
172, 101871.34, 114743.57, 27587.62, 20897.27, 17357.54, 33623.91, 92971.90, 76710.63, 0.00, 0.00, 0.00
173, 101871.83, 114684.88, 27573.38, 20899.69, 17348.98, 33621.98, 93053.91, 76714.54, 0.00, 0.00, 0.00
174, 101875.13, 114669.77, 27567.66, 20897.18, 17342.45, 33630.23, 92992.51, 76721.16, 0.00, 0.00, 0.00
175, 101888.01, 114791.47, 27590.23, 20910.08, 17366.48, 33647.64, 93000.20, 76731.48, 0.08, -0.20, 0.98
176, 101878.42, 114747.33, 27597.36, 20904.69, 17361.83, 33641.70, 93002.99, 76722.20, 0.00, 0.00, 0.00
177, 101880.16, 114650.72, 27573.74, 20897.32, 17370.68, 33630.93, 92984.10, 76720.77, 0.00, 0.00, 0.00
178, 101873.23, 114669.14, 27559.01, 20890.01, 17345.13, 33618.54, 92955.23, 76714.42, 0.00, 0.00, 0.00
179, 101861.79, 114739.28, 27564.30, 20884.89, 17353.31, 33612.17, 92970.80, 76703.90, 0.00, 0.00, 0.00
180, 101888.21, 114857.14, 27598.59, 20907.73, 17404.81, 33642.30, 92980.20, 76725.42, 0.00, 0.00, 0.00
181, 101879.00, 114775.60, 27593.65, 20905.38, 17389.34, 33635.29, 93019.09, 76719.99, 0.00, 0.00, 0.00
182, 101881.15, 114721.64, 27588.27, 20906.08, 17372.20, 33624.76, 93027.48, 76725.63, 0.00, 0.00, 0.00
183, 101884.91, 114733.98, 27582.59, 20899.60, 17366.16, 33624.53, 92999.88, 76727.92, 0.00, 0.00, 0.00
184, 101881.64, 114744.48, 27589.85, 20901.29, 17378.21, 33631.26, 93011.15, 76724.08, 0.00, 0.00, 0.00
185, 101882.45, 114686.33, 27581.85, 20899.93, 17376.22, 33635.35, 93009.31, 76720.17, 0.08, -0.20, 0.99
186, 101882.73, 114796.30, 27590.25, 20901.92, 17361.20, 33629.67, 93035.06, 76720.88, 0.00, 0.00, 0.00
187, 101888.79, 114801.69, 27604.94, 20913.03, 17380.58, 33651.15, 93056.61, 76737.09, 0.00, 0.00, 0.00
188, 101892.19, 114743.75, 27613.81, 20909.72, 17386.17, 33656.27, 93041.91, 76741.67, 0.00, 0.00, 0.00
189, 101881.80, 114786.11, 27587.24, 20895.82, 17373.50, 33621.07, 92956.34, 76725.73, 0.00, 0.00, 0.00
190, 101866.09, 114660.98, 27543.36, 20869.94, 17351.28, 33607.32, 92945.66, 76704.32, 0.00, 0.00, 0.00
191, 101898.31, 114651.34, 27572.96, 20899.19, 17378.66, 33633.77, 93001.78, 76738.21, 0.00, 0.00, 0.00
192, 101893.42, 114714.80, 27581.58, 20902.55, 17371.26, 33622.19, 92995.97, 76730.59, 0.00, 0.00, 0.00
193, 101884.01, 114755.88, 27576.02, 20894.77, 17364.73, 33615.57, 92976.62, 76719.79, 0.00, 0.00, 0.00
194, 101888.05, 114871.45, 27588.22, 20906.75, 17376.80, 33638.50, 93005.70, 76725.13, 0.00, 0.00, 0.00
195, 101888.44, 114749.47, 27590.52, 20897.40, 17364.98, 33624.84, 93023.35, 76724.70, 0.08, -0.20, 0.98
196, 101899.27, 114742.05, 27598.35, 20906.39, 17364.78, 33628.62, 93030.23, 76738.74, 0.00, 0.00, 0.00
197, 101879.70, 114715.97, 27564.04, 20877.33, 17325.04, 33609.33, 93011.95, 76726.41, 0.00, 0.00, 0.00
198, 101896.93, 114707.02, 27566.03, 20883.03, 17336.06, 33621.71, 92987.75, 76743.70, 0.00, 0.00, 0.00
199, 101901.63, 114780.14, 27594.95, 20899.51, 17347.68, 33623.84, 93046.60, 76741.85, 0.00, 0.00, 0.00
200, 101884.97, 114831.73, 27597.09, 20898.46, 17349.00, 33635.57, 93048.56, 76725.31, 0.00, 0.00, 0.00
201, 101897.24, 114815.74, 27610.62, 20910.06, 17395.40, 33649.10, 93039.22, 76730.61, 0.00, 0.00, 0.00
202, 101884.75, 114686.82, 27583.01, 20899.53, 17379.64, 33634.03, 92994.12, 76711.48, 0.00, 0.00, 0.00
203, 101886.98, 114647.05, 27582.92, 20892.71, 17350.23, 33618.36, 93023.53, 76710.54, 0.00, 0.00, 0.00
204, 101881.95, 114738.01, 27589.90, 20883.48, 17390.39, 33626.84, 92978.96, 76704.86, 0.00, 0.00, 0.00
205, 101881.10, 114771.27, 27586.01, 20892.40, 17399.56, 33637.65, 93007.86, 76703.85, 0.09, -0.20, 0.98
206, 101884.16, 114870.57, 27592.06, 20896.02, 17393.63, 33626.43, 92996.59, 76701.66, 0.00, 0.00, 0.00
207, 101892.79, 114787.85, 27604.31, 20900.06, 17386.24, 33627.39, 92974.89, 76712.59, 0.00, 0.00, 0.00
208, 101899.09, 114712.99, 27598.03, 20900.76, 17380.34, 33629.11, 93016.31, 76721.17, 0.00, 0.00, 0.00
209, 101878.95, 114698.66, 27575.73, 20882.70, 17365.70, 33613.71, 92998.19, 76702.27, 0.00, 0.00, 0.00
210, 101880.55, 114755.20, 27583.10, 20885.94, 17375.71, 33631.06, 93000.66, 76701.08, 0.00, 0.00, 0.00
211, 101891.45, 114743.48, 27585.43, 20889.89, 17370.05, 33631.51, 93059.45, 76717.31, 0.00, 0.00, 0.00
212, 101897.11, 114783.18, 27583.50, 20887.75, 17360.89, 33631.33, 93056.10, 76724.15, 0.00, 0.00, 0.00
213, 101907.73, 114877.55, 27598.35, 20905.68, 17381.74, 33649.03, 93080.80, 76735.64, 0.00, 0.00, 0.00
214, 101893.38, 114709.59, 27584.11, 20891.24, 17353.40, 33625.67, 92976.26, 76715.52, 0.00, 0.00, 0.00
215, 101890.13, 114679.35, 27581.36, 20879.30, 17359.84, 33627.68, 93019.66, 76709.40, 0.08, -0.20, 0.98
216, 101891.72, 114766.46, 27591.62, 20882.00, 17374.19, 33633.88, 93062.54, 76703.98, 0.00, 0.00, 0.00
217, 101894.02, 114879.78, 27613.25, 20898.08, 17372.78, 33641.34, 93042.64, 76715.50, 0.00, 0.00, 0.00
218, 101895.32, 114815.19, 27604.61, 20903.84, 17388.92, 33647.78, 92974.78, 76718.76, 0.00, 0.00, 0.00
219, 101873.08, 114685.10, 27564.33, 20883.28, 17369.50, 33624.51, 93000.38, 76697.10, 0.00, 0.00, 0.00
220, 101898.78, 114787.31, 27609.46, 20911.87, 17393.63, 33648.45, 93054.22, 76721.89, 0.00, 0.00, 0.00
221, 101882.22, 114695.24, 27579.93, 20888.40, 17369.79, 33631.71, 93029.92, 76700.14, 0.00, 0.00, 0.00
222, 101894.52, 114703.98, 27585.31, 20896.33, 17379.38, 33643.02, 93034.35, 76714.05, 0.00, 0.00, 0.00
223, 101897.30, 114762.30, 27592.69, 20902.55, 17383.31, 33645.36, 93068.34, 76721.13, 0.00, 0.00, 0.00
224, 101901.69, 114861.50, 27607.13, 20907.42, 17380.07, 33645.92, 93031.04, 76713.69, 0.00, 0.00, 0.00
225, 101886.02, 114797.23, 27592.06, 20887.50, 17334.47, 33625.61, 92986.36, 76695.00, 0.08, -0.20, 0.98
226, 101871.11, 114735.97, 27581.89, 20875.77, 17363.15, 33613.87, 93004.64, 76686.93, 0.00, 0.00, 0.00
227, 101902.12, 114745.23, 27602.46, 20909.43, 17398.02, 33641.36, 93053.05, 76722.90, 0.00, 0.00, 0.00
228, 101899.25, 114751.44, 27600.54, 20914.91, 17407.13, 33647.18, 93031.24, 76717.47, 0.00, 0.00, 0.00
229, 101883.63, 114760.76, 27593.70, 20901.76, 17388.45, 33634.14, 93009.34, 76700.43, 0.00, 0.00, 0.00
230, 101901.40, 114839.15, 27614.08, 20919.02, 17398.24, 33656.34, 93052.34, 76727.03, 0.00, 0.00, 0.00
231, 101893.42, 114805.13, 27612.99, 20909.18, 17400.52, 33653.75, 93024.07, 76714.29, 0.00, 0.00, 0.00
232, 101885.57, 114744.77, 27590.19, 20894.59, 17390.93, 33641.45, 93015.93, 76702.60, 0.00, 0.00, 0.00
233, 101902.56, 114739.01, 27615.31, 20908.29, 17395.76, 33648.83, 93061.02, 76726.14, 0.00, 0.00, 0.00
234, 101894.60, 114729.49, 27600.92, 20902.77, 17399.67, 33633.96, 93013.67, 76710.23, 0.00, 0.00, 0.00
235, 101899.32, 114752.98, 27603.62, 20902.59, 17395.56, 33633.03, 92991.95, 76711.66, 0.08, -0.20, 0.98
236, 101901.20, 114774.51, 27591.91, 20896.62, 17378.44, 33626.59, 93030.15, 76711.27, 0.00, 0.00, 0.00
237, 101901.58, 114811.20, 27595.08, 20901.09, 17385.48, 33643.71, 93055.12, 76717.47, 0.00, 0.00, 0.00
238, 101895.09, 114823.97, 27590.43, 20894.81, 17378.17, 33630.48, 93082.41, 76707.81, 0.00, 0.00, 0.00
239, 101894.07, 114735.32, 27587.66, 20895.15, 17381.81, 33639.13, 93056.05, 76708.48, 0.00, 0.00, 0.00
240, 101898.25, 114730.85, 27592.91, 20900.56, 17381.65, 33638.52, 92993.65, 76709.46, 0.00, 0.00, 0.00
241, 101897.77, 114794.73, 27596.22, 20901.07, 17367.51, 33631.66, 92985.29, 76709.64, 0.00, 0.00, 0.00
242, 101893.73, 114776.94, 27599.33, 20897.23, 17365.00, 33628.85, 93006.09, 76710.36, 0.00, 0.00, 0.00
243, 101894.85, 114860.56, 27605.16, 20893.76, 17352.64, 33619.66, 93021.43, 76706.49, 0.00, 0.00, 0.00
244, 101883.98, 114683.20, 27576.42, 20874.88, 17320.90, 33605.60, 93011.62, 76690.46, 0.00, 0.00, 0.00
245, 101892.30, 114759.77, 27593.03, 20892.29, 17348.04, 33623.91, 93054.76, 76699.67, 0.09, -0.20, 0.98
246, 101897.40, 114825.78, 27601.68, 20899.57, 17395.33, 33633.96, 92989.53, 76702.34, 0.00, 0.00, 0.00
247, 101906.34, 114795.74, 27611.04, 20906.81, 17416.66, 33653.81, 93022.34, 76711.50, 0.00, 0.00, 0.00
248, 101895.09, 114717.73, 27598.10, 20901.41, 17383.02, 33630.75, 93060.45, 76697.62, 0.00, 0.00, 0.00
249, 101883.65, 114715.30, 27588.56, 20900.40, 17399.45, 33629.38, 93052.39, 76686.69, 0.00, 0.00, 0.00
250, 101881.02, 114723.81, 27589.23, 20897.25, 17400.56, 33624.04, 93001.09, 76683.73, 0.00, 0.00, 0.00
251, 101879.38, 114807.92, 27600.18, 20896.13, 17375.42, 33622.05, 92978.09, 76685.16, 0.00, 0.00, 0.00
252, 101894.80, 114808.99, 27611.98, 20905.16, 17375.11, 33625.56, 93040.67, 76706.55, 0.00, 0.00, 0.00
253, 101891.74, 114769.95, 27606.04, 20900.29, 17387.55, 33631.86, 93052.74, 76705.77, 0.00, 0.00, 0.00
254, 101900.55, 114835.23, 27608.90, 20901.99, 17389.84, 33639.44, 93027.20, 76708.99, 0.09, -0.20, 0.98
255, 101899.54, 114746.45, 27613.70, 20904.96, 17388.45, 33631.64, 93025.48, 76706.31, 0.00, 0.00, 0.00
0, 101901.53, 114686.26, 27596.31, 20894.46, 17377.25, 33624.84, 93005.77, 76705.38, 0.00, 0.00, 0.00
1, 101911.01, 114756.96, 27619.13, 20902.08, 17381.68, 33628.06, 93042.89, 76717.95, 0.00, 0.00, 0.00
2, 101910.05, 114817.30, 27626.51, 20908.22, 17385.95, 33637.54, 93066.00, 76718.25, 0.00, 0.00, 0.00
3, 101905.98, 114716.55, 27593.70, 20906.70, 17385.14, 33646.21, 93044.36, 76712.93, 0.00, 0.00, 0.00
4, 101912.35, 114786.27, 27601.27, 20909.07, 17395.63, 33660.50, 93054.17, 76724.69, 0.00, 0.00, 0.00
5, 101908.23, 114812.26, 27602.12, 20898.32, 17379.40, 33648.38, 92998.61, 76713.51, 0.00, 0.00, 0.00
6, 101904.23, 114755.66, 27604.65, 20894.75, 17360.87, 33618.50, 93014.52, 76702.34, 0.00, 0.00, 0.00
7, 101914.20, 114779.40, 27620.81, 20907.35, 17358.72, 33625.29, 93041.32, 76714.07, 0.00, 0.00, 0.00
8, 101918.45, 114798.24, 27604.58, 20901.32, 17367.93, 33629.50, 93076.10, 76721.89, 0.09, -0.20, 0.98
9, 101910.32, 114707.34, 27592.96, 20889.85, 17395.96, 33628.60, 93087.08, 76714.23, 0.00, 0.00, 0.00
10, 101894.16, 114729.11, 27587.86, 20886.97, 17367.46, 33619.39, 93052.48, 76700.59, 0.00, 0.00, 0.00
11, 101917.13, 114795.07, 27616.79, 20911.49, 17376.87, 33647.82, 93005.47, 76727.97, 0.00, 0.00, 0.00
12, 101910.18, 114824.88, 27621.26, 20904.31, 17377.07, 33637.77, 93004.87, 76712.37, 0.00, 0.00, 0.00
13, 101913.80, 114806.42, 27606.71, 20897.76, 17368.06, 33637.00, 93033.34, 76714.45, 0.00, 0.00, 0.00
14, 101938.14, 114838.32, 27619.04, 20911.02, 17410.47, 33653.41, 93092.02, 76742.79, 0.00, 0.00, 0.00
15, 101920.09, 114714.47, 27601.81, 20893.14, 17395.00, 33614.74, 93036.30, 76721.11, 0.00, 0.00, 0.00
16, 101905.60, 114698.42, 27591.35, 20881.31, 17370.01, 33597.80, 92989.87, 76704.23, 0.00, 0.00, 0.00
17, 101916.20, 114764.27, 27602.19, 20894.81, 17378.97, 33622.03, 93044.48, 76718.05, 0.00, 0.00, 0.00
18, 101914.70, 114818.36, 27603.31, 20893.22, 17379.22, 33623.53, 93089.27, 76721.76, 0.08, -0.20, 0.97
19, 101922.41, 114877.30, 27628.10, 20906.01, 17376.33, 33631.02, 93054.02, 76731.01, 0.00, 0.00, 0.00
20, 101921.31, 114869.45, 27644.68, 20912.13, 17369.16, 33630.61, 93057.04, 76727.41, 0.00, 0.00, 0.00
21, 101899.88, 114800.14, 27597.56, 20881.76, 17354.16, 33609.22, 93044.54, 76706.34, 0.00, 0.00, 0.00
22, 101913.06, 114754.32, 27598.73, 20886.68, 17376.98, 33615.93, 92995.73, 76722.54, 0.00, 0.00, 0.00
23, 101923.15, 114732.22, 27611.94, 20900.49, 17395.18, 33627.21, 93037.52, 76738.07, 0.00, 0.00, 0.00
24, 101921.25, 114692.02, 27599.62, 20891.19, 17380.09, 33625.09, 93041.77, 76731.73, 0.00, 0.00, 0.00
25, 101925.54, 114775.11, 27602.62, 20893.31, 17381.59, 33647.38, 93042.64, 76736.35, 0.00, 0.00, 0.00
26, 101928.09, 114833.83, 27609.66, 20887.12, 17361.22, 33626.25, 93062.36, 76734.54, 0.00, 0.00, 0.00
27, 101906.25, 114802.91, 27611.91, 20877.06, 17353.76, 33611.77, 93060.66, 76712.68, 0.00, 0.00, 0.00
28, 101920.62, 114844.73, 27628.05, 20900.51, 17382.48, 33631.64, 93064.15, 76726.12, 0.08, -0.20, 0.98
29, 101924.38, 114802.55, 27627.04, 20902.63, 17389.37, 33636.54, 93074.25, 76736.35, 0.00, 0.00, 0.00
30, 101926.86, 114771.38, 27610.30, 20895.30, 17380.78, 33631.55, 93066.36, 76735.77, 0.00, 0.00, 0.00
31, 101925.02, 114755.71, 27607.55, 20891.82, 17374.32, 33626.50, 93083.19, 76732.89, 0.00, 0.00, 0.00
32, 101917.31, 114753.59, 27600.67, 20885.42, 17366.48, 33618.72, 93090.48, 76729.70, 0.00, 0.00, 0.00
33, 101917.11, 114754.14, 27597.94, 20882.99, 17378.84, 33620.96, 93036.18, 76723.66, 0.00, 0.00, 0.00
34, 101914.48, 114805.75, 27595.78, 20876.15, 17366.99, 33615.01, 93033.23, 76717.47, 0.00, 0.00, 0.00
35, 101924.42, 114905.22, 27608.58, 20886.01, 17357.56, 33623.88, 93056.92, 76726.48, 0.00, 0.00, 0.00
36, 101943.66, 114854.30, 27629.26, 20897.52, 17382.91, 33646.84, 93084.87, 76749.45, 0.00, 0.00, 0.00
37, 101942.46, 114758.41, 27620.99, 20895.88, 17391.65, 33646.88, 93084.82, 76752.42, 0.00, 0.00, 0.00
38, 101926.79, 114721.51, 27609.12, 20889.38, 17358.25, 33632.13, 93047.94, 76735.50, 0.08, -0.20, 0.98
39, 101914.67, 114720.50, 27599.51, 20879.23, 17351.08, 33622.27, 93055.67, 76722.90, 0.00, 0.00, 0.00
40, 101919.99, 114824.55, 27611.27, 20885.45, 17380.85, 33628.94, 93077.04, 76719.41, 0.00, 0.00, 0.00
41, 101915.99, 114810.58, 27604.22, 20879.05, 17366.30, 33619.01, 93067.27, 76715.01, 0.00, 0.00, 0.00
42, 101915.34, 114832.59, 27604.43, 20880.06, 17370.14, 33621.05, 93042.84, 76717.69, 0.00, 0.00, 0.00
43, 101927.84, 114856.85, 27627.04, 20898.61, 17378.06, 33649.95, 93106.48, 76733.73, 0.00, 0.00, 0.00
44, 101925.45, 114822.70, 27627.13, 20895.21, 17375.82, 33648.36, 93091.28, 76729.22, 0.00, 0.00, 0.00
45, 101920.09, 114736.48, 27627.69, 20888.17, 17369.05, 33642.61, 93035.09, 76722.16, 0.00, 0.00, 0.00
46, 101918.88, 114779.84, 27623.54, 20886.72, 17369.56, 33625.65, 93063.45, 76720.98, 0.00, 0.00, 0.00
47, 101915.97, 114793.99, 27626.33, 20889.58, 17377.27, 33624.38, 93048.99, 76711.50, 0.00, 0.00, 0.00
48, 101917.13, 114843.08, 27617.86, 20891.62, 17381.30, 33617.31, 93033.52, 76709.87, 0.08, -0.20, 0.98
49, 101932.24, 114832.89, 27620.92, 20898.79, 17395.87, 33633.54, 93126.04, 76724.64, 0.00, 0.00, 0.00
50, 101914.52, 114746.88, 27610.57, 20892.53, 17377.77, 33617.43, 93052.34, 76706.67, 0.00, 0.00, 0.00
51, 101920.33, 114770.17, 27617.99, 20901.65, 17369.38, 33614.47, 93045.16, 76710.63, 0.00, 0.00, 0.00
52, 101927.35, 114849.27, 27632.99, 20901.41, 17391.09, 33635.55, 93070.63, 76710.31, 0.00, 0.00, 0.00
53, 101928.16, 114753.23, 27632.03, 20890.23, 17396.59, 33627.26, 93052.74, 76712.15, 0.00, 0.00, 0.00
54, 101945.34, 114844.84, 27634.91, 20909.90, 17409.57, 33650.01, 93081.47, 76741.78, 0.00, 0.00, 0.00
55, 101911.13, 114758.55, 27617.46, 20894.50, 17385.66, 33645.03, 93054.34, 76710.45, 0.00, 0.00, 0.00
56, 101916.17, 114721.58, 27622.15, 20901.18, 17383.20, 33648.07, 93093.90, 76717.45, 0.00, 0.00, 0.00
57, 101927.57, 114804.70, 27625.44, 20898.46, 17392.70, 33658.20, 93085.70, 76730.52, 0.00, 0.00, 0.00
58, 101916.15, 114853.25, 27624.65, 20892.13, 17370.50, 33616.11, 93051.83, 76719.30, 0.08, -0.20, 0.98
59, 101911.05, 114876.90, 27624.70, 20888.82, 17385.57, 33608.55, 93067.41, 76709.58, 0.00, 0.00, 0.00
60, 101898.27, 114784.41, 27596.24, 20872.82, 17360.87, 33615.35, 93054.76, 76696.63, 0.00, 0.00, 0.00
61, 101925.25, 114831.16, 27632.41, 20905.45, 17381.14, 33649.54, 93088.28, 76721.96, 0.00, 0.00, 0.00
62, 101925.80, 114827.41, 27642.09, 20901.03, 17390.53, 33640.29, 93108.34, 76721.89, 0.00, 0.00, 0.00
63, 101918.32, 114787.00, 27628.23, 20894.50, 17410.18, 33636.38, 93100.55, 76713.33, 0.00, 0.00, 0.00
64, 101905.16, 114855.80, 27638.56, 20889.16, 17394.78, 33630.95, 93080.66, 76703.31, 0.00, 0.00, 0.00
65, 101906.09, 114748.24, 27598.12, 20874.34, 17375.22, 33620.89, 93063.81, 76704.59, 0.00, 0.00, 0.00
66, 101923.77, 114807.16, 27606.50, 20889.07, 17386.33, 33639.69, 93125.97, 76720.10, 0.00, 0.00, 0.00
67, 101915.99, 114877.77, 27614.93, 20885.45, 17379.73, 33643.80, 93113.01, 76715.52, 0.00, 0.00, 0.00
68, 101930.74, 114794.13, 27618.53, 20891.33, 17397.01, 33654.55, 93097.18, 76727.75, 0.08, -0.20, 0.98
69, 101926.81, 114767.11, 27604.52, 20880.19, 17380.02, 33640.92, 93091.34, 76721.22, 0.00, 0.00, 0.00
70, 101905.34, 114758.14, 27591.95, 20876.35, 17366.61, 33620.69, 93037.14, 76703.27, 0.00, 0.00, 0.00
71, 101918.32, 114738.12, 27593.74, 20887.68, 17357.67, 33623.10, 93077.82, 76715.63, 0.00, 0.00, 0.00
72, 101929.41, 114758.10, 27618.96, 20908.45, 17383.49, 33639.89, 93108.55, 76728.57, 0.00, 0.00, 0.00
73, 101913.98, 114787.85, 27618.04, 20898.37, 17394.93, 33632.36, 93132.77, 76712.77, 0.00, 0.00, 0.00
74, 101928.27, 114908.86, 27647.16, 20916.18, 17404.03, 33647.38, 93103.23, 76722.38, 0.00, 0.00, 0.00
75, 101921.63, 114917.76, 27639.61, 20904.85, 17397.57, 33643.42, 93117.19, 76714.63, 0.00, 0.00, 0.00
76, 101919.52, 114818.90, 27618.66, 20892.20, 17379.60, 33633.81, 93080.77, 76714.94, 0.00, 0.00, 0.00
77, 101912.89, 114829.36, 27627.09, 20889.31, 17381.12, 33626.54, 93060.66, 76705.75, 0.00, 0.00, 0.00
78, 101920.30, 114749.92, 27620.32, 20899.30, 17383.62, 33627.17, 93091.68, 76711.95, 0.08, -0.20, 0.98
79, 101932.52, 114793.46, 27614.26, 20904.18, 17371.87, 33634.10, 93101.52, 76726.09, 0.00, 0.00, 0.00
80, 101943.46, 114850.73, 27624.39, 20908.83, 17382.62, 33641.05, 93124.20, 76737.49, 0.00, 0.00, 0.00
81, 101938.84, 114842.39, 27632.52, 20906.97, 17415.47, 33643.91, 93158.78, 76733.27, 0.00, 0.00, 0.00
82, 101913.00, 114822.49, 27607.06, 20875.46, 17365.54, 33609.49, 93092.95, 76705.22, 0.00, 0.00, 0.00
83, 101927.82, 114889.57, 27631.87, 20891.71, 17354.32, 33622.59, 93090.01, 76719.25, 0.00, 0.00, 0.00
84, 101933.14, 114860.83, 27658.83, 20905.05, 17409.64, 33653.43, 93140.68, 76722.67, 0.00, 0.00, 0.00
85, 101924.63, 114730.12, 27619.74, 20892.87, 17415.29, 33638.37, 93120.05, 76715.63, 0.00, 0.00, 0.00
86, 101923.57, 114763.48, 27603.76, 20891.57, 17389.68, 33624.02, 93061.10, 76714.13, 0.00, 0.00, 0.00
87, 101928.22, 114819.19, 27621.84, 20892.91, 17389.05, 33625.14, 93122.37, 76721.20, 0.00, 0.00, 0.00
88, 101932.96, 114865.63, 27641.98, 20904.11, 17409.95, 33651.51, 93173.89, 76731.41, 0.08, -0.20, 0.98
89, 101922.41, 114855.35, 27622.29, 20894.48, 17403.31, 33650.91, 93109.85, 76721.00, 0.00, 0.00, 0.00
90, 101932.76, 114913.63, 27625.84, 20897.83, 17396.43, 33643.02, 93111.87, 76726.67, 0.00, 0.00, 0.00
91, 101916.93, 114833.73, 27613.43, 20879.95, 17371.15, 33623.68, 93101.47, 76711.95, 0.00, 0.00, 0.00
92, 101919.37, 114743.73, 27608.83, 20881.74, 17375.35, 33631.21, 93077.73, 76718.78, 0.00, 0.00, 0.00
93, 101916.66, 114783.52, 27601.63, 20876.51, 17373.63, 33625.85, 93084.57, 76714.60, 0.00, 0.00, 0.00
94, 101924.80, 114843.84, 27622.55, 20881.38, 17381.01, 33639.24, 93140.61, 76726.48, 0.00, 0.00, 0.00
95, 101950.55, 114867.35, 27661.49, 20908.92, 17395.94, 33648.00, 93139.56, 76747.62, 0.00, 0.00, 0.00
96, 101932.87, 114754.14, 27618.84, 20884.89, 17365.43, 33613.85, 93097.49, 76728.28, 0.00, 0.00, 0.00
97, 101925.98, 114725.42, 27604.74, 20877.24, 17362.19, 33619.57, 93099.46, 76725.89, 0.00, 0.00, 0.00
98, 101931.59, 114840.76, 27620.09, 20894.83, 17386.39, 33639.73, 93124.36, 76731.50, 0.08, -0.20, 0.98
99, 101912.69, 114890.33, 27612.47, 20885.11, 17391.76, 33632.33, 93147.74, 76707.63, 0.00, 0.00, 0.00
100, 101927.91, 114900.45, 27631.36, 20892.51, 17390.42, 33632.91, 93107.82, 76715.05, 0.00, 0.00, 0.00
101, 101943.45, 114855.93, 27648.03, 20910.68, 17390.84, 33632.51, 93146.40, 76732.28, 0.00, 0.00, 0.00
102, 101925.98, 114839.75, 27614.75, 20887.66, 17378.17, 33619.88, 93111.95, 76719.39, 0.00, 0.00, 0.00
103, 101939.11, 114890.58, 27620.59, 20898.01, 17387.29, 33635.53, 93108.83, 76731.59, 0.00, 0.00, 0.00
104, 101925.16, 114761.30, 27606.55, 20881.54, 17392.61, 33625.58, 93144.39, 76715.95, 0.00, 0.00, 0.00
105, 101926.48, 114756.00, 27596.33, 20865.24, 17371.80, 33613.63, 93127.00, 76713.33, 0.00, 0.00, 0.00
106, 101953.08, 114891.90, 27647.54, 20891.41, 17381.03, 33657.03, 93154.09, 76737.63, 0.00, 0.00, 0.00
107, 101940.89, 114815.21, 27644.01, 20893.65, 17372.20, 33641.07, 93161.35, 76729.67, 0.00, 0.00, 0.00
108, 101948.56, 114901.35, 27644.90, 20895.84, 17376.11, 33617.16, 93095.48, 76735.05, 0.08, -0.20, 0.98
109, 101943.09, 114844.76, 27630.76, 20887.68, 17397.77, 33614.52, 93094.41, 76728.69, 0.00, 0.00, 0.00
110, 101930.86, 114741.63, 27595.17, 20873.31, 17373.72, 33603.97, 93081.40, 76715.88, 0.00, 0.00, 0.00
111, 101935.73, 114839.15, 27608.45, 20877.85, 17374.90, 33610.54, 93104.67, 76720.04, 0.00, 0.00, 0.00
112, 101931.04, 114872.88, 27614.08, 20875.57, 17362.01, 33609.02, 93143.52, 76719.52, 0.00, 0.00, 0.00
113, 101941.50, 114872.12, 27628.48, 20887.68, 17392.96, 33628.27, 93184.13, 76729.76, 0.00, 0.00, 0.00
114, 101940.54, 114794.45, 27629.84, 20888.69, 17387.94, 33630.66, 93122.77, 76724.28, 0.00, 0.00, 0.00
115, 101930.57, 114761.98, 27618.33, 20875.32, 17371.53, 33611.95, 93074.25, 76715.23, 0.00, 0.00, 0.00
116, 101931.87, 114865.23, 27629.71, 20877.29, 17381.52, 33614.39, 93084.48, 76717.47, 0.00, 0.00, 0.00
117, 101944.02, 114895.70, 27643.41, 20894.12, 17386.37, 33623.97, 93146.78, 76729.36, 0.00, 0.00, 0.00
118, 101927.57, 114803.07, 27618.66, 20875.72, 17372.07, 33617.00, 93155.98, 76715.07, 0.08, -0.21, 0.98
119, 101932.55, 114823.63, 27632.52, 20885.74, 17392.74, 33630.81, 93165.48, 76720.66, 0.00, 0.00, 0.00
120, 101915.14, 114835.57, 27607.85, 20868.84, 17368.58, 33620.66, 93104.20, 76701.33, 0.00, 0.00, 0.00
121, 101928.55, 114886.58, 27623.27, 20882.52, 17377.97, 33641.09, 93117.54, 76716.91, 0.00, 0.00, 0.00
122, 101938.95, 114888.50, 27643.21, 20900.18, 17391.18, 33634.32, 93145.05, 76729.98, 0.00, 0.00, 0.00
123, 101928.16, 114816.48, 27633.68, 20893.29, 17390.86, 33627.89, 93127.94, 76716.10, 0.00, 0.00, 0.00
124, 101917.85, 114775.80, 27626.96, 20881.04, 17380.85, 33613.89, 93143.78, 76703.77, 0.00, 0.00, 0.00
125, 101920.69, 114885.21, 27630.73, 20886.30, 17376.83, 33618.81, 93163.84, 76707.85, 0.00, 0.00, 0.00
126, 101922.61, 114818.74, 27628.48, 20888.93, 17374.30, 33624.71, 93135.09, 76714.07, 0.00, 0.00, 0.00
127, 101920.46, 114785.59, 27623.78, 20881.45, 17372.76, 33620.44, 93141.08, 76709.87, 0.00, 0.00, 0.00
128, 101931.20, 114873.95, 27647.88, 20888.98, 17375.75, 33616.55, 93116.72, 76717.71, 0.08, -0.21, 0.98
129, 101933.96, 114876.98, 27636.14, 20891.71, 17400.88, 33627.48, 93111.87, 76716.41, 0.00, 0.00, 0.00
130, 101921.83, 114905.93, 27617.05, 20874.49, 17376.45, 33617.58, 93160.55, 76704.95, 0.00, 0.00, 0.00
131, 101922.72, 114921.34, 27625.57, 20877.85, 17363.15, 33616.98, 93144.90, 76707.14, 0.00, 0.00, 0.00
132, 101908.13, 114775.96, 27605.92, 20863.56, 17353.51, 33596.64, 93103.98, 76690.17, 0.00, 0.00, 0.00
133, 101930.10, 114802.38, 27630.67, 20881.92, 17368.06, 33609.91, 93157.02, 76714.38, 0.00, 0.00, 0.00
134, 101937.88, 114859.48, 27637.39, 20890.34, 17411.23, 33633.85, 93177.67, 76724.17, 0.00, 0.00, 0.00
135, 101928.84, 114832.27, 27627.81, 20879.46, 17393.01, 33637.74, 93142.29, 76717.69, 0.00, 0.00, 0.00
136, 101934.30, 114877.19, 27628.12, 20881.85, 17387.33, 33632.16, 93132.85, 76723.05, 0.00, 0.00, 0.00
137, 101935.22, 114969.16, 27647.41, 20883.88, 17389.95, 33615.32, 93131.53, 76719.74, 0.00, 0.00, 0.00
138, 101926.56, 114890.17, 27642.47, 20880.73, 17376.02, 33605.69, 93137.10, 76710.18, 0.08, -0.20, 0.99
139, 101923.82, 114713.35, 27611.96, 20870.31, 17368.33, 33603.41, 93142.64, 76709.59, 0.00, 0.00, 0.00
140, 101939.48, 114716.52, 27604.87, 20878.14, 17383.69, 33624.24, 93150.06, 76722.67, 0.00, 0.00, 0.00
141, 101928.69, 114790.48, 27606.33, 20873.02, 17371.13, 33622.79, 93156.77, 76712.99, 0.00, 0.00, 0.00
142, 101930.63, 114836.06, 27626.08, 20882.38, 17382.19, 33631.98, 93177.18, 76714.52, 0.00, 0.00, 0.00
143, 101925.90, 114852.73, 27629.17, 20879.97, 17381.03, 33618.83, 93161.22, 76706.06, 0.00, 0.00, 0.00
144, 101934.41, 114926.14, 27658.03, 20895.04, 17400.56, 33634.03, 93168.64, 76717.17, 0.00, 0.00, 0.00
145, 101919.13, 114884.72, 27635.94, 20879.66, 17374.70, 33615.77, 93120.90, 76701.77, 0.00, 0.00, 0.00
146, 101914.88, 114892.79, 27616.50, 20863.45, 17358.34, 33603.03, 93105.65, 76692.07, 0.00, 0.00, 0.00
147, 101933.95, 114981.13, 27630.24, 20882.74, 17379.11, 33617.20, 93131.22, 76710.94, 0.00, 0.00, 0.00
148, 101933.92, 114834.92, 27622.22, 20874.47, 17371.31, 33609.07, 93147.67, 76712.30, 0.08, -0.20, 0.99
149, 101932.63, 114762.21, 27626.62, 20882.50, 17365.61, 33606.54, 93154.05, 76709.46, 0.00, 0.00, 0.00
150, 101932.84, 114779.31, 27627.56, 20890.83, 17364.13, 33623.19, 93155.38, 76711.43, 0.00, 0.00, 0.00
151, 101922.48, 114794.94, 27609.88, 20874.20, 17342.05, 33608.93, 93145.62, 76708.97, 0.00, 0.00, 0.00
152, 101933.07, 114815.37, 27626.38, 20886.03, 17365.29, 33624.13, 93153.75, 76718.02, 0.00, 0.00, 0.00
153, 101927.15, 114877.08, 27638.22, 20889.52, 17360.44, 33612.42, 93148.81, 76711.27, 0.00, 0.00, 0.00
154, 101915.79, 114856.88, 27622.71, 20875.01, 17431.14, 33619.64, 93139.09, 76699.85, 0.00, 0.00, 0.00
155, 101929.38, 114906.78, 27646.27, 20889.96, 17424.66, 33641.92, 93181.52, 76712.73, 0.00, 0.00, 0.00
156, 101923.23, 114948.16, 27680.40, 20893.87, 17394.42, 33621.52, 93149.73, 76703.23, 0.00, 0.00, 0.00
157, 101930.30, 114943.91, 27652.37, 20894.21, 17385.86, 33632.64, 93150.80, 76709.38, 0.00, 0.00, 0.00
158, 101916.89, 114897.75, 27613.88, 20869.51, 17372.42, 33654.73, 93167.09, 76700.88, 0.08, -0.20, 0.98
159, 101930.34, 114759.62, 27611.42, 20873.13, 17374.59, 33626.90, 93186.77, 76713.22, 0.00, 0.00, 0.00
160, 101941.07, 114796.70, 27619.09, 20883.88, 17383.11, 33608.98, 93169.53, 76721.38, 0.00, 0.00, 0.00
161, 101929.83, 114817.94, 27632.88, 20877.51, 17376.33, 33617.20, 93159.12, 76710.36, 0.00, 0.00, 0.00
162, 101931.04, 114853.74, 27665.27, 20887.01, 17377.83, 33616.98, 93101.74, 76709.59, 0.00, 0.00, 0.00
163, 101936.27, 114918.95, 27647.12, 20891.68, 17387.44, 33619.79, 93140.90, 76719.68, 0.00, 0.00, 0.00
164, 101922.74, 114930.34, 27663.30, 20895.71, 17383.51, 33627.28, 93158.96, 76707.07, 0.00, 0.00, 0.00
165, 101914.52, 114809.95, 27619.29, 20867.95, 17361.29, 33624.20, 93185.83, 76691.27, 0.00, 0.00, 0.00
166, 101930.08, 114801.08, 27617.32, 20876.04, 17366.19, 33631.53, 93214.88, 76707.61, 0.00, 0.00, 0.00
167, 101934.08, 114809.93, 27610.46, 20874.49, 17362.41, 33603.30, 93177.34, 76717.47, 0.00, 0.00, 0.00
168, 101921.11, 114799.20, 27605.88, 20862.92, 17359.30, 33595.88, 93124.59, 76701.66, 0.08, -0.20, 0.98
169, 101937.36, 114865.14, 27632.34, 20881.47, 17365.83, 33619.53, 93153.09, 76718.74, 0.00, 0.00, 0.00
170, 101941.16, 114960.52, 27646.51, 20892.15, 17371.91, 33629.27, 93186.01, 76731.48, 0.00, 0.00, 0.00
171, 101944.13, 114924.46, 27619.63, 20868.64, 17356.55, 33611.99, 93174.65, 76736.06, 0.00, 0.00, 0.00
172, 101946.75, 114840.64, 27629.17, 20874.05, 17352.29, 33614.63, 93152.44, 76723.79, 0.00, 0.00, 0.00
173, 101928.84, 114754.52, 27630.87, 20877.71, 17362.74, 33598.49, 93144.14, 76696.72, 0.00, 0.00, 0.00
174, 101933.59, 114775.02, 27639.52, 20890.65, 17378.86, 33609.94, 93137.80, 76704.99, 0.00, 0.00, 0.00
175, 101935.71, 114808.05, 27622.46, 20880.22, 17369.14, 33608.11, 93156.52, 76704.44, 0.00, 0.00, 0.00
176, 101937.32, 114813.60, 27624.47, 20879.41, 17339.77, 33598.56, 93150.53, 76703.83, 0.00, 0.00, 0.00
177, 101935.57, 114892.16, 27640.75, 20885.25, 17345.11, 33611.57, 93148.74, 76702.98, 0.00, 0.00, 0.00
178, 101935.15, 114984.70, 27659.88, 20890.57, 17401.62, 33629.41, 93145.26, 76703.09, 0.08, -0.20, 0.97
179, 101913.24, 114867.13, 27635.72, 20873.58, 17374.12, 33599.77, 93166.85, 76685.44, 0.00, 0.00, 0.00
180, 101907.66, 114817.24, 27624.54, 20867.39, 17360.46, 33581.50, 93152.73, 76680.98, 0.00, 0.00, 0.00
181, 101932.45, 114949.50, 27661.45, 20890.59, 17381.14, 33618.77, 93177.45, 76703.95, 0.00, 0.00, 0.00
182, 101914.81, 114878.98, 27640.84, 20872.37, 17344.66, 33605.76, 93138.80, 76684.34, 0.00, 0.00, 0.00
183, 101922.21, 114846.23, 27633.60, 20873.42, 17377.16, 33613.04, 93125.30, 76694.04, 0.00, 0.00, 0.00
184, 101920.04, 114822.72, 27630.13, 20865.89, 17370.81, 33601.36, 93131.24, 76687.73, 0.00, 0.00, 0.00
185, 101926.73, 114793.37, 27639.29, 20872.35, 17363.86, 33610.61, 93170.16, 76694.24, 0.00, 0.00, 0.00
186, 101933.36, 114848.20, 27644.03, 20876.62, 17362.39, 33614.27, 93183.19, 76700.37, 0.00, 0.00, 0.00
187, 101925.56, 114856.91, 27642.38, 20869.91, 17359.55, 33607.75, 93122.08, 76693.34, 0.00, 0.00, 0.00
188, 101909.00, 114840.76, 27630.33, 20863.65, 17363.53, 33598.14, 93114.55, 76678.84, 0.08, -0.20, 0.98
189, 101924.80, 114850.32, 27655.01, 20892.24, 17378.32, 33632.89, 93151.48, 76695.78, 0.00, 0.00, 0.00
190, 101928.78, 114952.98, 27649.02, 20900.40, 17374.61, 33634.32, 93183.19, 76701.44, 0.00, 0.00, 0.00
191, 101919.80, 114999.14, 27643.05, 20888.15, 17366.77, 33613.36, 93174.61, 76696.92, 0.00, 0.00, 0.00
192, 101913.91, 114870.66, 27638.36, 20876.53, 17358.54, 33603.77, 93145.41, 76692.74, 0.00, 0.00, 0.00
193, 101905.76, 114814.94, 27637.73, 20871.16, 17352.53, 33596.48, 93155.38, 76680.79, 0.00, 0.00, 0.00
194, 101919.84, 114803.18, 27644.77, 20878.50, 17366.25, 33615.41, 93156.28, 76693.88, 0.00, 0.00, 0.00
195, 101927.35, 114781.08, 27642.27, 20880.53, 17368.60, 33610.68, 93124.94, 76698.84, 0.00, 0.00, 0.00
196, 101904.21, 114813.77, 27627.94, 20867.23, 17345.82, 33590.76, 93151.52, 76676.77, 0.00, 0.00, 0.00
197, 101926.52, 114937.74, 27649.64, 20883.10, 17359.91, 33612.80, 93146.49, 76697.41, 0.00, 0.00, 0.00
198, 101920.66, 114876.98, 27642.47, 20884.22, 17369.34, 33618.83, 93098.84, 76687.23, 0.08, -0.20, 0.98
199, 101913.09, 114840.78, 27642.38, 20878.34, 17358.45, 33603.39, 93115.11, 76679.31, 0.00, 0.00, 0.00
200, 101928.78, 114881.05, 27652.41, 20894.37, 17374.64, 33627.91, 93132.98, 76692.95, 0.00, 0.00, 0.00
201, 101922.90, 114896.12, 27645.66, 20890.07, 17375.96, 33623.91, 93139.29, 76687.54, 0.00, 0.00, 0.00
202, 101909.55, 114852.18, 27643.63, 20884.93, 17369.41, 33615.52, 93141.93, 76679.42, 0.00, 0.00, 0.00
203, 101915.08, 114850.21, 27642.45, 20883.93, 17370.81, 33625.14, 93186.16, 76686.22, 0.00, 0.00, 0.00
204, 101911.95, 114887.80, 27630.98, 20861.91, 17331.16, 33584.41, 93159.14, 76680.27, 0.00, 0.00, 0.00
205, 101921.07, 114932.51, 27656.91, 20878.74, 17350.12, 33591.96, 93103.08, 76685.68, 0.00, 0.00, 0.00
206, 101925.70, 114826.83, 27647.61, 20877.56, 17356.49, 33600.23, 93107.77, 76687.40, 0.00, 0.00, 0.00
207, 101928.45, 114857.99, 27649.24, 20877.74, 17348.93, 33614.12, 93163.23, 76697.28, 0.00, 0.00, 0.00
208, 101929.67, 115013.83, 27677.02, 20892.22, 17347.05, 33623.01, 93123.29, 76707.61, 0.08, -0.20, 0.98
209, 101911.48, 114853.43, 27648.79, 20863.54, 17351.08, 33595.59, 93091.44, 76683.80, 0.00, 0.00, 0.00
210, 101935.87, 114731.57, 27628.61, 20884.84, 17383.62, 33617.87, 93150.09, 76709.04, 0.00, 0.00, 0.00
211, 101941.48, 114808.37, 27622.31, 20882.07, 17361.31, 33603.63, 93140.19, 76714.49, 0.00, 0.00, 0.00
212, 101932.53, 114796.66, 27609.23, 20867.79, 17349.22, 33587.45, 93073.15, 76700.59, 0.00, 0.00, 0.00
213, 101936.40, 114887.85, 27635.16, 20887.79, 17377.27, 33623.01, 93108.52, 76707.81, 0.00, 0.00, 0.00
214, 101918.38, 114933.31, 27635.54, 20879.30, 17357.25, 33611.70, 93134.73, 76693.17, 0.00, 0.00, 0.00
215, 101930.59, 114834.09, 27642.49, 20887.23, 17359.46, 33611.79, 93156.48, 76706.45, 0.00, 0.00, 0.00
216, 101942.73, 114935.91, 27663.77, 20896.36, 17369.90, 33630.86, 93159.38, 76717.76, 0.00, 0.00, 0.00
217, 101944.16, 114883.83, 27661.00, 20898.84, 17353.04, 33633.59, 93135.27, 76719.90, 0.00, 0.00, 0.00
218, 101927.17, 114798.17, 27630.96, 20879.35, 17350.96, 33608.89, 93128.05, 76699.36, 0.08, -0.20, 0.98
219, 101935.35, 114737.63, 27632.23, 20885.65, 17384.25, 33615.03, 93135.13, 76708.97, 0.00, 0.00, 0.00
220, 101941.95, 114798.94, 27648.39, 20895.64, 17381.25, 33610.00, 93135.78, 76720.55, 0.00, 0.00, 0.00
221, 101928.82, 114818.90, 27635.05, 20883.05, 17365.36, 33602.14, 93179.84, 76706.40, 0.00, 0.00, 0.00
222, 101932.47, 114908.55, 27655.05, 20894.92, 17375.33, 33610.85, 93114.59, 76711.85, 0.00, 0.00, 0.00
223, 101931.91, 114954.68, 27656.73, 20895.62, 17371.98, 33617.87, 93112.31, 76705.93, 0.00, 0.00, 0.00
224, 101934.84, 114970.24, 27646.63, 20895.66, 17368.36, 33628.29, 93157.55, 76707.34, 0.00, 0.00, 0.00
225, 101938.03, 114853.59, 27646.18, 20897.27, 17381.52, 33634.17, 93117.84, 76710.40, 0.00, 0.00, 0.00
226, 101921.07, 114759.41, 27633.64, 20884.58, 17365.16, 33595.07, 93123.80, 76697.82, 0.00, 0.00, 0.00
227, 101921.07, 114851.69, 27629.93, 20879.90, 17367.04, 33595.97, 93111.95, 76693.39, 0.00, 0.00, 0.00
228, 101932.76, 114942.48, 27655.83, 20898.08, 17371.71, 33619.44, 93139.91, 76702.49, 0.08, -0.20, 0.98
229, 101915.08, 114834.07, 27643.47, 20883.77, 17365.99, 33618.09, 93158.58, 76685.21, 0.00, 0.00, 0.00
230, 101926.55, 114870.55, 27652.59, 20895.08, 17378.06, 33635.64, 93149.77, 76694.02, 0.00, 0.00, 0.00
231, 101931.82, 114867.16, 27656.68, 20899.13, 17375.11, 33630.61, 93158.27, 76704.99, 0.00, 0.00, 0.00
232, 101932.63, 114830.77, 27655.01, 20898.01, 17358.74, 33608.15, 93154.67, 76708.14, 0.00, 0.00, 0.00
233, 101936.60, 114915.43, 27672.93, 20910.71, 17363.93, 33629.00, 93135.94, 76710.71, 0.00, 0.00, 0.00
234, 101913.94, 114846.77, 27645.42, 20891.84, 17358.99, 33604.26, 93123.98, 76685.26, 0.00, 0.00, 0.00
235, 101921.56, 114879.24, 27648.32, 20894.48, 17385.25, 33613.76, 93138.30, 76693.99, 0.00, 0.00, 0.00
236, 101926.95, 114838.52, 27659.05, 20894.41, 17383.49, 33629.27, 93183.95, 76699.98, 0.00, 0.00, 0.00
237, 101906.38, 114792.03, 27643.72, 20880.75, 17358.77, 33607.99, 93133.44, 76677.52, 0.00, 0.00, 0.00
238, 101900.95, 114795.52, 27625.95, 20878.88, 17354.05, 33598.94, 93069.40, 76670.68, 0.08, -0.20, 0.98
239, 101933.20, 114901.02, 27657.31, 20911.60, 17396.88, 33636.58, 93140.66, 76704.21, 0.00, 0.00, 0.00
240, 101933.09, 114969.55, 27674.07, 20909.18, 17385.88, 33632.24, 93248.59, 76705.10, 0.00, 0.00, 0.00
241, 101920.89, 114888.14, 27658.67, 20897.88, 17353.69, 33610.45, 93178.70, 76696.68, 0.00, 0.00, 0.00
242, 101924.24, 114920.22, 27654.16, 20900.49, 17349.71, 33619.79, 93106.75, 76705.84, 0.00, 0.00, 0.00
243, 101917.00, 114824.73, 27630.98, 20889.43, 17364.31, 33622.54, 93096.04, 76695.70, 0.00, 0.00, 0.00
244, 101920.89, 114884.34, 27641.73, 20893.16, 17376.96, 33618.32, 93124.36, 76696.61, 0.00, 0.00, 0.00
245, 101925.43, 114878.93, 27659.68, 20896.62, 17370.57, 33633.23, 93149.57, 76701.41, 0.00, 0.00, 0.00
246, 101932.98, 114810.94, 27669.13, 20902.72, 17375.22, 33635.21, 93168.39, 76713.45, 0.00, 0.00, 0.00
247, 101924.60, 114788.03, 27650.36, 20891.04, 17369.85, 33623.86, 93196.84, 76702.47, 0.00, 0.00, 0.00
248, 101924.71, 114845.49, 27645.06, 20894.01, 17370.68, 33617.49, 93135.05, 76697.46, 0.08, -0.19, 0.98
249, 101913.63, 114865.03, 27640.37, 20885.96, 17336.93, 33590.47, 93109.88, 76684.34, 0.00, 0.00, 0.00
250, 101926.03, 114937.63, 27649.17, 20891.57, 17352.55, 33608.15, 93105.77, 76694.13, 0.00, 0.00, 0.00
251, 101927.04, 114972.74, 27657.13, 20896.67, 17372.42, 33610.47, 93131.13, 76700.86, 0.00, 0.00, 0.00
252, 101922.23, 114873.52, 27655.90, 20897.49, 17365.25, 33599.14, 93156.93, 76699.98, 0.00, 0.00, 0.00
253, 101925.23, 114994.00, 27669.80, 20900.58, 17383.00, 33603.90, 93172.44, 76702.16, 0.00, 0.00, 0.00
254, 101922.37, 114900.50, 27654.87, 20890.23, 17373.99, 33611.41, 93115.13, 76693.95, 0.00, 0.00, 0.00
255, 101914.72, 114758.77, 27637.17, 20880.82, 17361.74, 33602.11, 93134.46, 76685.50, 0.00, 0.00, 0.00
0, 101932.09, 114846.30, 27667.48, 20907.06, 17381.07, 33631.82, 93163.21, 76705.57, 0.00, 0.00, 0.00
1, 101923.08, 114899.52, 27661.60, 20894.28, 17366.75, 33616.78, 93138.35, 76693.84, 0.00, 0.00, 0.00
2, 101921.54, 114947.22, 27652.88, 20894.05, 17370.41, 33619.23, 93118.52, 76697.02, 0.09, -0.20, 0.98
3, 101935.24, 114997.60, 27671.59, 20907.29, 17382.41, 33645.07, 93216.09, 76714.49, 0.00, 0.00, 0.00
4, 101922.59, 114854.08, 27658.36, 20902.08, 17332.66, 33611.43, 93169.29, 76705.51, 0.00, 0.00, 0.00
5, 101916.64, 114714.80, 27638.02, 20884.49, 17320.68, 33612.26, 93092.84, 76692.59, 0.00, 0.00, 0.00
6, 101931.28, 114780.31, 27650.63, 20894.77, 17385.92, 33612.66, 93094.21, 76702.31, 0.00, 0.00, 0.00
7, 101919.16, 114832.46, 27648.19, 20892.91, 17388.85, 33600.55, 93117.56, 76691.94, 0.00, 0.00, 0.00
8, 101929.96, 114918.95, 27663.93, 20905.59, 17387.44, 33616.53, 93140.41, 76702.76, 0.00, 0.00, 0.00
9, 101934.81, 114995.52, 27674.43, 20907.51, 17374.19, 33615.14, 93148.01, 76709.30, 0.00, 0.00, 0.00
10, 101917.49, 114892.86, 27649.51, 20881.69, 17346.58, 33602.67, 93131.55, 76691.31, 0.00, 0.00, 0.00
11, 101902.96, 114890.00, 27642.65, 20878.07, 17351.99, 33613.20, 93159.85, 76676.07, 0.00, 0.00, 0.00
12, 101921.20, 114880.77, 27649.42, 20892.46, 17360.82, 33618.81, 93197.07, 76691.70, 0.08, -0.20, 0.98
13, 101927.04, 114873.23, 27658.92, 20898.03, 17374.01, 33615.77, 93142.76, 76696.05, 0.00, 0.00, 0.00
14, 101930.41, 114938.57, 27687.98, 20908.87, 17379.44, 33607.10, 93100.55, 76701.55, 0.00, 0.00, 0.00
15, 101923.19, 114885.26, 27683.93, 20900.51, 17367.77, 33605.24, 93097.18, 76699.88, 0.00, 0.00, 0.00
16, 101910.32, 114813.22, 27650.07, 20887.84, 17378.44, 33622.27, 93145.44, 76692.63, 0.00, 0.00, 0.00
17, 101912.89, 114871.35, 27647.03, 20893.02, 17376.49, 33624.53, 93178.72, 76691.94, 0.00, 0.00, 0.00
18, 101920.02, 114946.62, 27676.82, 20896.00, 17375.82, 33621.67, 93159.30, 76694.82, 0.00, 0.00, 0.00
19, 101916.15, 114844.73, 27665.36, 20895.10, 17356.53, 33605.13, 93096.69, 76693.34, 0.00, 0.00, 0.00
20, 101921.80, 114764.16, 27645.33, 20897.12, 17340.93, 33592.59, 93093.23, 76701.41, 0.00, 0.00, 0.00
21, 101918.38, 114862.21, 27636.46, 20886.54, 17353.92, 33597.69, 93120.13, 76697.48, 0.00, 0.00, 0.00
22, 101921.42, 114931.57, 27660.13, 20897.90, 17376.16, 33619.73, 93122.05, 76699.31, 0.08, -0.20, 0.98
23, 101901.35, 114856.52, 27635.81, 20877.54, 17354.90, 33615.93, 93138.02, 76681.86, 0.00, 0.00, 0.00
24, 101928.76, 114911.34, 27660.75, 20894.88, 17363.64, 33611.12, 93207.76, 76709.69, 0.00, 0.00, 0.00
25, 101924.20, 114934.32, 27667.30, 20897.56, 17363.95, 33597.93, 93176.84, 76697.44, 0.00, 0.00, 0.00
26, 101922.52, 114862.17, 27657.11, 20894.32, 17355.64, 33597.22, 93120.13, 76693.99, 0.00, 0.00, 0.00
27, 101928.13, 114951.02, 27669.49, 20900.67, 17338.87, 33598.27, 93118.75, 76706.45, 0.00, 0.00, 0.00
28, 101910.18, 114874.80, 27648.55, 20883.05, 17304.47, 33584.81, 93113.56, 76690.77, 0.00, 0.00, 0.00
29, 101904.98, 114836.46, 27636.95, 20870.63, 17352.80, 33594.76, 93138.89, 76687.94, 0.00, 0.00, 0.00
30, 101922.30, 114904.01, 27667.48, 20896.67, 17395.36, 33624.98, 93247.30, 76709.27, 0.00, 0.00, 0.00
31, 101926.19, 114957.39, 27686.17, 20912.76, 17385.61, 33631.51, 93180.15, 76715.84, 0.00, 0.00, 0.00
32, 101921.18, 114851.33, 27661.47, 20899.86, 17379.22, 33632.98, 93107.71, 76705.13, 0.08, -0.20, 0.98
33, 101914.23, 114830.92, 27633.95, 20878.85, 17370.26, 33617.74, 93094.81, 76692.92, 0.00, 0.00, 0.00
34, 101929.31, 114944.87, 27670.74, 20906.08, 17380.52, 33622.86, 93119.91, 76708.91, 0.00, 0.00, 0.00
35, 101926.34, 114857.74, 27661.58, 20894.95, 17365.09, 33601.67, 93139.56, 76711.14, 0.00, 0.00, 0.00
36, 101934.52, 114852.94, 27667.35, 20896.49, 17373.45, 33614.72, 93178.20, 76717.89, 0.00, 0.00, 0.00
37, 101931.95, 114893.48, 27668.22, 20896.20, 17366.10, 33613.80, 93176.66, 76715.32, 0.00, 0.00, 0.00
38, 101921.91, 114966.02, 27671.86, 20892.67, 17350.61, 33599.61, 93138.04, 76709.38, 0.00, 0.00, 0.00
39, 101920.77, 114874.82, 27650.45, 20882.90, 17336.57, 33591.45, 93102.26, 76707.36, 0.00, 0.00, 0.00
40, 101924.22, 114828.46, 27636.28, 20881.31, 17327.83, 33597.04, 93123.38, 76708.32, 0.00, 0.00, 0.00
41, 101926.39, 114980.90, 27648.15, 20883.12, 17347.70, 33605.76, 93155.56, 76713.66, 0.00, 0.00, 0.00
42, 101927.69, 114898.13, 27663.43, 20887.28, 17361.29, 33607.39, 93172.53, 76719.41, 0.08, -0.20, 0.98
43, 101930.73, 114796.12, 27660.30, 20898.17, 17371.44, 33617.94, 93170.09, 76723.91, 0.00, 0.00, 0.00
44, 101922.23, 114820.59, 27639.12, 20890.37, 17364.69, 33618.72, 93133.10, 76713.38, 0.00, 0.00, 0.00
45, 101937.67, 114887.36, 27651.43, 20892.46, 17355.30, 33610.83, 93159.50, 76727.37, 0.00, 0.00, 0.00
46, 101928.42, 114934.21, 27651.54, 20882.61, 17348.57, 33607.23, 93131.60, 76718.36, 0.00, 0.00, 0.00
47, 101917.45, 114893.02, 27655.43, 20879.90, 17359.88, 33600.66, 93131.58, 76713.89, 0.00, 0.00, 0.00
48, 101922.56, 114851.64, 27652.53, 20890.05, 17350.99, 33594.25, 93145.84, 76720.59, 0.00, 0.00, 0.00
49, 101939.22, 114948.11, 27676.85, 20907.11, 17353.80, 33605.38, 93220.70, 76731.14, 0.00, 0.00, 0.00
50, 101938.68, 114924.42, 27671.68, 20905.00, 17352.71, 33615.93, 93188.13, 76730.48, 0.00, 0.00, 0.00
51, 101925.96, 114909.04, 27652.59, 20885.56, 17344.08, 33604.08, 93100.00, 76715.48, 0.00, 0.00, 0.00
52, 101927.80, 114902.40, 27653.71, 20881.07, 17351.30, 33591.30, 93127.18, 76714.96, 0.08, -0.20, 0.98
53, 101922.07, 114873.16, 27647.70, 20886.65, 17355.06, 33597.51, 93130.28, 76711.07, 0.00, 0.00, 0.00
54, 101920.51, 114823.21, 27648.66, 20889.02, 17344.69, 33595.03, 93126.95, 76712.46, 0.00, 0.00, 0.00
55, 101919.44, 114853.45, 27653.22, 20887.28, 17336.84, 33592.01, 93136.88, 76713.62, 0.00, 0.00, 0.00
56, 101925.31, 114872.07, 27670.32, 20888.91, 17319.92, 33597.96, 93126.48, 76719.70, 0.00, 0.00, 0.00
57, 101919.99, 114884.77, 27662.09, 20888.62, 17354.52, 33610.79, 93148.37, 76714.96, 0.00, 0.00, 0.00
58, 101914.36, 114920.73, 27658.34, 20894.48, 17369.50, 33610.52, 93173.73, 76713.93, 0.00, 0.00, 0.00
59, 101910.20, 114979.59, 27668.91, 20893.16, 17349.36, 33596.46, 93149.93, 76709.80, 0.00, 0.00, 0.00
60, 101913.87, 114912.30, 27653.15, 20883.30, 17332.86, 33593.29, 93163.81, 76707.30, 0.00, 0.00, 0.00
61, 101912.66, 114873.75, 27648.32, 20880.69, 17338.20, 33591.39, 93130.82, 76713.22, 0.00, 0.00, 0.00
62, 101904.35, 114840.95, 27642.83, 20879.41, 17333.15, 33574.73, 93090.05, 76701.77, 0.08, -0.21, 0.98
63, 101906.98, 114836.04, 27656.39, 20879.17, 17318.20, 33576.81, 93088.69, 76697.77, 0.00, 0.00, 0.00
64, 101911.57, 114918.00, 27680.56, 20896.82, 17329.80, 33586.71, 93123.82, 76704.12, 0.00, 0.00, 0.00
65, 101907.39, 114933.56, 27665.63, 20902.57, 17369.25, 33612.29, 93146.71, 76708.70, 0.00, 0.00, 0.00
66, 101900.23, 114950.05, 27667.93, 20898.99, 17369.34, 33607.66, 93161.45, 76702.55, 0.00, 0.00, 0.00
67, 101886.27, 114773.05, 27648.46, 20887.68, 17351.95, 33591.72, 93111.95, 76688.95, 0.00, 0.00, 0.00
68, 101906.65, 114852.58, 27645.60, 20898.86, 17366.59, 33603.63, 93143.85, 76710.60, 0.00, 0.00, 0.00
69, 101907.77, 114890.20, 27659.79, 20901.76, 17356.40, 33603.75, 93127.40, 76709.84, 0.00, 0.00, 0.00
70, 101902.80, 114874.95, 27645.40, 20891.64, 17345.04, 33600.13, 93089.52, 76707.27, 0.00, 0.00, 0.00
71, 101904.04, 114842.72, 27645.26, 20893.67, 17349.78, 33611.01, 93162.25, 76714.67, 0.00, 0.00, 0.00
72, 101907.99, 114911.86, 27656.46, 20901.99, 17359.91, 33624.58, 93185.11, 76720.91, 0.08, -0.21, 0.98
73, 101904.51, 114917.71, 27658.38, 20896.36, 17348.44, 33611.82, 93136.34, 76711.95, 0.00, 0.00, 0.00
74, 101917.65, 114976.48, 27665.18, 20897.61, 17350.34, 33619.57, 93128.02, 76718.90, 0.00, 0.00, 0.00
75, 101903.39, 114911.50, 27656.80, 20888.17, 17330.85, 33592.86, 93105.77, 76706.60, 0.00, 0.00, 0.00
76, 101884.01, 114796.41, 27652.46, 20879.90, 17321.48, 33588.64, 93079.48, 76692.43, 0.00, 0.00, 0.00
77, 101905.91, 114835.23, 27695.73, 20914.08, 17358.10, 33626.16, 93118.59, 76719.81, 0.00, 0.00, 0.00
78, 101899.43, 114826.00, 27663.50, 20908.42, 17356.24, 33611.01, 93175.55, 76715.45, 0.00, 0.00, 0.00
79, 101911.61, 114877.14, 27649.60, 20903.46, 17348.37, 33618.59, 93207.33, 76722.20, 0.00, 0.00, 0.00
80, 101904.26, 114952.76, 27646.47, 20890.92, 17330.78, 33589.55, 93122.51, 76707.41, 0.00, 0.00, 0.00
81, 101912.57, 114937.98, 27661.54, 20904.16, 17335.39, 33589.66, 93082.67, 76712.32, 0.00, 0.00, 0.00
82, 101912.44, 114873.41, 27656.21, 20903.15, 17341.51, 33599.39, 93108.09, 76713.33, 0.08, -0.20, 0.99
83, 101904.02, 114837.29, 27657.29, 20902.61, 17335.05, 33600.39, 93145.02, 76711.72, 0.00, 0.00, 0.00
84, 101905.49, 114792.16, 27668.17, 20904.58, 17324.19, 33594.45, 93143.05, 76714.23, 0.00, 0.00, 0.00
85, 101881.35, 114777.27, 27645.06, 20886.16, 17299.42, 33579.67, 93094.19, 76695.45, 0.00, 0.00, 0.00
86, 101894.85, 114897.95, 27664.78, 20901.52, 17319.43, 33620.00, 93120.83, 76709.71, 0.00, 0.00, 0.00
87, 101893.35, 114929.31, 27683.64, 20907.24, 17321.69, 33607.95, 93137.50, 76702.55, 0.00, 0.00, 0.00
88, 101891.72, 114946.59, 27673.04, 20903.04, 17319.03, 33601.91, 93101.34, 76699.61, 0.00, 0.00, 0.00
89, 101901.29, 114836.28, 27686.08, 20905.77, 17322.24, 33614.09, 93157.13, 76710.88, 0.00, 0.00, 0.00
90, 101912.77, 114867.02, 27707.47, 20924.09, 17323.96, 33614.59, 93154.55, 76719.16, 0.00, 0.00, 0.00
91, 101908.44, 114924.33, 27663.70, 20908.67, 17318.96, 33604.50, 93113.30, 76711.68, 0.00, 0.00, 0.00
92, 101891.32, 114879.45, 27636.63, 20890.25, 17311.87, 33595.88, 93099.53, 76696.19, 0.08, -0.20, 0.99
93, 101897.27, 114791.90, 27644.48, 20893.25, 17315.14, 33597.51, 93108.83, 76707.79, 0.00, 0.00, 0.00
94, 101902.23, 114810.07, 27656.24, 20898.54, 17314.85, 33591.25, 93122.69, 76714.96, 0.00, 0.00, 0.00
95, 101895.88, 114909.38, 27656.08, 20894.21, 17302.55, 33583.74, 93124.65, 76707.23, 0.00, 0.00, 0.00
96, 101902.36, 114863.45, 27666.50, 20896.49, 17307.47, 33580.88, 93151.18, 76707.12, 0.00, 0.00, 0.00
97, 101905.16, 114885.99, 27664.28, 20897.47, 17314.26, 33599.90, 93121.81, 76709.20, 0.00, 0.00, 0.00
98, 101899.19, 114949.97, 27666.14, 20892.87, 17308.81, 33598.49, 93080.20, 76704.79, 0.00, 0.00, 0.00
99, 101890.40, 114841.20, 27671.32, 20892.20, 17297.21, 33585.68, 93118.46, 76702.31, 0.00, 0.00, 0.00
100, 101894.73, 114811.68, 27663.01, 20893.43, 17296.92, 33590.47, 93161.73, 76706.96, 0.00, 0.00, 0.00
101, 101900.17, 114875.83, 27670.59, 20893.18, 17300.79, 33591.56, 93152.21, 76708.05, 0.00, 0.00, 0.00
102, 101887.98, 114950.41, 27659.97, 20886.97, 17299.54, 33586.24, 93063.01, 76694.66, 0.08, -0.21, 0.98
103, 101890.54, 114901.48, 27661.20, 20896.04, 17306.55, 33586.16, 93091.81, 76697.39, 0.00, 0.00, 0.00
104, 101902.36, 114779.42, 27658.56, 20902.52, 17302.44, 33587.25, 93103.15, 76711.95, 0.00, 0.00, 0.00
105, 101895.36, 114813.98, 27664.35, 20893.70, 17278.86, 33580.54, 93108.20, 76710.54, 0.00, 0.00, 0.00
106, 101893.77, 114825.42, 27666.94, 20891.86, 17306.84, 33595.97, 93101.92, 76707.48, 0.00, 0.00, 0.00
107, 101892.30, 114896.55, 27653.33, 20886.41, 17308.38, 33586.09, 93128.61, 76705.46, 0.00, 0.00, 0.00
108, 101892.13, 114970.51, 27676.80, 20894.05, 17313.37, 33583.32, 93137.59, 76710.98, 0.00, 0.00, 0.00
109, 101890.06, 114901.40, 27668.13, 20895.33, 17305.75, 33584.01, 93140.97, 76710.54, 0.00, 0.00, 0.00
110, 101905.98, 114905.60, 27673.58, 20906.57, 17312.97, 33597.40, 93138.73, 76715.61, 0.00, 0.00, 0.00
111, 101889.46, 114889.28, 27681.40, 20891.33, 17295.40, 33579.34, 93090.85, 76694.09, 0.08, -0.21, 0.98
112, 101892.16, 114854.88, 27675.04, 20896.02, 17296.07, 33587.07, 93080.66, 76696.95, 0.00, 0.00, 0.00
113, 101884.45, 114841.91, 27649.62, 20887.15, 17300.79, 33574.35, 93092.46, 76692.61, 0.00, 0.00, 0.00
