%OpenBCI Raw EEG Data
%Sample Rate = 250.0 Hz
%First Column = SampleIndex
%Other Columns = EEG data in microvolts followed by Accel Data (in G) interleaved with Aux Data
72, 77643.72, 121582.60, -1874.33, 62007.92, 49552.27, 24525.76, 91817.61, 99071.73, 0.00, 0.00, 0.00
73, 77645.35, 121587.43, -1868.14, 62017.95, 49577.91, 24534.68, 91825.39, 99072.74, 0.00, 0.00, 0.00
74, 77645.73, 121589.10, -1870.22, 62014.46, 49572.95, 24540.16, 91830.75, 99073.05, 0.00, 0.00, 0.00
75, 77642.58, 121583.72, -1875.78, 62011.14, 49564.39, 24535.91, 91829.14, 99069.61, 0.00, 0.00, 0.00
76, 77644.05, 121584.43, -1872.20, 62009.46, 49566.15, 24534.37, 91827.73, 99074.91, 0.07, -0.25, 0.97
77, 77647.90, 121581.59, -1877.01, 62007.29, 49556.54, 24534.62, 91830.41, 99074.73, 0.00, 0.00, 0.00
78, 77648.68, 121587.14, -1878.26, 62012.25, 49538.57, 24531.37, 91829.66, 99073.12, 0.00, 0.00, 0.00
79, 77650.02, 121594.52, -1870.55, 62018.89, 49555.83, 24534.26, 91840.34, 99075.63, 0.00, 0.00, 0.00
80, 77654.61, 121592.32, -1873.37, 62018.40, 49568.79, 24539.89, 91825.97, 99078.48, 0.00, 0.00, 0.00
81, 77650.54, 121589.04, -1874.17, 62005.64, 49561.97, 24530.57, 91810.41, 99075.18, 0.00, 0.00, 0.00
82, 77648.37, 121591.66, -1870.46, 62001.12, 49560.99, 24529.09, 91821.41, 99073.68, 0.00, 0.00, 0.00
83, 77649.47, 121594.55, -1869.92, 62020.01, 49560.77, 24527.93, 91831.24, 99073.77, 0.00, 0.00, 0.00
84, 77649.22, 121596.46, -1872.92, 62016.97, 49555.07, 24524.42, 91827.00, 99073.91, 0.00, 0.00, 0.00
85, 77649.94, 121593.53, -1874.46, 62015.67, 49568.39, 24531.66, 91828.18, 99074.69, 0.00, 0.00, 0.00
86, 77653.04, 121590.24, -1874.22, 62016.21, 49570.04, 24534.86, 91836.81, 99082.51, 0.07, -0.25, 0.97
87, 77651.19, 121588.26, -1873.50, 62009.57, 49543.78, 24525.76, 91829.14, 99080.43, 0.00, 0.00, 0.00
88, 77650.94, 121596.52, -1863.78, 62015.67, 49529.54, 24514.77, 91819.24, 99079.38, 0.00, 0.00, 0.00
89, 77655.05, 121602.98, -1865.16, 62019.00, 49567.05, 24527.93, 91828.09, 99083.78, 0.00, 0.00, 0.00
90, 77657.87, 121602.67, -1870.51, 62017.50, 49591.34, 24536.20, 91831.70, 99083.45, 0.00, 0.00, 0.00
91, 77658.77, 121593.80, -1872.25, 62023.81, 49582.34, 24534.71, 91836.92, 99085.46, 0.00, 0.00, 0.00
92, 77656.28, 121592.26, -1870.66, 62018.24, 49568.32, 24531.84, 91826.87, 99085.75, 0.00, 0.00, 0.00
93, 77653.34, 121597.80, -1857.97, 62010.22, 49551.65, 24526.93, 91826.55, 99078.40, 0.00, 0.00, 0.00
94, 77653.60, 121600.82, -1860.85, 62001.46, 49550.44, 24527.26, 91831.76, 99079.49, 0.00, 0.00, 0.00
95, 77655.14, 121599.45, -1868.18, 62000.34, 49547.04, 24531.11, 91831.40, 99084.30, 0.00, 0.00, 0.00
96, 77648.73, 121592.05, -1874.95, 62006.51, 49534.01, 24516.09, 91822.10, 99077.41, 0.08, -0.25, 0.97
97, 77649.42, 121595.36, -1867.73, 62017.50, 49559.20, 24520.44, 91820.49, 99076.72, 0.00, 0.00, 0.00
98, 77648.41, 121601.73, -1856.67, 62028.73, 49571.79, 24533.23, 91832.83, 99079.54, 0.00, 0.00, 0.00
99, 77641.87, 121603.66, -1856.13, 62025.51, 49578.96, 24531.69, 91837.15, 99078.44, 0.00, 0.00, 0.00
100, 77639.45, 121601.66, -1854.88, 62018.20, 49569.62, 24529.43, 91825.75, 99072.67, 0.00, 0.00, 0.00
101, 77638.47, 121596.30, -1856.74, 62014.02, 49569.21, 24530.90, 91829.68, 99072.14, 0.00, 0.00, 0.00
102, 77637.04, 121595.07, -1856.25, 62017.04, 49562.31, 24528.94, 91838.95, 99069.55, 0.00, 0.00, 0.00
103, 77633.64, 121593.02, -1861.88, 62008.68, 49553.39, 24530.70, 91832.07, 99064.70, 0.00, 0.00, 0.00
104, 77635.90, 121596.08, -1863.26, 62015.25, 49545.50, 24527.55, 91819.89, 99071.55, 0.00, 0.00, 0.00
105, 77637.20, 121594.18, -1861.27, 62024.57, 49543.63, 24525.23, 91829.81, 99072.83, 0.00, 0.00, 0.00
106, 77639.48, 121592.57, -1862.03, 62027.00, 49580.39, 24538.93, 91840.34, 99072.05, 0.08, -0.25, 0.97
107, 77643.84, 121595.16, -1862.50, 62024.39, 49592.24, 24540.83, 91842.53, 99076.12, 0.00, 0.00, 0.00
108, 77638.85, 121591.56, -1859.96, 62019.43, 49566.33, 24533.63, 91832.25, 99070.88, 0.00, 0.00, 0.00
109, 77634.40, 121592.39, -1870.80, 62008.03, 49535.02, 24524.74, 91827.91, 99068.13, 0.00, 0.00, 0.00
110, 77633.10, 121590.09, -1871.18, 62008.05, 49561.48, 24525.09, 91832.97, 99068.98, 0.00, 0.00, 0.00
111, 77632.27, 121589.22, -1866.10, 62015.94, 49563.38, 24525.99, 91825.08, 99064.18, 0.00, 0.00, 0.00
112, 77632.48, 121586.35, -1869.19, 62006.17, 49543.29, 24521.79, 91826.66, 99065.74, 0.00, 0.00, 0.00
113, 77631.65, 121585.46, -1874.22, 62007.96, 49570.67, 24522.59, 91835.78, 99064.78, 0.00, 0.00, 0.00
114, 77630.13, 121585.46, -1871.56, 62017.35, 49557.59, 24508.93, 91820.52, 99057.01, 0.00, 0.00, 0.00
115, 77652.70, 121584.05, -1873.46, 62007.92, 49531.42, 24503.84, 91813.14, 99074.46, 0.00, 0.00, 0.00
116, 77642.05, 121582.66, -1867.76, 62003.09, 49545.03, 24510.34, 91829.21, 99074.41, 0.08, -0.25, 0.97
117, 77603.22, 121578.29, -1869.72, 62018.11, 49547.69, 24509.36, 91820.72, 99033.67, 0.00, 0.00, 0.00
118, 77582.52, 121576.07, -1869.32, 62026.38, 49577.75, 24522.39, 91821.55, 99011.36, 0.00, 0.00, 0.00
119, 77553.78, 121577.57, -1863.78, 62019.43, 49593.22, 24519.93, 91812.23, 98985.61, 0.00, 0.00, 0.00
120, 77531.38, 121579.05, -1868.18, 62034.09, 49587.88, 24525.52, 91820.83, 98966.63, 0.00, 0.00, 0.00
121, 77512.34, 121569.81, -1872.79, 62033.62, 49595.82, 24529.45, 91829.30, 98949.80, 0.00, 0.00, 0.00
122, 77480.55, 121567.58, -1873.63, 62019.16, 49582.56, 24524.51, 91812.49, 98927.19, 0.00, 0.00, 0.00
123, 77446.09, 121565.16, -1876.90, 62010.53, 49564.63, 24514.92, 91804.45, 98897.80, 0.00, 0.00, 0.00
124, 77426.91, 121566.75, -1874.46, 62020.64, 49563.52, 24515.01, 91805.72, 98879.11, 0.00, 0.00, 0.00
125, 77390.03, 121561.05, -1870.93, 62023.94, 49564.28, 24517.54, 91811.15, 98858.92, 0.00, 0.00, 0.00
126, 77366.83, 121556.16, -1873.66, 62015.89, 49558.46, 24518.34, 91786.67, 98845.65, 0.07, -0.25, 0.98
127, 77354.78, 121555.31, -1876.83, 62011.25, 49558.93, 24517.98, 91808.20, 98818.38, 0.00, 0.00, 0.00
128, 77324.20, 121555.80, -1873.41, 62012.45, 49554.96, 24516.85, 91811.11, 98791.11, 0.00, 0.00, 0.00
129, 77314.26, 121556.67, -1875.85, 62013.84, 49554.73, 24518.99, 91812.70, 98784.29, 0.00, 0.00, 0.00
130, 77293.76, 121553.45, -1877.68, 62017.19, 49555.25, 24516.91, 91806.57, 98765.23, 0.00, 0.00, 0.00
131, 77280.33, 121548.13, -1882.89, 62009.35, 49555.80, 24517.58, 91804.52, 98755.41, 0.00, 0.00, 0.00
132, 77273.60, 121546.73, -1883.49, 62015.89, 49551.83, 24521.81, 91809.95, 98755.34, 0.00, 0.00, 0.00
133, 77259.96, 121544.73, -1887.54, 62017.62, 49541.70, 24515.24, 91802.63, 98740.02, 0.00, 0.00, 0.00
134, 77263.20, 121546.97, -1891.83, 62004.18, 49537.03, 24514.19, 91808.73, 98739.99, 0.00, 0.00, 0.00
135, 77254.47, 121546.16, -1895.76, 62000.18, 49551.09, 24521.23, 91811.64, 98737.98, 0.00, 0.00, 0.00
136, 77257.95, 121544.58, -1894.24, 62006.38, 49562.40, 24522.75, 91817.34, 98743.50, 0.07, -0.25, 0.97
137, 77256.39, 121544.63, -1899.47, 62004.32, 49570.78, 24521.29, 91835.02, 98747.30, 0.00, 0.00, 0.00
138, 77254.53, 121547.22, -1900.32, 61995.91, 49567.41, 24524.51, 91796.29, 98742.47, 0.00, 0.00, 0.00
139, 77262.53, 121549.92, -1891.81, 61992.32, 49541.72, 24516.46, 91805.72, 98744.26, 0.00, 0.00, 0.00
140, 77270.27, 121544.02, -1885.77, 62013.35, 49547.36, 24517.65, 91814.62, 98747.23, 0.00, 0.00, 0.00
141, 77274.74, 121540.09, -1887.54, 62008.74, 49579.07, 24524.65, 91808.54, 98750.70, 0.00, 0.00, 0.00
142, 77279.52, 121545.27, -1881.70, 61999.18, 49568.07, 24521.40, 91803.46, 98756.20, 0.00, 0.00, 0.00
143, 77290.23, 121550.75, -1879.54, 61993.66, 49552.05, 24517.25, 91808.89, 98763.77, 0.00, 0.00, 0.00
144, 77298.09, 121552.09, -1884.01, 61990.50, 49540.27, 24510.90, 91803.77, 98769.34, 0.00, 0.00, 0.00
145, 77308.55, 121554.13, -1886.76, 61987.15, 49559.25, 24520.11, 91809.43, 98780.00, 0.00, 0.00, 0.00
146, 77320.29, 121554.48, -1887.22, 61988.00, 49549.97, 24521.49, 91815.62, 98790.21, 0.06, -0.25, 0.97
147, 77333.55, 121556.85, -1887.69, 61984.25, 49542.15, 24519.26, 91824.78, 98797.81, 0.00, 0.00, 0.00
148, 77340.01, 121559.16, -1894.13, 61981.14, 49539.15, 24522.75, 91829.45, 98806.24, 0.00, 0.00, 0.00
149, 77349.51, 121563.89, -1890.76, 61987.51, 49545.68, 24525.05, 91809.88, 98813.39, 0.00, 0.00, 0.00
150, 77356.34, 121566.75, -1890.11, 61984.13, 49565.50, 24528.00, 91813.27, 98815.92, 0.00, 0.00, 0.00
151, 77360.57, 121562.93, -1894.00, 61976.00, 49557.08, 24519.42, 91809.07, 98822.45, 0.00, 0.00, 0.00
152, 77365.78, 121561.48, -1894.51, 61967.32, 49542.24, 24514.05, 91812.36, 98830.54, 0.00, 0.00, 0.00
153, 77372.75, 121564.67, -1894.02, 61978.10, 49538.93, 24512.40, 91810.81, 98835.74, 0.00, 0.00, 0.00
154, 77381.36, 121568.02, -1892.08, 61994.46, 49558.02, 24520.73, 91818.70, 98845.29, 0.00, 0.00, 0.00
155, 77387.03, 121566.06, -1896.41, 61985.21, 49546.21, 24523.42, 91820.59, 98851.28, 0.00, 0.00, 0.00
156, 77397.96, 121563.27, -1903.47, 61976.56, 49525.32, 24515.66, 91822.39, 98857.98, 0.06, -0.25, 0.98
157, 77402.45, 121558.59, -1896.12, 61980.96, 49542.77, 24516.02, 91809.95, 98861.25, 0.00, 0.00, 0.00
158, 77409.66, 121563.94, -1895.70, 61977.56, 49550.38, 24515.88, 91827.47, 98867.77, 0.00, 0.00, 0.00
159, 77412.65, 121566.30, -1896.66, 61973.20, 49552.65, 24512.78, 91822.80, 98871.44, 0.00, 0.00, 0.00
160, 77414.91, 121569.77, -1893.33, 61981.03, 49551.20, 24514.37, 91812.09, 98872.20, 0.00, 0.00, 0.00
161, 77415.33, 121567.42, -1899.36, 61978.50, 49543.49, 24514.86, 91824.25, 98871.93, 0.00, 0.00, 0.00
162, 77421.37, 121567.87, -1898.53, 61980.13, 49536.34, 24514.68, 91811.55, 98881.01, 0.00, 0.00, 0.00
163, 77423.60, 121572.07, -1895.56, 61976.91, 49538.80, 24515.21, 91818.84, 98882.23, 0.00, 0.00, 0.00
164, 77427.85, 121576.90, -1896.48, 61981.63, 49540.65, 24525.03, 91822.75, 98887.09, 0.00, 0.00, 0.00
165, 77431.91, 121572.09, -1901.24, 61976.71, 49537.27, 24520.73, 91816.91, 98888.77, 0.00, 0.00, 0.00
166, 77429.37, 121569.26, -1901.49, 61972.27, 49540.34, 24512.02, 91810.05, 98882.44, 0.07, -0.25, 0.97
167, 77428.74, 121568.88, -1902.00, 61976.54, 49557.04, 24508.98, 91817.81, 98879.69, 0.00, 0.00, 0.00
168, 77434.06, 121576.09, -1893.84, 61982.97, 49562.62, 24516.22, 91818.75, 98884.23, 0.00, 0.00, 0.00
169, 77436.27, 121580.92, -1889.04, 61984.02, 49551.22, 24517.16, 91812.23, 98885.41, 0.00, 0.00, 0.00
170, 77431.70, 121578.24, -1887.02, 61977.00, 49540.18, 24508.04, 91820.43, 98882.02, 0.00, 0.00, 0.00
171, 77441.02, 121575.02, -1895.09, 61970.72, 49549.77, 24505.07, 91813.68, 98888.77, 0.00, 0.00, 0.00
172, 77443.88, 121572.30, -1898.49, 61972.07, 49554.78, 24506.79, 91795.57, 98892.81, 0.00, 0.00, 0.00
173, 77429.15, 121581.23, -1891.94, 61982.30, 49556.61, 24514.14, 91813.77, 98879.63, 0.00, 0.00, 0.00
174, 77430.20, 121582.42, -1897.31, 61976.60, 49531.22, 24505.54, 91805.98, 98878.70, 0.00, 0.00, 0.00
175, 77427.73, 121572.12, -1896.23, 61975.75, 49492.93, 24487.99, 91791.59, 98875.35, 0.00, 0.00, 0.00
176, 77426.89, 121571.91, -1890.94, 61969.43, 49535.06, 24489.67, 91793.94, 98877.88, 0.07, -0.24, 0.97
177, 77431.29, 121575.91, -1893.95, 61976.29, 49578.16, 24502.67, 91807.95, 98883.17, 0.00, 0.00, 0.00
178, 77438.09, 121580.77, -1896.68, 61978.39, 49566.87, 24505.87, 91816.41, 98887.45, 0.00, 0.00, 0.00
179, 77442.47, 121582.63, -1894.00, 61972.87, 49552.81, 24501.60, 91811.04, 98888.25, 0.00, 0.00, 0.00
180, 77443.90, 121581.59, -1893.84, 61972.58, 49544.96, 24497.09, 91814.73, 98890.44, 0.00, 0.00, 0.00
181, 77448.63, 121578.94, -1896.01, 61973.41, 49549.93, 24498.58, 91808.78, 98893.79, 0.00, 0.00, 0.00
182, 77442.73, 121572.50, -1903.45, 61968.20, 49541.16, 24492.04, 91812.38, 98892.56, 0.00, 0.00, 0.00
183, 77445.73, 121576.50, -1902.18, 61973.54, 49534.46, 24491.41, 91821.77, 98896.20, 0.00, 0.00, 0.00
184, 77455.19, 121585.57, -1899.12, 61977.79, 49534.10, 24495.54, 91802.50, 98903.67, 0.00, 0.00, 0.00
185, 77457.62, 121584.32, -1903.05, 61975.89, 49551.02, 24497.94, 91806.45, 98907.56, 0.00, 0.00, 0.00
186, 77458.16, 121578.71, -1905.33, 61974.25, 49544.47, 24497.04, 91814.73, 98909.44, 0.07, -0.24, 0.97
187, 77459.25, 121578.51, -1904.23, 61979.75, 49532.67, 24489.87, 91808.65, 98911.30, 0.00, 0.00, 0.00
188, 77457.76, 121578.17, -1909.93, 61976.27, 49543.85, 24487.32, 91812.27, 98909.98, 0.00, 0.00, 0.00
189, 77459.27, 121580.50, -1906.74, 61968.24, 49533.90, 24481.42, 91810.30, 98907.96, 0.00, 0.00, 0.00
190, 77461.31, 121581.82, -1906.54, 61972.76, 49529.23, 24481.17, 91806.34, 98909.05, 0.00, 0.00, 0.00
191, 77460.10, 121579.90, -1907.25, 61968.00, 49516.24, 24474.96, 91801.59, 98908.59, 0.00, 0.00, 0.00
192, 77455.61, 121569.63, -1915.48, 61961.85, 49519.98, 24471.79, 91799.46, 98904.45, 0.00, 0.00, 0.00
193, 77460.86, 121577.30, -1910.54, 61970.68, 49556.01, 24485.93, 91807.09, 98908.77, 0.00, 0.00, 0.00
194, 77464.46, 121584.27, -1899.99, 61978.30, 49559.47, 24489.71, 91811.22, 98912.70, 0.00, 0.00, 0.00
195, 77466.54, 121583.34, -1906.07, 61975.93, 49529.81, 24477.46, 91823.71, 98914.63, 0.00, 0.00, 0.00
196, 77464.82, 121577.64, -1914.74, 61972.87, 49506.74, 24463.45, 91803.71, 98912.21, 0.08, -0.24, 0.97
197, 77462.05, 121575.25, -1911.01, 61976.20, 49522.93, 24459.92, 91788.59, 98908.79, 0.00, 0.00, 0.00
198, 77462.47, 121580.39, -1902.65, 61973.05, 49559.16, 24463.51, 91793.52, 98906.42, 0.00, 0.00, 0.00
199, 77463.77, 121584.12, -1900.93, 61974.19, 49555.96, 24467.98, 91806.57, 98912.41, 0.00, 0.00, 0.00
200, 77464.59, 121579.29, -1906.18, 61965.92, 49546.95, 24465.62, 91800.38, 98911.54, 0.00, 0.00, 0.00
201, 77468.66, 121574.84, -1910.60, 61971.93, 49545.59, 24465.30, 91795.37, 98910.98, 0.00, 0.00, 0.00
202, 77463.68, 121573.46, -1909.89, 61984.36, 49537.10, 24460.77, 91792.38, 98907.49, 0.00, 0.00, 0.00
203, 77457.20, 121576.56, -1899.92, 61971.84, 49527.02, 24454.15, 91783.93, 98899.41, 0.00, 0.00, 0.00
204, 77457.27, 121579.88, -1894.62, 61974.72, 49531.82, 24462.84, 91784.71, 98897.70, 0.00, 0.00, 0.00
205, 77452.95, 121575.47, -1903.23, 61974.59, 49531.31, 24459.80, 91788.28, 98897.16, 0.00, 0.00, 0.00
206, 77455.38, 121570.98, -1905.24, 61975.26, 49542.06, 24462.62, 91790.37, 98901.64, 0.07, -0.24, 0.98
207, 77451.90, 121570.77, -1906.76, 61973.52, 49541.19, 24459.11, 91798.48, 98896.92, 0.00, 0.00, 0.00
208, 77449.57, 121572.59, -1907.97, 61971.77, 49537.03, 24459.13, 91801.36, 98896.48, 0.00, 0.00, 0.00
209, 77454.70, 121567.13, -1905.26, 61977.79, 49526.10, 24459.80, 91778.27, 98901.46, 0.00, 0.00, 0.00
210, 77455.54, 121567.24, -1901.33, 61987.11, 49521.20, 24458.31, 91783.84, 98902.35, 0.00, 0.00, 0.00
211, 77454.36, 121565.50, -1904.91, 61989.68, 49533.09, 24461.17, 91793.54, 98904.48, 0.00, 0.00, 0.00
212, 77457.09, 121563.16, -1906.22, 61995.31, 49550.73, 24465.64, 91796.22, 98908.21, 0.00, 0.00, 0.00
213, 77458.94, 121562.10, -1906.74, 61997.37, 49553.50, 24471.27, 91792.58, 98909.08, 0.00, 0.00, 0.00
214, 77455.79, 121565.08, -1899.59, 61990.66, 49551.91, 24472.95, 91793.52, 98907.88, 0.00, 0.00, 0.00
215, 77457.35, 121566.28, -1898.42, 61983.08, 49536.85, 24467.65, 91790.74, 98904.70, 0.00, 0.00, 0.00
216, 77454.73, 121562.84, -1897.42, 61981.68, 49517.25, 24456.96, 91786.01, 98900.95, 0.07, -0.25, 0.97
217, 77451.79, 121558.75, -1904.39, 61984.31, 49510.52, 24452.61, 91782.95, 98900.12, 0.00, 0.00, 0.00
218, 77453.77, 121563.38, -1901.44, 61993.50, 49546.53, 24460.36, 91787.93, 98903.29, 0.00, 0.00, 0.00
219, 77454.58, 121566.06, -1895.85, 61994.10, 49558.58, 24467.92, 91786.74, 98901.95, 0.00, 0.00, 0.00
220, 77451.88, 121560.83, -1896.57, 61990.68, 49541.88, 24465.57, 91794.21, 98899.16, 0.00, 0.00, 0.00
221, 77456.34, 121559.71, -1898.22, 61989.43, 49559.96, 24468.99, 91797.25, 98900.12, 0.00, 0.00, 0.00
222, 77459.84, 121558.39, -1897.31, 61988.07, 49563.76, 24465.68, 91776.53, 98898.11, 0.00, 0.00, 0.00
223, 77457.91, 121559.82, -1896.81, 61999.45, 49551.07, 24473.88, 91785.34, 98900.48, 0.00, 0.00, 0.00
224, 77445.08, 121562.39, -1897.98, 61998.11, 49551.20, 24478.04, 91787.57, 98895.65, 0.00, 0.00, 0.00
225, 77448.48, 121563.83, -1900.50, 61995.89, 49549.43, 24475.40, 91809.38, 98902.64, 0.00, 0.00, 0.00
226, 77446.91, 121552.76, -1906.65, 61993.50, 49554.64, 24470.60, 91794.21, 98899.98, 0.07, -0.25, 0.97
227, 77443.00, 121545.83, -1909.49, 61993.01, 49565.02, 24472.92, 91786.85, 98895.76, 0.00, 0.00, 0.00
228, 77443.18, 121551.71, -1899.59, 61997.01, 49556.63, 24472.01, 91789.09, 98895.05, 0.00, 0.00, 0.00
229, 77445.39, 121557.61, -1894.06, 62004.21, 49560.48, 24477.57, 91793.31, 98897.99, 0.00, 0.00, 0.00
230, 77447.48, 121556.36, -1898.80, 62003.40, 49558.27, 24479.70, 91799.20, 98899.78, 0.00, 0.00, 0.00
231, 77454.02, 121555.89, -1901.84, 61997.25, 49554.60, 24476.86, 91796.47, 98903.16, 0.00, 0.00, 0.00
232, 77452.77, 121552.80, -1902.80, 62000.00, 49550.30, 24473.06, 91802.91, 98902.35, 0.00, 0.00, 0.00
233, 77452.66, 121556.92, -1903.21, 62000.86, 49551.11, 24476.84, 91787.39, 98907.83, 0.00, 0.00, 0.00
234, 77450.29, 121557.48, -1905.89, 61997.25, 49547.04, 24473.93, 91776.13, 98902.55, 0.00, 0.00, 0.00
235, 77451.09, 121556.07, -1900.08, 61996.90, 49544.61, 24469.64, 91787.23, 98902.22, 0.00, 0.00, 0.00
236, 77448.79, 121553.43, -1903.56, 61997.93, 49545.25, 24469.33, 91789.16, 98896.84, 0.07, -0.25, 0.97
237, 77446.00, 121558.23, -1896.55, 61999.56, 49550.42, 24474.24, 91785.89, 98893.81, 0.00, 0.00, 0.00
238, 77447.32, 121562.84, -1897.42, 61999.67, 49539.15, 24474.96, 91788.98, 98893.99, 0.00, 0.00, 0.00
239, 77448.14, 121565.41, -1900.66, 61999.82, 49548.52, 24473.46, 91789.52, 98889.99, 0.00, 0.00, 0.00
240, 77449.53, 121564.59, -1901.37, 61999.82, 49557.13, 24471.43, 91792.40, 98891.98, 0.00, 0.00, 0.00
241, 77446.18, 121559.89, -1903.65, 61999.47, 49552.30, 24465.62, 91785.29, 98889.59, 0.00, 0.00, 0.00
242, 77445.44, 121561.77, -1900.66, 61999.85, 49537.57, 24463.02, 91788.02, 98887.80, 0.00, 0.00, 0.00
243, 77448.59, 121566.57, -1899.54, 62000.70, 49546.82, 24466.22, 91783.21, 98890.10, 0.00, 0.00, 0.00
244, 77448.13, 121561.26, -1901.40, 62006.57, 49551.18, 24472.07, 91799.48, 98891.16, 0.00, 0.00, 0.00
245, 77451.83, 121560.67, -1902.56, 61999.78, 49537.92, 24472.77, 91794.68, 98892.14, 0.00, 0.00, 0.00
246, 77449.51, 121560.88, -1897.22, 62008.63, 49549.43, 24475.40, 91779.48, 98892.36, 0.07, -0.25, 0.97
247, 77451.98, 121559.65, -1899.07, 62011.02, 49553.39, 24476.41, 91789.54, 98893.91, 0.00, 0.00, 0.00
248, 77452.23, 121562.22, -1903.01, 62002.86, 49534.79, 24476.19, 91792.82, 98896.90, 0.00, 0.00, 0.00
249, 77452.34, 121567.00, -1899.23, 62009.08, 49530.77, 24477.86, 91796.35, 98900.01, 0.00, 0.00, 0.00
250, 77453.17, 121567.55, -1895.54, 62016.37, 49575.90, 24479.56, 91810.93, 98902.02, 0.00, 0.00, 0.00
251, 77458.96, 121565.14, -1900.50, 62007.16, 49581.18, 24480.37, 91805.34, 98899.83, 0.00, 0.00, 0.00
252, 77455.85, 121561.84, -1903.27, 62016.95, 49572.23, 24475.45, 91799.75, 98892.32, 0.00, 0.00, 0.00
253, 77458.72, 121564.52, -1903.30, 62013.53, 49556.97, 24479.92, 91800.98, 98900.01, 0.00, 0.00, 0.00
254, 77466.49, 121569.30, -1899.21, 62016.72, 49561.73, 24484.55, 91801.59, 98905.70, 0.00, 0.00, 0.00
255, 77466.00, 121570.24, -1901.75, 62020.19, 49563.85, 24482.56, 91800.60, 98905.05, 0.00, 0.00, 0.00
0, 77463.39, 121564.67, -1905.24, 62014.46, 49562.96, 24477.91, 91802.30, 98904.74, 0.07, -0.25, 0.98
1, 77453.35, 121560.83, -1897.71, 62002.86, 49548.94, 24463.11, 91807.06, 98894.58, 0.00, 0.00, 0.00
2, 77453.13, 121566.24, -1884.16, 62014.20, 49569.60, 24472.83, 91788.69, 98890.06, 0.00, 0.00, 0.00
3, 77456.30, 121570.24, -1890.87, 62019.18, 49570.87, 24481.28, 91788.28, 98894.91, 0.00, 0.00, 0.00
4, 77456.34, 121572.16, -1894.65, 62012.50, 49565.30, 24481.19, 91796.48, 98900.74, 0.00, 0.00, 0.00
5, 77456.99, 121567.06, -1899.65, 62014.06, 49565.08, 24480.10, 91798.30, 98908.03, 0.00, 0.00, 0.00
6, 77457.35, 121558.98, -1903.72, 62021.20, 49559.92, 24475.83, 91798.03, 98902.09, 0.00, 0.00, 0.00
7, 77461.15, 121563.60, -1895.52, 62015.56, 49558.22, 24477.98, 91800.29, 98903.31, 0.00, 0.00, 0.00
8, 77458.20, 121568.07, -1894.65, 62013.08, 49557.88, 24482.98, 91793.90, 98902.04, 0.00, 0.00, 0.00
9, 77453.91, 121566.20, -1895.94, 62017.86, 49552.56, 24474.02, 91793.78, 98893.03, 0.00, 0.00, 0.00
10, 77452.19, 121562.91, -1901.17, 62018.60, 49551.27, 24468.03, 91790.03, 98887.80, 0.07, -0.24, 0.97
11, 77452.73, 121561.97, -1904.10, 62015.79, 49555.78, 24472.19, 91800.27, 98891.24, 0.00, 0.00, 0.00
12, 77453.87, 121561.66, -1906.58, 62012.30, 49555.34, 24474.36, 91806.86, 98894.64, 0.00, 0.00, 0.00
13, 77454.18, 121562.73, -1908.39, 62011.09, 49558.98, 24479.32, 91782.83, 98896.99, 0.00, 0.00, 0.00
14, 77459.30, 121564.05, -1905.08, 62028.64, 49560.34, 24482.27, 91798.21, 98901.84, 0.00, 0.00, 0.00
15, 77456.57, 121558.13, -1907.54, 62016.61, 49551.94, 24472.90, 91791.77, 98895.85, 0.00, 0.00, 0.00
16, 77453.55, 121554.77, -1906.11, 62013.28, 49549.08, 24468.10, 91789.88, 98891.13, 0.00, 0.00, 0.00
17, 77450.27, 121556.60, -1910.11, 62012.54, 49550.89, 24471.47, 91789.13, 98890.28, 0.00, 0.00, 0.00
18, 77448.50, 121559.55, -1905.87, 62000.32, 49537.32, 24470.22, 91794.23, 98889.16, 0.00, 0.00, 0.00
19, 77448.66, 121557.56, -1901.95, 62005.10, 49502.50, 24460.03, 91780.33, 98884.96, 0.00, 0.00, 0.00
20, 77456.21, 121558.64, -1895.56, 62031.65, 49549.86, 24471.00, 91787.19, 98891.13, 0.07, -0.25, 0.97
21, 77457.64, 121563.52, -1894.71, 62027.79, 49580.88, 24479.61, 91795.28, 98894.87, 0.00, 0.00, 0.00
22, 77456.30, 121562.88, -1899.27, 62035.07, 49585.67, 24483.61, 91793.42, 98892.79, 0.00, 0.00, 0.00
23, 77455.97, 121560.65, -1896.01, 62045.47, 49575.30, 24484.01, 91798.74, 98894.15, 0.00, 0.00, 0.00
24, 77457.30, 121559.22, -1900.93, 62032.13, 49563.38, 24478.89, 91812.02, 98894.77, 0.00, 0.00, 0.00
25, 77455.03, 121555.78, -1900.23, 62036.32, 49566.31, 24474.47, 91809.27, 98889.39, 0.00, 0.00, 0.00
26, 77450.55, 121557.55, -1891.70, 62029.20, 49545.23, 24467.85, 91782.98, 98885.37, 0.00, 0.00, 0.00
27, 77447.80, 121561.27, -1887.22, 62026.45, 49534.23, 24467.89, 91789.11, 98883.00, 0.00, 0.00, 0.00
28, 77445.51, 121563.00, -1892.10, 62020.01, 49553.39, 24467.09, 91794.25, 98882.91, 0.00, 0.00, 0.00
29, 77447.79, 121564.12, -1892.77, 62028.88, 49568.16, 24468.19, 91796.71, 98888.38, 0.00, 0.00, 0.00
30, 77449.98, 121561.21, -1897.10, 62027.23, 49562.78, 24465.75, 91791.46, 98887.09, 0.07, -0.25, 0.97
31, 77451.18, 121558.46, -1896.57, 62023.54, 49556.99, 24463.47, 91792.94, 98887.98, 0.00, 0.00, 0.00
32, 77448.19, 121562.88, -1895.79, 62022.04, 49560.03, 24467.36, 91800.47, 98889.39, 0.00, 0.00, 0.00
33, 77447.92, 121569.70, -1893.06, 62033.31, 49560.32, 24468.88, 91794.32, 98887.98, 0.00, 0.00, 0.00
34, 77450.47, 121568.45, -1895.90, 62032.82, 49559.92, 24471.16, 91801.27, 98891.24, 0.00, 0.00, 0.00
35, 77457.60, 121564.34, -1899.38, 62036.57, 49571.12, 24477.46, 91816.90, 98899.47, 0.00, 0.00, 0.00
36, 77457.42, 121562.62, -1897.84, 62035.59, 49565.35, 24478.09, 91804.91, 98898.51, 0.00, 0.00, 0.00
37, 77453.95, 121565.08, -1891.05, 62033.22, 49556.70, 24474.89, 91787.97, 98896.61, 0.00, 0.00, 0.00
38, 77451.54, 121568.95, -1888.36, 62033.06, 49558.38, 24477.53, 91795.23, 98894.26, 0.00, 0.00, 0.00
39, 77452.68, 121568.85, -1888.05, 62042.94, 49562.64, 24473.17, 91801.20, 98896.03, 0.00, 0.00, 0.00
40, 77457.15, 121567.36, -1884.79, 62042.56, 49519.57, 24468.90, 91802.73, 98899.24, 0.07, -0.25, 0.98
41, 77454.34, 121563.34, -1894.27, 62034.80, 49474.55, 24455.09, 91801.02, 98895.45, 0.00, 0.00, 0.00
42, 77456.26, 121570.62, -1897.31, 62028.28, 49582.89, 24476.57, 91802.05, 98896.16, 0.00, 0.00, 0.00
43, 77461.04, 121570.53, -1895.11, 62031.88, 49602.45, 24488.01, 91808.58, 98901.02, 0.00, 0.00, 0.00
44, 77453.69, 121568.07, -1894.69, 62031.79, 49609.20, 24485.78, 91809.09, 98898.60, 0.00, 0.00, 0.00
45, 77457.38, 121569.97, -1892.12, 62042.11, 49599.64, 24485.75, 91810.52, 98899.07, 0.00, 0.00, 0.00
46, 77458.70, 121569.46, -1898.91, 62035.66, 49581.93, 24478.98, 91813.72, 98897.66, 0.00, 0.00, 0.00
47, 77458.36, 121572.05, -1896.63, 62035.97, 49559.96, 24478.09, 91815.62, 98902.17, 0.00, 0.00, 0.00
48, 77457.80, 121572.41, -1887.14, 62046.27, 49542.06, 24470.38, 91813.99, 98901.39, 0.00, 0.00, 0.00
49, 77463.74, 121570.38, -1891.61, 62037.18, 49570.22, 24463.63, 91809.20, 98906.40, 0.00, 0.00, 0.00
50, 77468.44, 121562.23, -1900.50, 62018.40, 49553.82, 24447.15, 91787.73, 98908.79, 0.08, -0.26, 0.97
51, 77467.92, 121565.88, -1898.87, 62026.43, 49558.40, 24471.34, 91802.99, 98916.10, 0.00, 0.00, 0.00
52, 77463.16, 121575.23, -1890.91, 62034.09, 49574.16, 24480.19, 91811.30, 98906.40, 0.00, 0.00, 0.00
53, 77473.87, 121583.18, -1884.61, 62045.33, 49572.17, 24484.57, 91820.78, 98915.36, 0.00, 0.00, 0.00
54, 77478.34, 121583.36, -1885.95, 62041.73, 49570.20, 24483.23, 91813.05, 98921.58, 0.00, 0.00, 0.00
55, 77489.78, 121580.56, -1886.20, 62040.98, 49573.82, 24472.48, 91817.63, 98935.99, 0.00, 0.00, 0.00
56, 77494.70, 121582.49, -1882.53, 62052.24, 49564.41, 24468.32, 91813.72, 98940.33, 0.00, 0.00, 0.00
57, 77492.91, 121586.69, -1878.33, 62048.42, 49552.83, 24468.41, 91813.54, 98935.59, 0.00, 0.00, 0.00
58, 77498.99, 121590.71, -1874.69, 62054.74, 49585.78, 24478.11, 91825.79, 98941.02, 0.00, 0.00, 0.00
59, 77499.71, 121586.63, -1880.61, 62049.13, 49576.48, 24474.56, 91824.90, 98939.34, 0.00, 0.00, 0.00
60, 77498.73, 121580.05, -1888.05, 62043.03, 49564.10, 24470.00, 91809.01, 98941.40, 0.07, -0.25, 0.96
61, 77495.91, 121579.80, -1885.35, 62039.25, 49565.39, 24469.44, 91802.77, 98939.05, 0.00, 0.00, 0.00
62, 77496.98, 121585.64, -1882.62, 62041.20, 49570.16, 24474.20, 91814.39, 98939.95, 0.00, 0.00, 0.00
63, 77500.11, 121591.32, -1879.25, 62047.25, 49572.66, 24479.99, 91826.69, 98945.72, 0.00, 0.00, 0.00
64, 77501.05, 121587.34, -1882.80, 62044.11, 49565.68, 24478.36, 91825.59, 98946.68, 0.00, 0.00, 0.00
65, 77501.12, 121589.38, -1884.99, 62036.59, 49563.92, 24480.01, 91821.59, 98946.59, 0.00, 0.00, 0.00
66, 77504.18, 121588.21, -1892.01, 62029.75, 49561.21, 24483.00, 91827.31, 98946.16, 0.00, 0.00, 0.00
67, 77500.34, 121588.30, -1888.72, 62040.86, 49533.18, 24474.98, 91826.08, 98940.64, 0.00, 0.00, 0.00
68, 77498.75, 121590.36, -1889.35, 62038.05, 49519.06, 24458.46, 91827.84, 98937.52, 0.00, 0.00, 0.00
69, 77496.36, 121590.83, -1888.59, 62043.14, 49496.59, 24445.05, 91816.70, 98936.66, 0.00, 0.00, 0.00
70, 77493.18, 121585.80, -1890.20, 62041.33, 49545.03, 24466.35, 91803.33, 98932.75, 0.07, -0.25, 0.97
71, 77493.70, 121584.77, -1890.09, 62035.50, 49590.61, 24478.09, 91815.62, 98932.51, 0.00, 0.00, 0.00
72, 77491.69, 121591.12, -1879.27, 62042.38, 49597.36, 24484.59, 91820.12, 98932.35, 0.00, 0.00, 0.00
73, 77493.36, 121596.01, -1875.18, 62050.99, 49587.57, 24489.22, 91829.77, 98936.73, 0.00, 0.00, 0.00
74, 77491.17, 121593.17, -1881.15, 62041.94, 49579.59, 24486.09, 91824.34, 98935.21, 0.00, 0.00, 0.00
75, 77488.96, 121590.00, -1886.06, 62039.14, 49570.71, 24483.61, 91821.74, 98935.43, 0.00, 0.00, 0.00
76, 77483.70, 121586.65, -1884.63, 62049.36, 49554.91, 24478.42, 91818.80, 98927.79, 0.00, 0.00, 0.00
77, 77482.61, 121589.15, -1883.92, 62048.62, 49569.64, 24483.09, 91823.73, 98925.11, 0.00, 0.00, 0.00
78, 77484.80, 121593.62, -1881.10, 62053.71, 49586.36, 24493.09, 91830.38, 98930.00, 0.00, 0.00, 0.00
79, 77483.62, 121592.01, -1881.77, 62052.84, 49567.52, 24487.52, 91840.32, 98927.41, 0.00, 0.00, 0.00
80, 77476.38, 121588.08, -1880.61, 62049.40, 49547.31, 24479.63, 91828.18, 98920.77, 0.07, -0.25, 0.97
81, 77473.29, 121593.89, -1870.08, 62057.54, 49597.58, 24485.73, 91815.98, 98916.48, 0.00, 0.00, 0.00
82, 77472.66, 121591.95, -1872.76, 62055.79, 49587.21, 24485.98, 91823.00, 98915.97, 0.00, 0.00, 0.00
83, 77469.02, 121590.27, -1874.22, 62054.32, 49575.12, 24467.18, 91822.93, 98910.89, 0.00, 0.00, 0.00
84, 77469.98, 121595.54, -1869.52, 62059.35, 49600.00, 24493.91, 91831.76, 98908.55, 0.00, 0.00, 0.00
85, 77460.08, 121594.65, -1871.49, 62064.38, 49597.80, 24495.19, 91838.69, 98908.12, 0.00, 0.00, 0.00
86, 77442.06, 121587.45, -1880.36, 62055.57, 49574.40, 24481.22, 91823.29, 98885.61, 0.00, 0.00, 0.00
87, 77439.92, 121588.68, -1883.22, 62054.88, 49574.85, 24482.78, 91830.15, 98885.95, 0.00, 0.00, 0.00
88, 77440.95, 121588.86, -1886.31, 62051.37, 49576.39, 24482.40, 91826.82, 98893.48, 0.00, 0.00, 0.00
89, 77415.48, 121589.28, -1874.28, 62057.07, 49580.70, 24487.86, 91830.33, 98874.41, 0.00, 0.00, 0.00
90, 77392.09, 121588.26, -1869.16, 62064.78, 49591.84, 24496.10, 91840.55, 98859.37, 0.07, -0.25, 0.97
91, 77391.10, 121586.02, -1874.13, 62064.27, 49575.21, 24492.93, 91839.80, 98859.66, 0.00, 0.00, 0.00
92, 77372.82, 121585.17, -1877.08, 62060.49, 49554.51, 24485.29, 91843.02, 98839.01, 0.00, 0.00, 0.00
93, 77352.27, 121586.11, -1879.11, 62054.09, 49560.10, 24483.45, 91826.04, 98817.91, 0.00, 0.00, 0.00
94, 77342.89, 121589.17, -1876.27, 62058.83, 49583.72, 24492.21, 91824.90, 98810.73, 0.00, 0.00, 0.00
95, 77331.20, 121586.06, -1873.37, 62062.50, 49600.84, 24493.22, 91826.57, 98804.81, 0.00, 0.00, 0.00
96, 77320.11, 121581.37, -1874.89, 62063.53, 49604.51, 24494.90, 91827.20, 98799.60, 0.00, 0.00, 0.00
97, 77311.30, 121581.13, -1879.04, 62061.83, 49597.29, 24490.04, 91825.27, 98785.05, 0.00, 0.00, 0.00
98, 77292.58, 121582.78, -1875.85, 62065.18, 49584.35, 24491.39, 91827.45, 98766.66, 0.00, 0.00, 0.00
99, 77275.19, 121581.75, -1878.57, 62059.01, 49582.52, 24490.85, 91822.35, 98755.28, 0.07, -0.25, 0.97
100, 77269.11, 121577.30, -1882.15, 62057.45, 49577.00, 24489.35, 91819.71, 98747.79, 0.00, 0.00, 0.00
101, 77255.70, 121574.84, -1884.61, 62055.77, 49565.04, 24483.45, 91821.03, 98735.19, 0.00, 0.00, 0.00
102, 77238.26, 121579.91, -1879.51, 62059.35, 49566.24, 24490.49, 91824.52, 98723.59, 0.00, 0.00, 0.00
103, 77238.64, 121587.30, -1873.37, 62071.75, 49595.70, 24500.48, 91829.66, 98727.05, 0.00, 0.00, 0.00
104, 77225.27, 121582.84, -1881.48, 62061.43, 49583.63, 24494.52, 91828.65, 98717.73, 0.00, 0.00, 0.00
105, 77220.80, 121579.60, -1884.12, 62056.13, 49597.25, 24495.68, 91843.34, 98715.98, 0.00, 0.00, 0.00
106, 77220.23, 121580.66, -1880.74, 62060.13, 49587.77, 24493.67, 91822.02, 98717.44, 0.00, 0.00, 0.00
107, 77217.77, 121584.39, -1880.59, 62055.01, 49581.84, 24494.72, 91826.57, 98720.23, 0.00, 0.00, 0.00
108, 77205.02, 121577.19, -1878.78, 62061.20, 49566.49, 24489.98, 91826.46, 98705.26, 0.00, 0.00, 0.00
109, 77197.20, 121580.43, -1875.27, 62064.82, 49578.13, 24493.58, 91828.07, 98700.72, 0.07, -0.25, 0.97
110, 77195.84, 121574.89, -1886.20, 62053.56, 49565.86, 24489.42, 91827.98, 98699.40, 0.00, 0.00, 0.00
111, 77190.95, 121573.80, -1884.30, 62060.91, 49584.46, 24490.83, 91824.41, 98685.38, 0.00, 0.00, 0.00
112, 77187.92, 121574.48, -1889.30, 62055.04, 49579.34, 24495.19, 91823.38, 98681.14, 0.00, 0.00, 0.00
113, 77181.82, 121573.57, -1893.97, 62047.82, 49551.91, 24492.68, 91819.87, 98670.01, 0.00, 0.00, 0.00
114, 77178.45, 121575.65, -1888.99, 62055.55, 49570.67, 24495.77, 91830.26, 98667.73, 0.00, 0.00, 0.00
115, 77172.41, 121570.77, -1886.96, 62047.50, 49575.56, 24494.02, 91815.66, 98661.65, 0.00, 0.00, 0.00
116, 77167.09, 121569.50, -1886.84, 62046.92, 49584.91, 24493.13, 91809.77, 98656.28, 0.00, 0.00, 0.00
117, 77160.48, 121573.23, -1888.10, 62053.20, 49598.77, 24497.02, 91819.89, 98654.70, 0.00, 0.00, 0.00
118, 77159.41, 121576.48, -1889.15, 62056.80, 49583.34, 24502.67, 91823.78, 98658.20, 0.00, 0.00, 0.00
119, 77160.70, 121578.42, -1886.51, 62065.76, 49583.03, 24504.96, 91841.05, 98667.15, 0.07, -0.25, 0.98
120, 77157.80, 121572.84, -1892.39, 62055.82, 49581.84, 24494.38, 91814.73, 98651.99, 0.00, 0.00, 0.00
121, 77152.88, 121568.52, -1898.29, 62042.36, 49548.90, 24480.05, 91799.02, 98638.47, 0.00, 0.00, 0.00
122, 77158.06, 121567.53, -1904.46, 62040.73, 49549.97, 24483.05, 91801.38, 98642.47, 0.00, 0.00, 0.00
123, 77157.75, 121573.46, -1896.59, 62059.13, 49582.40, 24497.94, 91806.26, 98644.64, 0.00, 0.00, 0.00
124, 77154.66, 121575.34, -1893.80, 62056.15, 49588.13, 24503.03, 91813.01, 98644.48, 0.00, 0.00, 0.00
125, 77144.41, 121568.20, -1899.92, 62057.61, 49587.77, 24500.39, 91815.58, 98644.75, 0.00, 0.00, 0.00
126, 77143.13, 121564.67, -1894.89, 62049.56, 49577.42, 24490.47, 91812.89, 98648.08, 0.00, 0.00, 0.00
127, 77145.32, 121567.85, -1894.73, 62048.84, 49587.68, 24494.58, 91810.32, 98644.34, 0.00, 0.00, 0.00
128, 77135.73, 121571.72, -1897.48, 62048.71, 49588.19, 24498.43, 91813.19, 98633.64, 0.00, 0.00, 0.00
129, 77132.60, 121569.77, -1903.05, 62046.90, 49579.23, 24496.88, 91817.38, 98625.75, 0.08, -0.25, 0.97
130, 77130.41, 121566.80, -1900.93, 62041.38, 49568.79, 24487.83, 91817.30, 98622.73, 0.00, 0.00, 0.00
131, 77122.55, 121563.22, -1901.62, 62041.09, 49561.15, 24485.75, 91822.10, 98618.33, 0.00, 0.00, 0.00
132, 77122.21, 121567.02, -1897.93, 62046.52, 49554.44, 24489.33, 91805.67, 98617.46, 0.00, 0.00, 0.00
133, 77126.21, 121571.54, -1895.76, 62052.51, 49551.22, 24491.03, 91805.27, 98627.02, 0.00, 0.00, 0.00
134, 77131.73, 121570.98, -1901.55, 62049.36, 49562.78, 24480.55, 91800.20, 98626.48, 0.00, 0.00, 0.00
135, 77132.76, 121566.53, -1906.69, 62039.84, 49590.61, 24482.76, 91802.05, 98617.44, 0.00, 0.00, 0.00
136, 77126.05, 121563.11, -1906.07, 62049.22, 49572.26, 24483.14, 91799.35, 98613.28, 0.00, 0.00, 0.00
137, 77122.52, 121566.09, -1902.31, 62051.57, 49574.89, 24488.44, 91808.31, 98618.89, 0.00, 0.00, 0.00
138, 77121.43, 121568.85, -1905.87, 62047.86, 49579.83, 24494.49, 91812.76, 98618.71, 0.00, 0.00, 0.00
139, 77129.68, 121569.62, -1906.29, 62055.26, 49568.50, 24487.88, 91806.52, 98617.73, 0.08, -0.25, 0.98
140, 77128.60, 121567.73, -1901.95, 62052.53, 49566.09, 24486.04, 91806.13, 98617.93, 0.00, 0.00, 0.00
141, 77125.98, 121566.95, -1900.17, 62053.54, 49565.89, 24487.03, 91811.27, 98618.87, 0.00, 0.00, 0.00
142, 77123.73, 121565.81, -1904.06, 62050.56, 49567.25, 24482.24, 91813.61, 98615.80, 0.00, 0.00, 0.00
143, 77120.38, 121568.43, -1900.43, 62045.38, 49557.62, 24473.28, 91810.41, 98603.48, 0.00, 0.00, 0.00
144, 77124.18, 121570.46, -1904.12, 62045.94, 49561.93, 24479.67, 91790.03, 98603.80, 0.00, 0.00, 0.00
145, 77122.77, 121573.81, -1895.52, 62066.10, 49569.53, 24482.96, 91796.06, 98609.55, 0.00, 0.00, 0.00
146, 77118.97, 121570.84, -1899.54, 62060.31, 49599.14, 24488.15, 91799.91, 98609.52, 0.00, 0.00, 0.00
147, 77122.03, 121568.97, -1905.96, 62051.17, 49589.78, 24481.02, 91797.59, 98612.97, 0.00, 0.00, 0.00
148, 77122.30, 121569.44, -1904.06, 62046.90, 49578.61, 24482.92, 91793.83, 98614.02, 0.00, 0.00, 0.00
149, 77123.69, 121569.37, -1907.54, 62046.38, 49563.20, 24481.37, 91805.07, 98607.45, 0.08, -0.25, 0.98
150, 77115.57, 121565.88, -1905.24, 62058.34, 49545.46, 24477.15, 91796.45, 98598.55, 0.00, 0.00, 0.00
151, 77121.16, 121557.63, -1914.54, 62048.82, 49574.51, 24477.46, 91799.93, 98604.31, 0.00, 0.00, 0.00
152, 77121.85, 121562.02, -1906.36, 62050.50, 49582.52, 24482.22, 91799.39, 98605.66, 0.00, 0.00, 0.00
153, 77114.81, 121566.91, -1900.95, 62058.54, 49554.04, 24474.85, 91788.30, 98593.74, 0.00, 0.00, 0.00
154, 77112.27, 121564.07, -1906.13, 62058.70, 49557.53, 24469.59, 91784.59, 98587.80, 0.00, 0.00, 0.00
155, 77115.15, 121560.96, -1910.11, 62050.68, 49560.48, 24470.13, 91795.84, 98587.04, 0.00, 0.00, 0.00
156, 77108.95, 121559.78, -1910.83, 62051.08, 49572.17, 24478.65, 91801.38, 98591.95, 0.00, 0.00, 0.00
157, 77106.79, 121562.35, -1908.86, 62056.15, 49565.82, 24486.78, 91792.87, 98599.46, 0.00, 0.00, 0.00
158, 77111.52, 121565.39, -1908.10, 62053.31, 49579.41, 24487.18, 91805.30, 98603.63, 0.00, 0.00, 0.00
159, 77119.30, 121573.37, -1903.16, 62063.33, 49604.66, 24491.83, 91812.23, 98606.55, 0.08, -0.25, 0.97
160, 77115.30, 121572.74, -1898.98, 62063.48, 49576.17, 24482.29, 91800.98, 98599.35, 0.00, 0.00, 0.00
161, 77113.80, 121563.80, -1902.83, 62054.63, 49566.13, 24478.42, 91796.66, 98600.90, 0.00, 0.00, 0.00
162, 77117.18, 121569.21, -1900.17, 62050.86, 49570.27, 24482.29, 91800.63, 98602.51, 0.00, 0.00, 0.00
163, 77110.81, 121573.68, -1895.16, 62055.53, 49562.67, 24484.75, 91800.60, 98589.27, 0.00, 0.00, 0.00
164, 77109.67, 121572.99, -1898.20, 62052.06, 49544.65, 24479.47, 91795.68, 98586.70, 0.00, 0.00, 0.00
165, 77108.24, 121571.45, -1897.53, 62066.43, 49572.23, 24482.22, 91794.81, 98583.46, 0.00, 0.00, 0.00
166, 77115.30, 121572.56, -1898.65, 62067.24, 49590.09, 24475.34, 91793.07, 98583.69, 0.00, 0.00, 0.00
167, 77120.91, 121569.99, -1906.02, 62059.71, 49581.40, 24471.14, 91796.42, 98582.84, 0.00, 0.00, 0.00
168, 77119.80, 121574.64, -1900.86, 62070.73, 49584.37, 24483.03, 91794.61, 98591.06, 0.00, 0.00, 0.00
169, 77116.69, 121576.79, -1899.29, 62071.66, 49584.24, 24491.45, 91791.15, 98591.04, 0.08, -0.25, 0.97
170, 77116.22, 121574.40, -1903.03, 62062.52, 49576.21, 24492.79, 91804.91, 98598.95, 0.00, 0.00, 0.00
171, 77120.69, 121571.36, -1903.74, 62064.46, 49572.23, 24487.34, 91807.53, 98608.77, 0.00, 0.00, 0.00
172, 77119.69, 121571.78, -1905.13, 62063.48, 49560.95, 24482.85, 91809.07, 98598.08, 0.00, 0.00, 0.00
173, 77109.45, 121576.88, -1902.33, 62068.09, 49582.83, 24491.43, 91806.79, 98586.92, 0.00, 0.00, 0.00
174, 77114.25, 121578.53, -1900.55, 62076.47, 49575.99, 24495.59, 91811.51, 98589.16, 0.00, 0.00, 0.00
175, 77116.33, 121574.06, -1906.96, 62075.00, 49575.07, 24498.09, 91809.09, 98586.86, 0.00, 0.00, 0.00
176, 77114.99, 121568.07, -1912.10, 62063.73, 49564.57, 24489.87, 91804.00, 98585.54, 0.00, 0.00, 0.00
177, 77118.59, 121567.09, -1921.27, 62047.43, 49541.30, 24481.06, 91801.96, 98589.59, 0.00, 0.00, 0.00
178, 77106.90, 121572.54, -1908.17, 62062.10, 49558.84, 24479.21, 91798.14, 98578.25, 0.00, 0.00, 0.00
179, 77103.10, 121573.57, -1895.67, 62071.53, 49612.73, 24494.74, 91805.95, 98576.58, 0.07, -0.25, 0.97
180, 77106.05, 121569.13, -1904.97, 62062.57, 49610.68, 24493.15, 91792.38, 98575.77, 0.00, 0.00, 0.00
181, 77107.93, 121571.16, -1906.92, 62068.78, 49593.80, 24484.28, 91793.23, 98571.77, 0.00, 0.00, 0.00
182, 77110.97, 121570.44, -1910.09, 62063.33, 49571.65, 24480.19, 91798.25, 98575.26, 0.00, 0.00, 0.00
183, 77115.80, 121574.62, -1907.92, 62059.15, 49552.07, 24478.87, 91792.82, 98583.62, 0.00, 0.00, 0.00
184, 77111.46, 121576.92, -1910.09, 62056.73, 49567.32, 24486.49, 91794.50, 98576.58, 0.00, 0.00, 0.00
185, 77112.82, 121575.78, -1909.31, 62068.40, 49577.04, 24483.23, 91793.56, 98572.04, 0.00, 0.00, 0.00
186, 77116.45, 121572.79, -1910.92, 62064.73, 49546.64, 24463.04, 91781.20, 98566.80, 0.00, 0.00, 0.00
187, 77125.95, 121574.40, -1911.05, 62066.50, 49569.55, 24469.64, 91784.30, 98570.61, 0.00, 0.00, 0.00
188, 77118.74, 121579.65, -1901.51, 62073.00, 49596.53, 24482.29, 91784.69, 98572.62, 0.00, 0.00, 0.00
189, 77122.61, 121583.85, -1899.90, 62075.38, 49576.61, 24481.26, 91781.58, 98572.91, 0.07, -0.25, 0.98
190, 77128.76, 121584.84, -1900.26, 62080.49, 49596.75, 24490.40, 91793.34, 98581.20, 0.00, 0.00, 0.00
191, 77123.40, 121575.16, -1905.66, 62076.13, 49596.80, 24493.24, 91813.32, 98587.51, 0.00, 0.00, 0.00
192, 77127.24, 121577.70, -1903.70, 62066.68, 49568.75, 24484.12, 91779.19, 98591.66, 0.00, 0.00, 0.00
193, 77129.84, 121584.16, -1899.70, 62066.97, 49547.25, 24479.32, 91787.03, 98582.88, 0.00, 0.00, 0.00
194, 77128.47, 121586.02, -1901.73, 62074.95, 49570.33, 24485.35, 91791.95, 98580.00, 0.00, 0.00, 0.00
195, 77128.70, 121582.29, -1908.48, 62071.82, 49592.82, 24492.39, 91789.29, 98584.11, 0.00, 0.00, 0.00
196, 77135.29, 121580.95, -1911.57, 62068.24, 49572.79, 24481.17, 91795.57, 98586.86, 0.00, 0.00, 0.00
197, 77129.41, 121583.25, -1903.85, 62069.83, 49576.61, 24479.03, 91791.86, 98580.60, 0.00, 0.00, 0.00
198, 77124.55, 121586.02, -1902.65, 62078.70, 49598.32, 24484.68, 91786.79, 98574.19, 0.00, 0.00, 0.00
199, 77123.28, 121586.52, -1902.63, 62079.75, 49579.77, 24478.38, 91784.22, 98568.69, 0.07, -0.25, 0.97
200, 77119.02, 121583.94, -1900.84, 62076.40, 49555.63, 24472.07, 91792.91, 98568.35, 0.00, 0.00, 0.00
201, 77114.39, 121583.27, -1899.83, 62077.34, 49570.22, 24481.82, 91788.40, 98574.72, 0.00, 0.00, 0.00
202, 77113.60, 121582.89, -1903.07, 62075.04, 49580.19, 24484.26, 91789.76, 98585.25, 0.00, 0.00, 0.00
203, 77116.78, 121584.27, -1907.18, 62070.61, 49572.14, 24488.99, 91796.22, 98586.75, 0.00, 0.00, 0.00
204, 77113.49, 121586.04, -1900.43, 62082.95, 49578.58, 24489.76, 91811.38, 98577.65, 0.00, 0.00, 0.00
205, 77108.62, 121583.88, -1903.56, 62087.36, 49590.14, 24485.71, 91784.46, 98565.31, 0.00, 0.00, 0.00
206, 77113.83, 121580.61, -1907.48, 62085.61, 49573.80, 24483.50, 91782.48, 98568.41, 0.00, 0.00, 0.00
207, 77116.63, 121583.94, -1897.24, 62088.70, 49571.12, 24473.77, 91791.26, 98574.41, 0.00, 0.00, 0.00
208, 77111.59, 121587.72, -1895.58, 62085.01, 49596.53, 24468.54, 91788.46, 98565.45, 0.00, 0.00, 0.00
209, 77110.37, 121585.20, -1904.61, 62082.93, 49583.10, 24458.57, 91779.57, 98555.12, 0.07, -0.25, 0.97
210, 77113.60, 121583.41, -1905.31, 62084.83, 49556.57, 24456.38, 91785.11, 98563.34, 0.00, 0.00, 0.00
211, 77112.53, 121586.49, -1897.35, 62096.18, 49590.27, 24470.94, 91793.36, 98568.44, 0.00, 0.00, 0.00
212, 77113.72, 121586.45, -1900.37, 62093.97, 49605.56, 24475.99, 91797.65, 98571.63, 0.00, 0.00, 0.00
213, 77112.51, 121587.48, -1903.27, 62091.42, 49593.58, 24478.82, 91803.38, 98578.12, 0.00, 0.00, 0.00
214, 77108.24, 121583.31, -1903.25, 62074.86, 49575.86, 24466.96, 91796.06, 98576.91, 0.00, 0.00, 0.00
215, 77106.99, 121582.33, -1898.94, 62077.57, 49569.04, 24457.93, 91784.75, 98568.66, 0.00, 0.00, 0.00
216, 77105.94, 121579.72, -1904.53, 62087.00, 49566.02, 24458.75, 91786.72, 98565.36, 0.00, 0.00, 0.00
217, 77107.44, 121578.17, -1911.43, 62082.59, 49565.17, 24457.28, 91789.91, 98569.78, 0.00, 0.00, 0.00
218, 77110.52, 121580.30, -1908.77, 62074.66, 49560.12, 24453.05, 91790.61, 98570.50, 0.00, 0.00, 0.00
219, 77112.42, 121580.72, -1905.84, 62073.88, 49567.47, 24456.50, 91801.95, 98571.95, 0.08, -0.25, 0.97
220, 77111.17, 121576.52, -1907.30, 62073.65, 49554.73, 24453.05, 91795.10, 98567.16, 0.00, 0.00, 0.00
221, 77110.74, 121575.73, -1911.45, 62075.31, 49554.78, 24454.86, 91795.44, 98576.17, 0.00, 0.00, 0.00
222, 77117.63, 121575.02, -1911.32, 62077.86, 49572.46, 24460.77, 91796.11, 98587.73, 0.00, 0.00, 0.00
223, 77122.66, 121574.87, -1910.65, 62079.69, 49588.15, 24466.40, 91797.00, 98588.80, 0.00, 0.00, 0.00
224, 77113.94, 121576.01, -1908.93, 62073.56, 49584.97, 24469.28, 91799.13, 98573.67, 0.00, 0.00, 0.00
225, 77104.71, 121572.59, -1915.54, 62069.47, 49569.48, 24462.29, 91795.51, 98560.17, 0.00, 0.00, 0.00
226, 77111.19, 121571.80, -1916.93, 62075.78, 49561.73, 24460.77, 91791.34, 98559.21, 0.00, 0.00, 0.00
227, 77115.66, 121574.29, -1919.10, 62067.15, 49569.95, 24462.35, 91797.45, 98563.61, 0.00, 0.00, 0.00
228, 77111.46, 121580.43, -1913.47, 62076.58, 49577.38, 24468.19, 91803.62, 98568.13, 0.00, 0.00, 0.00
229, 77111.93, 121580.92, -1911.83, 62082.15, 49568.32, 24471.54, 91799.46, 98568.89, 0.08, -0.25, 0.96
230, 77111.34, 121576.63, -1915.99, 62072.20, 49556.79, 24477.42, 91811.59, 98573.27, 0.00, 0.00, 0.00
231, 77112.11, 121573.39, -1919.77, 62073.18, 49554.38, 24470.94, 91799.64, 98577.54, 0.00, 0.00, 0.00
232, 77117.77, 121576.19, -1917.78, 62080.76, 49575.63, 24476.81, 91807.66, 98584.84, 0.00, 0.00, 0.00
233, 77116.49, 121581.10, -1912.33, 62085.45, 49592.11, 24482.29, 91807.28, 98576.58, 0.00, 0.00, 0.00
234, 77109.78, 121580.81, -1914.90, 62089.12, 49580.55, 24483.83, 91800.47, 98568.71, 0.00, 0.00, 0.00
235, 77113.38, 121580.68, -1912.68, 62079.35, 49604.06, 24486.09, 91801.36, 98571.39, 0.00, 0.00, 0.00
236, 77116.84, 121580.09, -1913.04, 62066.41, 49606.92, 24484.75, 91810.30, 98566.61, 0.00, 0.00, 0.00
237, 77122.14, 121582.35, -1916.15, 62076.92, 49576.04, 24474.56, 91802.99, 98573.05, 0.00, 0.00, 0.00
238, 77110.59, 121582.24, -1910.27, 62079.60, 49576.68, 24472.97, 91795.73, 98565.20, 0.00, 0.00, 0.00
239, 77113.13, 121580.43, -1910.25, 62065.05, 49575.99, 24471.47, 91790.37, 98562.05, 0.07, -0.25, 0.97
240, 77118.92, 121580.21, -1911.45, 62065.96, 49570.36, 24470.94, 91797.96, 98569.98, 0.00, 0.00, 0.00
241, 77114.90, 121579.78, -1913.22, 62068.47, 49570.02, 24469.10, 91805.00, 98570.14, 0.00, 0.00, 0.00
242, 77112.73, 121584.95, -1913.91, 62068.29, 49556.12, 24465.62, 91803.39, 98571.77, 0.00, 0.00, 0.00
243, 77114.99, 121584.39, -1915.19, 62070.19, 49552.05, 24472.79, 91802.63, 98572.73, 0.00, 0.00, 0.00
244, 77110.86, 121577.86, -1917.33, 62068.98, 49584.97, 24474.04, 91798.23, 98559.43, 0.00, 0.00, 0.00
245, 77107.73, 121575.94, -1916.17, 62064.89, 49586.18, 24470.38, 91817.21, 98559.92, 0.00, 0.00, 0.00
246, 77106.45, 121576.54, -1914.07, 62073.56, 49589.09, 24475.03, 91802.14, 98567.57, 0.00, 0.00, 0.00
247, 77106.38, 121577.15, -1910.63, 62081.39, 49582.67, 24477.46, 91796.40, 98573.23, 0.00, 0.00, 0.00
248, 77108.27, 121577.34, -1910.40, 62076.74, 49568.70, 24471.61, 91799.39, 98572.66, 0.00, 0.00, 0.00
249, 77098.07, 121578.24, -1907.23, 62075.26, 49565.46, 24469.19, 91793.41, 98555.77, 0.08, -0.25, 0.97
250, 77098.00, 121576.12, -1912.77, 62070.23, 49567.81, 24466.69, 91792.40, 98554.65, 0.00, 0.00, 0.00
251, 77103.62, 121570.51, -1921.13, 62064.40, 49553.04, 24458.73, 91789.07, 98553.04, 0.00, 0.00, 0.00
252, 77105.89, 121575.29, -1911.83, 62083.78, 49572.17, 24466.80, 91795.99, 98560.30, 0.00, 0.00, 0.00
253, 77095.14, 121580.39, -1905.91, 62081.99, 49590.00, 24472.90, 91797.90, 98552.84, 0.00, 0.00, 0.00
254, 77100.87, 121579.56, -1911.16, 62071.75, 49583.68, 24474.62, 91793.76, 98550.83, 0.00, 0.00, 0.00
255, 77108.89, 121575.27, -1916.30, 62071.29, 49568.64, 24469.59, 91789.47, 98554.29, 0.00, 0.00, 0.00
0, 77104.77, 121572.27, -1921.00, 62059.80, 49546.60, 24469.64, 91797.41, 98559.77, 0.00, 0.00, 0.00
1, 77102.66, 121570.48, -1926.88, 62068.42, 49541.37, 24466.42, 91797.34, 98564.13, 0.00, 0.00, 0.00
2, 77107.26, 121579.94, -1915.30, 62084.18, 49578.87, 24472.77, 91793.83, 98563.01, 0.00, 0.00, 0.00
3, 77098.18, 121584.91, -1901.11, 62083.29, 49576.19, 24476.12, 91792.94, 98548.84, 0.08, -0.26, 0.97
4, 77094.25, 121577.82, -1904.68, 62072.51, 49580.44, 24469.15, 91786.12, 98540.55, 0.00, 0.00, 0.00
5, 77105.54, 121573.62, -1914.94, 62067.37, 49581.04, 24464.70, 91784.98, 98548.19, 0.00, 0.00, 0.00
6, 77109.73, 121575.88, -1917.96, 62060.98, 49592.11, 24474.56, 91791.86, 98557.96, 0.00, 0.00, 0.00
7, 77111.75, 121584.23, -1907.70, 62072.94, 49585.02, 24478.38, 91792.48, 98564.22, 0.00, 0.00, 0.00
8, 77114.99, 121586.40, -1906.45, 62083.27, 49577.64, 24477.01, 91795.73, 98567.73, 0.00, 0.00, 0.00
9, 77117.94, 121582.35, -1911.83, 62074.23, 49571.43, 24461.93, 91792.55, 98565.52, 0.00, 0.00, 0.00
10, 77122.86, 121582.17, -1916.86, 62063.91, 49572.93, 24461.70, 91809.45, 98566.97, 0.00, 0.00, 0.00
11, 77115.37, 121582.80, -1914.40, 62069.74, 49575.96, 24468.95, 91804.52, 98568.98, 0.00, 0.00, 0.00
12, 77111.26, 121582.63, -1911.52, 62080.02, 49573.13, 24470.11, 91790.32, 98572.40, 0.00, 0.00, 0.00
13, 77119.75, 121585.41, -1909.53, 62083.53, 49569.11, 24470.71, 91797.09, 98573.07, 0.08, -0.25, 0.96
14, 77115.86, 121582.27, -1914.29, 62078.75, 49570.78, 24471.79, 91794.56, 98562.00, 0.00, 0.00, 0.00
15, 77122.23, 121581.28, -1908.95, 62074.43, 49579.39, 24478.56, 91796.63, 98568.98, 0.00, 0.00, 0.00
16, 77116.96, 121583.90, -1906.00, 62075.46, 49578.94, 24478.58, 91802.27, 98572.11, 0.00, 0.00, 0.00
17, 77109.23, 121584.23, -1909.76, 62071.73, 49569.30, 24478.87, 91801.98, 98571.03, 0.00, 0.00, 0.00
18, 77107.73, 121584.68, -1909.04, 62076.00, 49557.75, 24479.61, 91800.87, 98566.63, 0.00, 0.00, 0.00
19, 77101.53, 121581.84, -1912.62, 62075.57, 49557.82, 24475.43, 91798.81, 98555.66, 0.00, 0.00, 0.00
20, 77103.88, 121579.60, -1912.91, 62074.30, 49586.74, 24479.47, 91802.39, 98558.92, 0.00, 0.00, 0.00
21, 77104.04, 121580.27, -1911.77, 62075.55, 49593.42, 24487.25, 91806.97, 98566.74, 0.00, 0.00, 0.00
22, 77100.69, 121579.45, -1919.79, 62067.71, 49576.41, 24480.37, 91798.25, 98554.20, 0.00, 0.00, 0.00
23, 77099.19, 121575.80, -1929.98, 62056.62, 49541.28, 24464.16, 91785.78, 98541.93, 0.08, -0.26, 0.96
24, 77093.63, 121575.45, -1924.13, 62058.07, 49548.21, 24461.23, 91789.78, 98546.34, 0.00, 0.00, 0.00
25, 77081.51, 121575.02, -1916.19, 62068.71, 49579.61, 24464.50, 91790.43, 98541.22, 0.00, 0.00, 0.00
26, 77083.59, 121574.40, -1923.93, 62064.55, 49559.61, 24457.86, 91783.48, 98540.26, 0.00, 0.00, 0.00
27, 77085.53, 121577.08, -1922.90, 62063.26, 49551.31, 24455.76, 91779.84, 98539.95, 0.00, 0.00, 0.00
28, 77082.23, 121579.07, -1922.56, 62057.45, 49557.91, 24461.66, 91785.98, 98537.20, 0.00, 0.00, 0.00
29, 77086.78, 121577.13, -1925.74, 62060.36, 49586.88, 24464.77, 91790.56, 98537.44, 0.00, 0.00, 0.00
30, 77090.60, 121579.16, -1919.03, 62092.94, 49598.39, 24470.06, 91792.42, 98539.18, 0.00, 0.00, 0.00
31, 77087.77, 121580.32, -1917.27, 62095.89, 49575.30, 24473.33, 91801.09, 98543.74, 0.00, 0.00, 0.00
32, 77084.34, 121582.16, -1917.69, 62097.91, 49597.43, 24483.63, 91810.28, 98544.91, 0.00, 0.00, 0.00
33, 77084.39, 121583.74, -1914.56, 62089.68, 49604.69, 24487.23, 91814.99, 98547.01, 0.07, -0.25, 0.97
34, 77080.93, 121577.41, -1916.24, 62073.83, 49582.23, 24472.32, 91809.70, 98542.45, 0.00, 0.00, 0.00
35, 77085.87, 121574.95, -1919.55, 62070.66, 49578.54, 24468.99, 91811.33, 98542.87, 0.00, 0.00, 0.00
36, 77084.21, 121579.59, -1920.89, 62071.42, 49584.01, 24476.34, 91818.55, 98543.54, 0.00, 0.00, 0.00
37, 77085.77, 121581.20, -1922.85, 62067.06, 49580.04, 24477.80, 91818.03, 98547.30, 0.00, 0.00, 0.00
38, 77090.18, 121584.45, -1919.32, 62070.10, 49579.03, 24476.21, 91818.57, 98554.52, 0.00, 0.00, 0.00
39, 77090.23, 121585.53, -1916.48, 62070.14, 49577.69, 24475.18, 91816.52, 98547.90, 0.00, 0.00, 0.00
40, 77090.12, 121580.37, -1921.89, 62064.27, 49565.84, 24464.16, 91811.82, 98543.02, 0.00, 0.00, 0.00
41, 77098.38, 121582.49, -1924.57, 62064.96, 49551.78, 24457.37, 91814.34, 98548.37, 0.00, 0.00, 0.00
42, 77096.28, 121589.09, -1920.39, 62071.08, 49550.80, 24460.68, 91820.43, 98552.62, 0.00, 0.00, 0.00
43, 77096.02, 121595.09, -1914.47, 62077.36, 49592.21, 24484.97, 91829.91, 98555.19, 0.07, -0.25, 0.97
44, 77091.08, 121588.37, -1920.51, 62071.82, 49567.70, 24475.58, 91827.53, 98557.64, 0.00, 0.00, 0.00
45, 77097.89, 121584.30, -1920.82, 62071.04, 49525.23, 24464.52, 91829.63, 98566.30, 0.00, 0.00, 0.00
46, 77095.50, 121580.12, -1926.52, 62063.48, 49549.97, 24460.41, 91823.09, 98555.37, 0.00, 0.00, 0.00
47, 77087.77, 121583.02, -1925.54, 62061.18, 49607.86, 24479.18, 91825.32, 98542.83, 0.00, 0.00, 0.00
48, 77083.68, 121586.42, -1916.01, 62072.09, 49602.52, 24483.09, 91828.41, 98544.30, 0.00, 0.00, 0.00
49, 77085.55, 121581.93, -1918.43, 62070.03, 49575.81, 24471.85, 91820.27, 98545.09, 0.00, 0.00, 0.00
50, 77086.63, 121578.24, -1923.35, 62073.63, 49563.54, 24463.11, 91814.88, 98544.57, 0.00, 0.00, 0.00
51, 77082.54, 121578.15, -1923.30, 62070.21, 49573.02, 24471.22, 91815.64, 98541.40, 0.00, 0.00, 0.00
52, 77081.80, 121579.80, -1924.42, 62066.68, 49581.75, 24475.40, 91816.29, 98541.26, 0.00, 0.00, 0.00
53, 77084.93, 121581.93, -1922.94, 62066.63, 49597.78, 24483.03, 91822.26, 98546.00, 0.07, -0.25, 0.97
54, 77081.93, 121580.14, -1922.83, 62073.43, 49588.24, 24482.49, 91821.77, 98544.23, 0.00, 0.00, 0.00
55, 77087.92, 121577.52, -1925.36, 62070.08, 49597.54, 24481.26, 91822.37, 98542.89, 0.00, 0.00, 0.00
56, 77085.29, 121575.23, -1930.27, 62063.53, 49586.20, 24479.25, 91818.70, 98539.30, 0.00, 0.00, 0.00
57, 77076.16, 121576.79, -1932.24, 62061.92, 49570.71, 24479.70, 91820.18, 98541.77, 0.00, 0.00, 0.00
58, 77083.77, 121578.35, -1930.90, 62063.15, 49581.38, 24479.32, 91824.78, 98555.12, 0.00, 0.00, 0.00
59, 77087.54, 121576.25, -1930.88, 62058.92, 49572.82, 24472.95, 91823.16, 98550.13, 0.00, 0.00, 0.00
60, 77088.91, 121572.97, -1934.57, 62056.96, 49550.26, 24467.00, 91824.70, 98549.15, 0.00, 0.00, 0.00
61, 77093.69, 121576.34, -1934.70, 62053.92, 49524.73, 24459.40, 91822.17, 98554.52, 0.00, 0.00, 0.00
62, 77094.09, 121582.53, -1931.46, 62051.97, 49579.99, 24474.24, 91822.95, 98548.28, 0.00, 0.00, 0.00
63, 77104.11, 121583.07, -1933.90, 62054.70, 49587.41, 24474.60, 91819.45, 98551.77, 0.08, -0.24, 0.97
64, 77100.66, 121580.86, -1935.97, 62049.76, 49592.39, 24474.04, 91824.90, 98557.06, 0.00, 0.00, 0.00
65, 77098.14, 121582.17, -1931.39, 62057.43, 49590.56, 24486.36, 91839.23, 98563.10, 0.00, 0.00, 0.00
66, 77110.74, 121583.12, -1931.35, 62056.24, 49579.45, 24486.47, 91843.67, 98572.04, 0.00, 0.00, 0.00
67, 77104.75, 121583.27, -1935.48, 62046.43, 49566.06, 24482.58, 91836.30, 98560.41, 0.00, 0.00, 0.00
68, 77097.96, 121582.09, -1937.70, 62039.90, 49555.02, 24480.72, 91829.70, 98545.80, 0.00, 0.00, 0.00
69, 77098.95, 121578.04, -1936.15, 62054.90, 49571.61, 24484.66, 91828.52, 98544.01, 0.00, 0.00, 0.00
70, 77100.51, 121579.43, -1928.17, 62067.73, 49584.57, 24490.78, 91839.00, 98555.07, 0.00, 0.00, 0.00
71, 77100.09, 121578.09, -1929.67, 62063.42, 49583.95, 24492.39, 91839.54, 98562.27, 0.00, 0.00, 0.00
72, 77096.64, 121572.07, -1938.52, 62058.34, 49553.91, 24478.11, 91824.18, 98553.62, 0.00, 0.00, 0.00
73, 77097.11, 121576.88, -1932.11, 62066.52, 49583.50, 24492.46, 91827.53, 98551.50, 0.07, -0.25, 0.97
74, 77091.74, 121576.07, -1930.50, 62055.84, 49585.46, 24499.39, 91838.09, 98560.88, 0.00, 0.00, 0.00
75, 77088.80, 121566.30, -1940.91, 62045.27, 49565.57, 24485.06, 91837.48, 98559.32, 0.00, 0.00, 0.00
76, 77090.52, 121568.41, -1937.94, 62061.20, 49587.70, 24483.23, 91838.04, 98552.55, 0.00, 0.00, 0.00
77, 77090.38, 121576.19, -1932.42, 62069.45, 49607.10, 24488.97, 91814.57, 98548.99, 0.00, 0.00, 0.00
78, 77085.76, 121577.28, -1931.41, 62067.35, 49600.06, 24488.17, 91817.95, 98541.88, 0.00, 0.00, 0.00
79, 77082.54, 121575.02, -1934.01, 62061.61, 49589.64, 24479.58, 91812.76, 98534.73, 0.00, 0.00, 0.00
80, 77088.66, 121571.54, -1936.82, 62056.13, 49600.22, 24477.08, 91814.91, 98541.22, 0.00, 0.00, 0.00
81, 77096.48, 121569.91, -1938.50, 62050.74, 49593.54, 24481.19, 91822.05, 98555.32, 0.00, 0.00, 0.00
82, 77101.40, 121572.01, -1939.75, 62043.21, 49586.96, 24483.34, 91829.19, 98566.49, 0.00, 0.00, 0.00
83, 77101.63, 121578.40, -1928.04, 62062.21, 49591.32, 24492.17, 91830.13, 98563.03, 0.07, -0.24, 0.97
84, 77098.07, 121577.02, -1931.70, 62063.17, 49571.47, 24479.88, 91823.89, 98551.99, 0.00, 0.00, 0.00
85, 77109.07, 121575.73, -1937.65, 62053.54, 49584.08, 24475.25, 91824.23, 98558.74, 0.00, 0.00, 0.00
86, 77115.55, 121576.99, -1941.34, 62048.89, 49584.19, 24479.16, 91829.28, 98570.83, 0.00, 0.00, 0.00
87, 77114.01, 121582.55, -1933.36, 62056.73, 49582.58, 24482.04, 91833.05, 98570.97, 0.00, 0.00, 0.00
88, 77113.47, 121581.05, -1931.88, 62056.40, 49577.44, 24479.47, 91830.13, 98569.27, 0.00, 0.00, 0.00
89, 77111.34, 121579.34, -1934.79, 62057.07, 49582.40, 24481.08, 91835.38, 98573.89, 0.00, 0.00, 0.00
90, 77117.38, 121577.30, -1932.93, 62060.15, 49582.14, 24481.60, 91840.12, 98583.02, 0.00, 0.00, 0.00
91, 77114.86, 121579.63, -1924.55, 62069.29, 49586.47, 24485.64, 91844.23, 98579.10, 0.00, 0.00, 0.00
92, 77113.09, 121580.09, -1927.41, 62069.16, 49577.38, 24483.68, 91850.42, 98565.52, 0.00, 0.00, 0.00
93, 77112.15, 121576.45, -1930.77, 62064.36, 49580.66, 24482.56, 91817.03, 98564.22, 0.07, -0.25, 0.97
94, 77107.10, 121573.64, -1930.99, 62060.64, 49599.61, 24494.11, 91823.45, 98568.44, 0.00, 0.00, 0.00
95, 77102.92, 121570.17, -1930.12, 62067.62, 49573.91, 24488.79, 91826.20, 98565.40, 0.00, 0.00, 0.00
96, 77100.98, 121572.34, -1927.66, 62073.27, 49566.96, 24491.79, 91826.98, 98558.52, 0.00, 0.00, 0.00
97, 77105.58, 121572.88, -1930.43, 62067.02, 49569.30, 24486.78, 91828.23, 98568.38, 0.00, 0.00, 0.00
98, 77109.73, 121578.35, -1925.47, 62076.38, 49625.27, 24501.76, 91833.73, 98576.82, 0.00, 0.00, 0.00
99, 77100.84, 121578.02, -1924.42, 62077.14, 49643.47, 24504.04, 91830.80, 98561.06, 0.00, 0.00, 0.00
100, 77096.87, 121573.88, -1929.58, 62066.95, 49620.45, 24491.50, 91826.71, 98550.88, 0.00, 0.00, 0.00
101, 77105.72, 121573.52, -1934.63, 62061.41, 49600.87, 24489.29, 91822.59, 98554.09, 0.00, 0.00, 0.00
102, 77104.69, 121577.19, -1930.56, 62061.61, 49587.03, 24488.28, 91824.36, 98555.34, 0.00, 0.00, 0.00
103, 77096.88, 121577.41, -1933.85, 62053.56, 49584.44, 24489.49, 91826.44, 98553.24, 0.07, -0.25, 0.97
104, 77089.51, 121570.33, -1937.18, 62051.73, 49591.88, 24484.79, 91822.82, 98544.55, 0.00, 0.00, 0.00
105, 77094.13, 121568.36, -1941.61, 62059.01, 49603.23, 24479.05, 91822.21, 98545.58, 0.00, 0.00, 0.00
106, 77102.90, 121574.13, -1932.44, 62075.11, 49618.59, 24489.42, 91832.77, 98556.46, 0.00, 0.00, 0.00
107, 77102.14, 121578.38, -1924.51, 62071.75, 49609.05, 24488.57, 91831.78, 98555.81, 0.00, 0.00, 0.00
108, 77100.64, 121578.82, -1927.12, 62059.53, 49593.87, 24480.08, 91828.98, 98547.23, 0.00, 0.00, 0.00
109, 77098.00, 121572.99, -1932.49, 62044.89, 49575.59, 24469.26, 91823.29, 98542.20, 0.00, 0.00, 0.00
110, 77089.78, 121572.20, -1920.46, 62073.12, 49569.24, 24465.57, 91825.55, 98541.55, 0.00, 0.00, 0.00
111, 77093.20, 121572.77, -1922.14, 62069.72, 49583.95, 24471.61, 91832.07, 98551.92, 0.00, 0.00, 0.00
112, 77090.98, 121574.69, -1930.25, 62063.08, 49586.92, 24469.48, 91828.65, 98547.02, 0.00, 0.00, 0.00
113, 77085.46, 121578.58, -1924.62, 62071.04, 49588.26, 24474.56, 91846.42, 98537.53, 0.08, -0.25, 0.97
114, 77095.73, 121575.73, -1928.04, 62067.35, 49593.18, 24476.05, 91845.86, 98548.68, 0.00, 0.00, 0.00
115, 77096.38, 121570.11, -1927.66, 62060.15, 49590.85, 24472.32, 91834.89, 98548.37, 0.00, 0.00, 0.00
116, 77092.88, 121572.09, -1930.88, 62059.68, 49587.30, 24470.04, 91840.95, 98535.12, 0.00, 0.00, 0.00
117, 77094.25, 121576.14, -1932.24, 62061.85, 49589.89, 24470.00, 91844.52, 98534.06, 0.00, 0.00, 0.00
118, 77096.80, 121576.09, -1932.58, 62061.65, 49592.33, 24473.57, 91852.55, 98537.69, 0.00, 0.00, 0.00
119, 77097.67, 121571.29, -1934.97, 62053.83, 49582.38, 24466.67, 91854.47, 98534.17, 0.00, 0.00, 0.00
120, 77096.91, 121570.66, -1934.23, 62054.01, 49582.67, 24465.97, 91864.05, 98539.47, 0.00, 0.00, 0.00
121, 77096.33, 121575.78, -1930.88, 62061.14, 49590.85, 24476.59, 91880.82, 98550.42, 0.00, 0.00, 0.00
122, 77096.91, 121573.81, -1938.21, 62056.58, 49572.46, 24473.51, 91881.89, 98556.98, 0.00, 0.00, 0.00
123, 77106.99, 121573.84, -1945.41, 62052.00, 49557.93, 24476.01, 91888.80, 98571.66, 0.08, -0.25, 0.97
124, 77101.70, 121575.54, -1934.48, 62051.08, 49574.76, 24471.14, 91887.21, 98557.29, 0.00, 0.00, 0.00
125, 77092.04, 121573.62, -1932.42, 62052.02, 49555.49, 24462.24, 91881.45, 98539.30, 0.00, 0.00, 0.00
126, 77104.84, 121572.52, -1942.28, 62046.29, 49539.87, 24449.10, 91879.73, 98543.38, 0.00, 0.00, 0.00
127, 77114.88, 121580.21, -1936.24, 62051.26, 49632.36, 24473.73, 91896.42, 98557.78, 0.00, 0.00, 0.00
128, 77099.28, 121582.49, -1936.24, 62054.97, 49625.36, 24484.10, 91906.26, 98559.74, 0.00, 0.00, 0.00
129, 77099.05, 121578.51, -1936.82, 62052.51, 49599.50, 24479.00, 91906.44, 98559.25, 0.00, 0.00, 0.00
130, 77105.55, 121574.33, -1941.94, 62049.22, 49571.94, 24471.05, 91908.56, 98565.13, 0.00, 0.00, 0.00
131, 77108.38, 121573.75, -1938.70, 62049.60, 49583.86, 24468.95, 91906.30, 98562.41, 0.00, 0.00, 0.00
132, 77101.00, 121578.48, -1933.69, 62053.71, 49610.79, 24478.13, 91904.78, 98546.76, 0.00, 0.00, 0.00
133, 77097.40, 121579.00, -1934.14, 62054.74, 49601.47, 24479.05, 91904.76, 98544.23, 0.08, -0.26, 0.97
134, 77104.80, 121577.68, -1934.48, 62058.41, 49600.24, 24481.26, 91915.42, 98556.10, 0.00, 0.00, 0.00
135, 77106.45, 121574.64, -1936.40, 62056.29, 49597.31, 24480.10, 91918.38, 98554.13, 0.00, 0.00, 0.00
136, 77108.24, 121575.13, -1940.33, 62051.79, 49589.76, 24474.09, 91914.05, 98543.85, 0.00, 0.00, 0.00
137, 77109.70, 121576.70, -1941.96, 62052.78, 49577.46, 24475.40, 91917.48, 98546.67, 0.00, 0.00, 0.00
138, 77105.45, 121580.52, -1935.71, 62061.76, 49591.28, 24485.96, 91929.52, 98552.34, 0.00, 0.00, 0.00
139, 77111.59, 121583.20, -1932.51, 62065.74, 49610.66, 24499.37, 91940.19, 98561.38, 0.00, 0.00, 0.00
140, 77115.66, 121579.88, -1935.95, 62057.76, 49611.17, 24497.91, 91945.20, 98567.81, 0.00, 0.00, 0.00
141, 77119.08, 121578.20, -1941.20, 62069.94, 49600.17, 24492.44, 91941.87, 98568.98, 0.00, 0.00, 0.00
142, 77120.67, 121581.15, -1942.75, 62075.08, 49586.81, 24496.48, 91949.62, 98577.36, 0.00, 0.00, 0.00
143, 77122.63, 121581.44, -1945.21, 62067.62, 49579.32, 24497.60, 91958.47, 98583.23, 0.08, -0.25, 0.97
144, 77125.61, 121578.15, -1942.19, 62058.16, 49584.26, 24488.62, 91959.59, 98580.31, 0.00, 0.00, 0.00
145, 77120.29, 121574.98, -1938.81, 62050.50, 49616.51, 24489.53, 91955.88, 98569.06, 0.00, 0.00, 0.00
146, 77118.43, 121578.82, -1930.27, 62052.64, 49610.63, 24487.38, 91953.20, 98566.01, 0.00, 0.00, 0.00
147, 77116.16, 121582.96, -1934.45, 62043.14, 49601.56, 24477.69, 91945.89, 98554.49, 0.00, 0.00, 0.00
148, 77120.96, 121583.96, -1938.63, 62044.89, 49596.55, 24481.93, 91942.91, 98556.95, 0.00, 0.00, 0.00
149, 77118.91, 121584.74, -1933.34, 62064.04, 49620.89, 24494.52, 91956.88, 98568.40, 0.00, 0.00, 0.00
150, 77114.99, 121584.26, -1927.01, 62066.14, 49619.26, 24494.56, 91965.42, 98571.77, 0.00, 0.00, 0.00
151, 77106.50, 121577.55, -1934.52, 62048.93, 49606.97, 24477.69, 91964.98, 98560.77, 0.00, 0.00, 0.00
152, 77103.57, 121580.21, -1933.90, 62054.88, 49616.67, 24489.87, 91965.58, 98559.88, 0.00, 0.00, 0.00
153, 77107.39, 121582.80, -1931.35, 62059.71, 49613.56, 24495.30, 91955.14, 98563.79, 0.07, -0.26, 0.97
154, 77101.70, 121577.99, -1932.89, 62060.18, 49611.71, 24492.53, 91963.05, 98558.02, 0.00, 0.00, 0.00
155, 77096.77, 121574.58, -1930.27, 62063.50, 49610.79, 24494.31, 91966.00, 98553.73, 0.00, 0.00, 0.00
156, 77096.33, 121573.68, -1931.77, 62060.58, 49604.91, 24488.01, 91961.40, 98547.83, 0.00, 0.00, 0.00
157, 77102.50, 121577.77, -1931.66, 62060.53, 49602.83, 24484.75, 91960.39, 98547.90, 0.00, 0.00, 0.00
158, 77105.73, 121579.05, -1931.28, 62061.94, 49600.71, 24486.92, 91962.59, 98552.95, 0.00, 0.00, 0.00
159, 77102.98, 121579.05, -1927.19, 62063.48, 49602.52, 24488.95, 91969.11, 98559.03, 0.00, 0.00, 0.00
160, 77104.77, 121581.17, -1923.08, 62074.23, 49608.33, 24489.98, 91973.20, 98562.95, 0.00, 0.00, 0.00
161, 77099.61, 121575.29, -1930.83, 62068.64, 49607.71, 24481.60, 91960.95, 98546.96, 0.00, 0.00, 0.00
162, 77106.90, 121576.45, -1936.58, 62068.36, 49595.41, 24474.22, 91956.13, 98540.70, 0.00, 0.00, 0.00
163, 77108.91, 121580.03, -1934.39, 62074.70, 49602.52, 24489.15, 91968.75, 98554.34, 0.08, -0.25, 0.97
164, 77100.40, 121577.98, -1937.14, 62076.96, 49611.39, 24497.02, 91973.80, 98557.84, 0.00, 0.00, 0.00
165, 77103.30, 121573.23, -1939.55, 62066.93, 49603.70, 24485.89, 91971.73, 98558.47, 0.00, 0.00, 0.00
166, 77100.35, 121573.75, -1928.66, 62051.97, 49603.19, 24472.61, 91961.09, 98551.23, 0.00, 0.00, 0.00
167, 77108.71, 121579.38, -1923.66, 62048.91, 49617.09, 24471.49, 91961.11, 98555.56, 0.00, 0.00, 0.00
168, 77114.32, 121582.24, -1925.60, 62051.50, 49617.47, 24476.05, 91965.71, 98558.43, 0.00, 0.00, 0.00
169, 77110.50, 121576.48, -1932.84, 62049.67, 49576.01, 24464.56, 91975.30, 98545.55, 0.00, 0.00, 0.00
170, 77111.57, 121572.90, -1937.36, 62049.29, 49563.63, 24458.02, 91959.43, 98550.16, 0.00, 0.00, 0.00
171, 77110.88, 121577.37, -1933.83, 62058.05, 49628.14, 24474.85, 91966.20, 98559.48, 0.00, 0.00, 0.00
172, 77112.47, 121577.88, -1938.32, 62049.13, 49609.23, 24476.17, 91976.53, 98565.63, 0.00, 0.00, 0.00
173, 77122.03, 121582.27, -1933.54, 62063.26, 49626.55, 24485.91, 91982.30, 98576.27, 0.08, -0.25, 0.97
174, 77118.52, 121582.53, -1931.93, 62069.32, 49635.55, 24484.68, 91979.23, 98564.40, 0.00, 0.00, 0.00
175, 77117.67, 121581.77, -1931.64, 62068.51, 49622.95, 24482.85, 91987.02, 98562.38, 0.00, 0.00, 0.00
176, 77116.38, 121576.09, -1937.83, 62059.62, 49563.49, 24469.35, 91979.33, 98564.77, 0.00, 0.00, 0.00
177, 77114.21, 121577.57, -1941.49, 62051.95, 49596.91, 24467.98, 91976.71, 98560.59, 0.00, 0.00, 0.00
178, 77114.50, 121583.23, -1939.86, 62057.47, 49649.55, 24490.49, 91985.00, 98556.13, 0.00, 0.00, 0.00
179, 77119.08, 121580.12, -1940.15, 62064.06, 49635.06, 24484.73, 91980.30, 98556.84, 0.00, 0.00, 0.00
180, 77111.86, 121578.87, -1930.83, 62078.05, 49638.21, 24491.79, 91985.83, 98559.14, 0.00, 0.00, 0.00
181, 77098.79, 121576.48, -1934.30, 62074.12, 49631.58, 24488.32, 91991.24, 98556.82, 0.00, 0.00, 0.00
182, 77109.96, 121581.70, -1935.80, 62068.51, 49641.19, 24492.33, 92005.32, 98568.64, 0.00, 0.00, 0.00
183, 77115.21, 121588.14, -1935.21, 62074.84, 49635.60, 24492.13, 91983.51, 98565.65, 0.07, -0.25, 0.98
184, 77106.85, 121584.45, -1934.25, 62072.31, 49621.21, 24489.93, 91984.53, 98553.30, 0.00, 0.00, 0.00
185, 77108.89, 121579.72, -1930.54, 62061.29, 49595.50, 24483.43, 91988.18, 98558.12, 0.00, 0.00, 0.00
186, 77101.85, 121578.60, -1930.90, 62062.39, 49605.80, 24478.60, 91980.63, 98546.36, 0.00, 0.00, 0.00
187, 77105.02, 121583.18, -1933.11, 62065.16, 49630.26, 24485.38, 91976.04, 98542.18, 0.00, 0.00, 0.00
188, 77111.64, 121580.27, -1942.32, 62063.17, 49626.10, 24481.82, 91984.16, 98547.45, 0.00, 0.00, 0.00
189, 77120.06, 121580.34, -1940.27, 62067.13, 49619.29, 24486.63, 92006.44, 98563.12, 0.00, 0.00, 0.00
190, 77115.15, 121578.53, -1932.13, 62067.33, 49606.25, 24485.93, 91990.63, 98559.86, 0.00, 0.00, 0.00
191, 77107.39, 121573.08, -1946.30, 62051.03, 49622.17, 24473.55, 91967.32, 98542.78, 0.00, 0.00, 0.00
192, 77124.40, 121581.59, -1937.83, 62057.29, 49616.85, 24480.77, 91984.29, 98553.22, 0.00, 0.00, 0.00
193, 77116.33, 121581.05, -1937.09, 62051.50, 49601.52, 24484.79, 91993.34, 98552.88, 0.07, -0.25, 0.97
194, 77106.19, 121573.62, -1939.75, 62051.52, 49613.00, 24484.12, 91989.12, 98547.02, 0.00, 0.00, 0.00
195, 77107.30, 121570.13, -1945.12, 62039.88, 49610.77, 24483.41, 91992.53, 98547.01, 0.00, 0.00, 0.00
196, 77114.03, 121572.38, -1939.08, 62052.87, 49613.18, 24481.82, 91989.23, 98556.55, 0.00, 0.00, 0.00
197, 77119.10, 121580.16, -1933.47, 62064.94, 49619.13, 24483.72, 91990.79, 98561.42, 0.00, 0.00, 0.00
198, 77117.74, 121579.52, -1929.54, 62068.09, 49625.07, 24490.43, 91991.91, 98560.93, 0.00, 0.00, 0.00
199, 77115.41, 121576.14, -1930.36, 62065.34, 49634.57, 24492.93, 91998.80, 98561.66, 0.00, 0.00, 0.00
200, 77116.38, 121575.36, -1931.84, 62070.12, 49610.84, 24485.20, 92006.21, 98561.16, 0.00, 0.00, 0.00
201, 77119.51, 121579.43, -1927.66, 62072.87, 49634.75, 24489.73, 91995.27, 98559.88, 0.00, 0.00, 0.00
202, 77125.77, 121585.93, -1925.51, 62077.97, 49652.01, 24498.36, 91992.80, 98562.00, 0.00, 0.00, 0.00
203, 77122.55, 121586.80, -1925.56, 62079.71, 49636.61, 24496.35, 91996.60, 98562.05, 0.07, -0.25, 0.97
204, 77115.77, 121585.84, -1926.59, 62072.40, 49644.03, 24493.60, 91997.27, 98556.82, 0.00, 0.00, 0.00
205, 77117.59, 121577.02, -1930.21, 62064.62, 49644.90, 24490.45, 91998.88, 98557.11, 0.00, 0.00, 0.00
206, 77118.79, 121568.48, -1935.82, 62066.07, 49620.71, 24481.71, 91988.24, 98552.80, 0.00, 0.00, 0.00
207, 77120.76, 121573.55, -1932.35, 62067.42, 49607.44, 24476.59, 92000.38, 98560.98, 0.00, 0.00, 0.00
208, 77125.12, 121583.96, -1925.31, 62071.02, 49625.25, 24487.52, 92007.84, 98565.65, 0.00, 0.00, 0.00
209, 77121.31, 121576.23, -1930.50, 62067.75, 49626.46, 24481.71, 91993.90, 98559.14, 0.00, 0.00, 0.00
210, 77128.02, 121578.94, -1929.94, 62064.20, 49625.48, 24479.67, 92003.87, 98566.59, 0.00, 0.00, 0.00
211, 77126.84, 121576.14, -1931.48, 62061.81, 49615.64, 24475.16, 91996.98, 98563.59, 0.00, 0.00, 0.00
212, 77128.47, 121578.29, -1931.24, 62064.71, 49618.21, 24479.92, 91996.71, 98558.52, 0.08, -0.25, 0.97
213, 77126.03, 121578.71, -1928.69, 62067.08, 49628.87, 24488.19, 92008.16, 98559.48, 0.00, 0.00, 0.00
214, 77125.98, 121576.34, -1930.90, 62070.08, 49627.78, 24486.65, 92007.89, 98568.51, 0.00, 0.00, 0.00
215, 77130.88, 121573.77, -1932.17, 62067.71, 49619.17, 24482.89, 92012.61, 98578.21, 0.00, 0.00, 0.00
216, 77129.99, 121573.93, -1931.37, 62063.71, 49627.66, 24487.30, 92006.39, 98569.55, 0.00, 0.00, 0.00
217, 77121.79, 121579.02, -1930.45, 62063.33, 49629.10, 24490.74, 92019.78, 98558.20, 0.00, 0.00, 0.00
218, 77124.94, 121587.12, -1926.32, 62066.28, 49632.65, 24490.69, 92001.63, 98561.82, 0.00, 0.00, 0.00
219, 77121.65, 121576.92, -1925.60, 62063.19, 49630.50, 24492.75, 91998.50, 98557.55, 0.00, 0.00, 0.00
220, 77128.63, 121575.76, -1924.62, 62068.56, 49620.96, 24493.24, 92000.96, 98561.58, 0.00, 0.00, 0.00
221, 77143.29, 121582.73, -1924.17, 62072.07, 49604.58, 24489.26, 92005.32, 98575.99, 0.00, 0.00, 0.00
222, 77133.48, 121586.55, -1928.84, 62068.98, 49643.91, 24498.65, 92010.46, 98572.66, 0.07, -0.25, 0.97
223, 77131.02, 121582.60, -1926.09, 62067.08, 49649.13, 24506.99, 92022.53, 98576.09, 0.00, 0.00, 0.00
224, 77131.51, 121578.17, -1924.15, 62058.90, 49631.73, 24494.52, 92013.61, 98571.93, 0.00, 0.00, 0.00
225, 77127.69, 121572.97, -1929.89, 62044.15, 49600.44, 24481.26, 92001.12, 98560.88, 0.00, 0.00, 0.00
226, 77122.23, 121578.09, -1931.41, 62060.53, 49600.91, 24473.82, 92002.80, 98555.34, 0.00, 0.00, 0.00
227, 77121.43, 121595.34, -1922.56, 62072.91, 49622.97, 24484.30, 92015.83, 98560.66, 0.00, 0.00, 0.00
228, 77118.16, 121596.44, -1917.47, 62067.91, 49612.22, 24483.18, 92021.15, 98563.66, 0.00, 0.00, 0.00
229, 77120.84, 121571.34, -1917.53, 62066.61, 49611.24, 24483.83, 91998.57, 98563.43, 0.00, 0.00, 0.00
230, 77119.13, 121574.73, -1920.62, 62062.10, 49637.61, 24482.60, 92003.66, 98556.46, 0.00, 0.00, 0.00
231, 77118.19, 121583.49, -1921.49, 62064.73, 49645.46, 24482.71, 91996.05, 98554.00, 0.00, 0.00, 0.00
232, 77123.82, 121577.30, -1924.87, 62061.25, 49630.17, 24482.24, 91997.66, 98559.97, 0.08, -0.24, 0.98
233, 77122.88, 121577.19, -1929.34, 62056.93, 49645.68, 24492.13, 92013.16, 98558.65, 0.00, 0.00, 0.00
234, 77119.59, 121581.28, -1927.59, 62061.32, 49652.03, 24494.11, 92004.13, 98546.89, 0.00, 0.00, 0.00
235, 77114.41, 121580.55, -1929.40, 62059.01, 49630.06, 24483.41, 91993.95, 98538.22, 0.00, 0.00, 0.00
236, 77116.20, 121581.73, -1929.20, 62063.64, 49640.38, 24489.78, 91999.45, 98545.91, 0.00, 0.00, 0.00
237, 77110.92, 121580.09, -1930.43, 62060.38, 49636.99, 24488.17, 91999.02, 98543.90, 0.00, 0.00, 0.00
238, 77112.40, 121600.48, -1928.98, 62060.67, 49636.36, 24486.76, 92004.65, 98542.55, 0.00, 0.00, 0.00
239, 77106.79, 121603.84, -1928.96, 62058.92, 49626.64, 24479.76, 91982.05, 98538.63, 0.00, 0.00, 0.00
240, 77111.70, 121557.55, -1928.17, 62061.65, 49626.19, 24479.92, 91992.69, 98546.87, 0.00, 0.00, 0.00
241, 77116.84, 121570.46, -1928.80, 62059.82, 49624.76, 24477.55, 91992.31, 98549.87, 0.00, 0.00, 0.00
242, 77117.90, 121576.03, -1927.77, 62066.46, 49628.29, 24483.16, 91989.23, 98546.45, 0.08, -0.25, 0.97
243, 77117.47, 121583.52, -1925.04, 62069.72, 49637.41, 24488.99, 91989.02, 98547.59, 0.00, 0.00, 0.00
244, 77116.17, 121578.82, -1925.85, 62067.80, 49636.11, 24490.92, 91988.71, 98549.58, 0.00, 0.00, 0.00
245, 77113.31, 121576.61, -1929.58, 62064.40, 49626.41, 24487.45, 91992.63, 98545.84, 0.00, 0.00, 0.00
246, 77104.66, 121576.41, -1939.68, 62050.14, 49593.91, 24463.87, 91985.78, 98535.16, 0.00, 0.00, 0.00
247, 77116.42, 121572.70, -1931.82, 62064.73, 49622.50, 24476.86, 91999.46, 98554.11, 0.00, 0.00, 0.00
248, 77127.95, 121581.10, -1924.89, 62071.33, 49663.41, 24497.02, 92011.06, 98573.73, 0.00, 0.00, 0.00
249, 77130.03, 121576.05, -1931.44, 62071.93, 49644.03, 24491.88, 92012.20, 98572.82, 0.00, 0.00, 0.00
250, 77129.03, 121574.62, -1934.25, 62070.37, 49612.87, 24481.73, 92020.92, 98563.12, 0.00, 0.00, 0.00
251, 77136.54, 121576.97, -1949.50, 62054.01, 49613.34, 24473.77, 91995.13, 98560.84, 0.00, 0.00, 0.00
252, 77139.13, 121579.09, -1937.72, 62054.72, 49605.43, 24475.12, 91994.99, 98563.57, 0.07, -0.25, 0.97
253, 77123.44, 121582.53, -1923.23, 62049.89, 49631.84, 24478.98, 92000.11, 98562.07, 0.00, 0.00, 0.00
254, 77122.66, 121586.29, -1927.64, 62051.08, 49623.78, 24481.78, 92019.05, 98566.07, 0.00, 0.00, 0.00
255, 77131.80, 121581.91, -1929.18, 62061.23, 49619.89, 24477.15, 92014.55, 98571.28, 0.00, 0.00, 0.00
0, 77135.53, 121579.94, -1930.72, 62055.41, 49627.49, 24481.82, 92011.34, 98573.63, 0.00, 0.00, 0.00
1, 77132.94, 121585.87, -1930.61, 62055.19, 49635.55, 24485.66, 92016.67, 98574.25, 0.00, 0.00, 0.00
2, 77125.79, 121587.54, -1930.23, 62058.59, 49615.53, 24479.09, 92016.27, 98571.91, 0.00, 0.00, 0.00
3, 77126.95, 121584.21, -1931.39, 62059.35, 49626.57, 24488.26, 92024.21, 98576.29, 0.00, 0.00, 0.00
4, 77126.16, 121589.38, -1931.06, 62062.54, 49638.06, 24492.35, 92036.41, 98574.19, 0.00, 0.00, 0.00
5, 77125.79, 121600.33, -1928.58, 62063.53, 49652.27, 24495.32, 92010.70, 98566.45, 0.00, 0.00, 0.00
6, 77122.10, 121589.04, -1925.89, 62064.82, 49644.74, 24489.89, 92008.07, 98559.41, 0.07, -0.25, 0.97
7, 77120.53, 121584.39, -1928.55, 62064.04, 49645.21, 24496.46, 92013.26, 98559.77, 0.00, 0.00, 0.00
8, 77122.63, 121587.41, -1928.49, 62063.62, 49648.57, 24502.16, 92020.32, 98564.87, 0.00, 0.00, 0.00
9, 77117.00, 121585.08, -1934.12, 62059.04, 49642.80, 24498.27, 92027.90, 98561.60, 0.00, 0.00, 0.00
10, 77114.43, 121584.63, -1927.10, 62062.21, 49645.95, 24501.20, 92026.24, 98560.64, 0.00, 0.00, 0.00
11, 77115.66, 121589.98, -1922.56, 62064.18, 49638.08, 24500.21, 92019.36, 98557.98, 0.00, 0.00, 0.00
12, 77113.59, 121590.47, -1927.21, 62061.54, 49628.67, 24493.06, 92018.02, 98552.55, 0.00, 0.00, 0.00
13, 77111.15, 121583.49, -1932.78, 62051.64, 49622.21, 24483.14, 92003.64, 98545.20, 0.00, 0.00, 0.00
14, 77113.45, 121584.99, -1924.15, 62059.55, 49629.66, 24490.67, 92018.40, 98552.95, 0.00, 0.00, 0.00
15, 77111.73, 121591.95, -1925.16, 62059.08, 49627.46, 24492.01, 92010.91, 98559.84, 0.00, 0.00, 0.00
16, 77113.65, 121595.20, -1926.05, 62053.52, 49636.94, 24495.70, 92008.78, 98555.68, 0.07, -0.25, 0.97
17, 77111.21, 121593.04, -1927.21, 62063.93, 49620.60, 24496.71, 92021.97, 98550.09, 0.00, 0.00, 0.00
18, 77107.86, 121582.49, -1930.25, 62070.37, 49606.75, 24491.54, 92011.38, 98546.52, 0.00, 0.00, 0.00
19, 77109.27, 121581.64, -1931.73, 62069.03, 49625.30, 24494.07, 92015.06, 98544.32, 0.00, 0.00, 0.00
20, 77114.30, 121588.19, -1926.63, 62056.31, 49637.48, 24489.02, 92016.85, 98544.57, 0.00, 0.00, 0.00
21, 77126.30, 121595.32, -1927.73, 62053.71, 49643.09, 24494.70, 92024.16, 98553.11, 0.00, 0.00, 0.00
22, 77128.91, 121605.09, -1920.77, 62060.87, 49650.44, 24506.21, 92029.41, 98564.26, 0.00, 0.00, 0.00
23, 77129.90, 121602.91, -1926.74, 62061.20, 49640.12, 24498.67, 92028.55, 98564.22, 0.00, 0.00, 0.00
24, 77135.84, 121591.56, -1936.20, 62052.00, 49644.96, 24499.50, 92023.00, 98562.27, 0.00, 0.00, 0.00
25, 77133.21, 121594.02, -1937.20, 62047.57, 49636.54, 24499.43, 92037.35, 98567.63, 0.00, 0.00, 0.00
26, 77128.36, 121606.30, -1930.97, 62055.66, 49640.99, 24500.46, 92042.83, 98566.79, 0.08, -0.25, 0.97
27, 77129.45, 121612.38, -1932.13, 62057.49, 49640.90, 24502.12, 92029.88, 98562.54, 0.00, 0.00, 0.00
28, 77125.88, 121611.97, -1933.02, 62059.62, 49640.23, 24506.79, 92019.07, 98553.78, 0.00, 0.00, 0.00
29, 77127.40, 121608.17, -1940.60, 62053.76, 49640.05, 24497.04, 92007.80, 98544.28, 0.00, 0.00, 0.00
30, 77130.59, 121611.61, -1934.41, 62057.18, 49641.19, 24495.28, 92013.39, 98544.44, 0.00, 0.00, 0.00
31, 77130.26, 121618.45, -1930.99, 62068.13, 49640.14, 24505.71, 92025.57, 98553.66, 0.00, 0.00, 0.00
32, 77128.78, 121623.03, -1930.94, 62070.73, 49635.71, 24507.30, 92032.48, 98555.45, 0.00, 0.00, 0.00
33, 77121.79, 121621.88, -1930.41, 62069.21, 49643.69, 24501.96, 92020.77, 98545.89, 0.00, 0.00, 0.00
34, 77118.23, 121618.59, -1932.96, 62062.10, 49638.84, 24487.74, 92001.84, 98536.19, 0.00, 0.00, 0.00
35, 77118.39, 121617.76, -1932.84, 62062.25, 49620.71, 24483.45, 92006.66, 98538.42, 0.00, 0.00, 0.00
36, 77116.60, 121622.97, -1925.09, 62064.55, 49629.23, 24486.40, 92006.73, 98539.96, 0.07, -0.25, 0.98
37, 77106.01, 121622.54, -1928.62, 62062.01, 49616.49, 24482.51, 91999.76, 98531.23, 0.00, 0.00, 0.00
38, 77108.51, 121622.41, -1926.97, 62069.59, 49641.28, 24491.79, 92007.00, 98534.40, 0.00, 0.00, 0.00
39, 77110.34, 121618.20, -1932.69, 62068.78, 49636.05, 24486.98, 92007.13, 98534.63, 0.00, 0.00, 0.00
40, 77110.61, 121621.45, -1939.39, 62063.89, 49630.71, 24483.03, 92017.81, 98533.48, 0.00, 0.00, 0.00
41, 77116.29, 121624.11, -1935.37, 62058.81, 49643.91, 24486.47, 92001.07, 98538.96, 0.00, 0.00, 0.00
42, 77115.30, 121627.95, -1924.73, 62061.63, 49641.73, 24486.96, 91988.55, 98534.82, 0.00, 0.00, 0.00
43, 77110.52, 121622.07, -1933.98, 62057.14, 49623.51, 24485.89, 91996.55, 98528.84, 0.00, 0.00, 0.00
44, 77116.29, 121618.19, -1941.76, 62052.15, 49634.13, 24476.54, 91996.83, 98529.59, 0.00, 0.00, 0.00
45, 77123.40, 121622.99, -1936.71, 62058.19, 49631.58, 24479.94, 92002.21, 98538.98, 0.00, 0.00, 0.00
46, 77115.33, 121632.13, -1929.34, 62064.69, 49640.00, 24491.48, 92011.40, 98538.63, 0.08, -0.25, 0.98
47, 77114.84, 121625.65, -1930.79, 62068.40, 49657.77, 24499.39, 92016.85, 98541.84, 0.00, 0.00, 0.00
48, 77118.95, 121625.05, -1930.77, 62069.29, 49642.73, 24497.49, 92011.38, 98550.05, 0.00, 0.00, 0.00
49, 77117.70, 121617.45, -1940.40, 62060.80, 49648.09, 24492.84, 92002.73, 98544.55, 0.00, 0.00, 0.00
50, 77113.96, 121622.34, -1939.21, 62062.70, 49652.30, 24494.22, 92003.38, 98533.30, 0.00, 0.00, 0.00
51, 77112.91, 121630.66, -1936.80, 62067.13, 49651.89, 24498.92, 92016.72, 98536.61, 0.00, 0.00, 0.00
52, 77114.50, 121632.69, -1930.99, 62068.85, 49650.13, 24501.89, 92013.26, 98545.55, 0.00, 0.00, 0.00
53, 77118.97, 121623.77, -1936.67, 62063.48, 49639.60, 24498.96, 92000.89, 98557.38, 0.00, 0.00, 0.00
54, 77122.48, 121618.72, -1937.47, 62065.52, 49625.39, 24492.01, 92008.09, 98558.18, 0.00, 0.00, 0.00
55, 77122.81, 121621.11, -1936.42, 62064.98, 49629.01, 24486.29, 92002.10, 98542.02, 0.00, 0.00, 0.00
56, 77118.26, 121625.18, -1934.97, 62070.70, 49638.77, 24493.40, 92002.21, 98537.57, 0.08, -0.25, 0.97
57, 77119.04, 121631.28, -1934.92, 62070.77, 49652.25, 24509.31, 92012.65, 98549.15, 0.00, 0.00, 0.00
58, 77119.66, 121631.69, -1932.35, 62075.75, 49660.05, 24509.94, 92017.39, 98558.98, 0.00, 0.00, 0.00
59, 77118.97, 121633.25, -1927.03, 62086.35, 49639.18, 24503.41, 92008.12, 98554.90, 0.00, 0.00, 0.00
60, 77120.09, 121633.25, -1930.32, 62093.01, 49665.44, 24500.97, 92012.00, 98552.46, 0.00, 0.00, 0.00
61, 77116.49, 121633.61, -1934.07, 62077.43, 49655.25, 24492.82, 92004.65, 98549.02, 0.00, 0.00, 0.00
62, 77113.13, 121630.95, -1938.16, 62071.64, 49630.39, 24488.91, 92001.48, 98545.59, 0.00, 0.00, 0.00
63, 77115.37, 121628.89, -1933.25, 62079.42, 49623.06, 24483.18, 92005.23, 98543.98, 0.00, 0.00, 0.00
64, 77118.08, 121627.80, -1932.55, 62073.68, 49638.26, 24483.92, 92008.88, 98543.56, 0.00, 0.00, 0.00
65, 77120.76, 121631.22, -1933.85, 62073.43, 49685.51, 24495.59, 92013.14, 98541.82, 0.00, 0.00, 0.00
66, 77124.71, 121626.48, -1936.87, 62071.26, 49679.95, 24497.67, 91995.77, 98544.66, 0.08, -0.25, 0.97
67, 77121.23, 121627.59, -1935.66, 62069.63, 49667.61, 24494.85, 92002.26, 98545.80, 0.00, 0.00, 0.00
68, 77125.56, 121629.98, -1938.32, 62065.45, 49655.98, 24489.35, 92000.96, 98548.97, 0.00, 0.00, 0.00
69, 77122.97, 121632.02, -1938.54, 62065.85, 49645.46, 24485.51, 91992.05, 98543.07, 0.00, 0.00, 0.00
70, 77121.59, 121632.02, -1939.77, 62064.36, 49642.17, 24486.65, 91997.85, 98540.79, 0.00, 0.00, 0.00
71, 77121.70, 121635.06, -1937.32, 62066.90, 49650.33, 24496.88, 91999.35, 98546.96, 0.00, 0.00, 0.00
72, 77122.79, 121632.47, -1936.49, 62071.38, 49651.58, 24506.74, 92006.70, 98551.32, 0.00, 0.00, 0.00
73, 77117.41, 121624.51, -1944.45, 62065.25, 49641.48, 24498.74, 92007.45, 98552.52, 0.00, 0.00, 0.00
74, 77125.67, 121626.37, -1946.88, 62065.02, 49637.52, 24498.54, 92011.31, 98562.09, 0.00, 0.00, 0.00
75, 77123.02, 121626.74, -1945.43, 62066.19, 49652.03, 24499.66, 92007.69, 98552.62, 0.00, 0.00, 0.00
76, 77117.38, 121630.86, -1941.41, 62068.87, 49641.30, 24499.05, 92018.82, 98545.58, 0.08, -0.25, 0.98
77, 77122.77, 121632.35, -1941.45, 62065.11, 49625.48, 24493.40, 92006.91, 98546.91, 0.00, 0.00, 0.00
78, 77123.30, 121631.91, -1935.80, 62070.93, 49620.09, 24489.29, 91988.80, 98549.73, 0.00, 0.00, 0.00
79, 77127.28, 121631.13, -1938.25, 62076.78, 49645.14, 24492.24, 91997.09, 98557.29, 0.00, 0.00, 0.00
80, 77131.02, 121632.02, -1943.19, 62075.69, 49665.53, 24489.78, 92003.22, 98556.20, 0.00, 0.00, 0.00
81, 77127.91, 121637.83, -1938.41, 62077.21, 49653.48, 24501.00, 92021.23, 98557.02, 0.00, 0.00, 0.00
82, 77128.55, 121647.87, -1924.46, 62089.21, 49666.94, 24503.28, 92017.32, 98561.58, 0.00, 0.00, 0.00
83, 77124.05, 121639.42, -1928.26, 62084.27, 49668.97, 24492.33, 92007.24, 98554.25, 0.00, 0.00, 0.00
84, 77119.93, 121636.02, -1938.19, 62067.91, 49657.37, 24483.83, 91991.57, 98542.20, 0.00, 0.00, 0.00
85, 77119.62, 121630.66, -1940.13, 62068.60, 49655.88, 24483.05, 91992.18, 98543.16, 0.00, 0.00, 0.00
86, 77123.66, 121636.38, -1936.62, 62075.22, 49662.94, 24488.03, 91994.13, 98544.39, 0.08, -0.25, 0.98
87, 77127.51, 121637.72, -1937.34, 62068.69, 49656.54, 24490.52, 91994.95, 98547.88, 0.00, 0.00, 0.00
88, 77126.73, 121633.79, -1936.42, 62066.57, 49650.13, 24489.89, 91997.27, 98549.02, 0.00, 0.00, 0.00
89, 77128.76, 121627.21, -1946.73, 62063.84, 49625.52, 24478.13, 92005.32, 98551.43, 0.00, 0.00, 0.00
90, 77126.93, 121627.46, -1948.40, 62065.90, 49609.70, 24471.83, 91998.99, 98553.30, 0.00, 0.00, 0.00
91, 77124.65, 121634.70, -1942.32, 62072.02, 49671.18, 24503.59, 91997.90, 98553.42, 0.00, 0.00, 0.00
92, 77126.48, 121638.19, -1943.80, 62066.34, 49681.85, 24508.20, 91994.84, 98550.98, 0.00, 0.00, 0.00
93, 77130.93, 121635.91, -1948.13, 62065.79, 49666.42, 24497.94, 91995.87, 98545.66, 0.00, 0.00, 0.00
94, 77132.56, 121632.09, -1948.94, 62069.63, 49652.03, 24492.30, 91995.80, 98546.60, 0.00, 0.00, 0.00
95, 77124.89, 121632.35, -1946.43, 62074.14, 49652.14, 24492.75, 92001.19, 98555.19, 0.00, 0.00, 0.00
96, 77122.12, 121638.14, -1941.76, 62080.65, 49661.53, 24500.97, 92003.64, 98562.09, 0.08, -0.25, 0.98
97, 77121.92, 121640.71, -1939.80, 62085.07, 49649.32, 24496.93, 91998.01, 98562.16, 0.00, 0.00, 0.00
98, 77120.55, 121642.50, -1940.49, 62081.43, 49621.14, 24488.57, 91994.66, 98547.56, 0.00, 0.00, 0.00
99, 77116.16, 121641.41, -1939.04, 62081.57, 49627.13, 24483.41, 91996.78, 98539.83, 0.00, 0.00, 0.00
100, 77113.47, 121634.50, -1943.22, 62075.96, 49674.71, 24487.43, 92008.20, 98539.09, 0.00, 0.00, 0.00
101, 77123.20, 121640.78, -1939.42, 62077.79, 49688.84, 24500.24, 91990.81, 98551.09, 0.00, 0.00, 0.00
102, 77123.20, 121637.67, -1936.51, 62081.45, 49677.22, 24499.95, 91994.57, 98552.86, 0.00, 0.00, 0.00
103, 77123.40, 121639.24, -1939.04, 62084.83, 49660.01, 24495.23, 92001.03, 98548.52, 0.00, 0.00, 0.00
104, 77122.14, 121633.56, -1947.31, 62072.91, 49629.12, 24477.26, 91994.62, 98544.91, 0.00, 0.00, 0.00
105, 77125.05, 121633.80, -1952.18, 62069.99, 49648.95, 24480.88, 91990.81, 98544.88, 0.00, 0.00, 0.00
106, 77124.96, 121636.83, -1949.47, 62066.61, 49649.10, 24485.26, 91988.83, 98537.23, 0.08, -0.25, 0.98
107, 77133.90, 121643.38, -1940.78, 62073.61, 49638.82, 24484.79, 91999.76, 98541.10, 0.00, 0.00, 0.00
108, 77141.27, 121641.16, -1946.08, 62077.27, 49652.19, 24484.75, 91990.44, 98549.11, 0.00, 0.00, 0.00
109, 77137.63, 121638.50, -1946.08, 62073.72, 49634.75, 24481.15, 91993.20, 98554.54, 0.00, 0.00, 0.00
110, 77130.01, 121638.26, -1945.14, 62063.15, 49645.59, 24480.95, 91986.77, 98551.25, 0.00, 0.00, 0.00
111, 77131.24, 121641.97, -1940.38, 62068.73, 49653.97, 24490.83, 91992.22, 98555.34, 0.00, 0.00, 0.00
112, 77136.90, 121644.13, -1937.14, 62076.56, 49660.37, 24496.86, 92001.03, 98561.89, 0.00, 0.00, 0.00
113, 77137.23, 121633.02, -1947.66, 62063.17, 49665.38, 24495.07, 92011.94, 98565.69, 0.00, 0.00, 0.00
114, 77128.58, 121630.01, -1945.54, 62080.61, 49651.89, 24490.31, 91984.09, 98562.54, 0.00, 0.00, 0.00
115, 77135.66, 121634.05, -1937.23, 62080.43, 49654.29, 24496.37, 91998.50, 98568.17, 0.00, 0.00, 0.00
116, 77135.48, 121638.77, -1926.70, 62086.80, 49669.62, 24499.32, 92002.82, 98563.91, 0.08, -0.24, 0.97
117, 77137.88, 121646.10, -1928.84, 62085.95, 49663.54, 24502.63, 91990.32, 98561.89, 0.00, 0.00, 0.00
118, 77138.13, 121636.69, -1934.21, 62084.76, 49666.96, 24499.32, 91992.13, 98561.20, 0.00, 0.00, 0.00
119, 77140.92, 121628.33, -1936.38, 62080.16, 49670.67, 24496.91, 91993.32, 98564.82, 0.00, 0.00, 0.00
120, 77140.47, 121630.97, -1939.73, 62074.61, 49658.85, 24489.71, 91989.45, 98564.46, 0.00, 0.00, 0.00
121, 77137.32, 121638.59, -1933.85, 62084.36, 49648.74, 24488.59, 91985.18, 98564.17, 0.00, 0.00, 0.00
122, 77133.81, 121641.36, -1934.59, 62083.80, 49658.18, 24490.74, 91996.94, 98562.61, 0.00, 0.00, 0.00
123, 77136.49, 121642.97, -1932.40, 62086.13, 49655.18, 24491.23, 91985.20, 98565.84, 0.00, 0.00, 0.00
124, 77132.60, 121640.76, -1931.84, 62086.89, 49670.31, 24492.73, 91996.20, 98563.21, 0.00, 0.00, 0.00
125, 77129.56, 121641.90, -1930.21, 62088.56, 49662.98, 24495.43, 91993.27, 98562.59, 0.00, 0.00, 0.00
126, 77131.53, 121647.09, -1928.66, 62090.51, 49662.07, 24495.83, 91980.45, 98565.96, 0.08, -0.24, 0.97
127, 77133.37, 121647.27, -1929.89, 62089.72, 49653.82, 24493.98, 91987.48, 98565.02, 0.00, 0.00, 0.00
128, 77133.63, 121641.20, -1939.66, 62075.40, 49658.20, 24487.88, 91978.56, 98556.48, 0.00, 0.00, 0.00
129, 77128.45, 121640.71, -1939.13, 62073.07, 49645.32, 24484.53, 91990.19, 98556.55, 0.00, 0.00, 0.00
130, 77129.63, 121642.34, -1938.03, 62079.04, 49664.84, 24491.70, 91991.40, 98567.59, 0.00, 0.00, 0.00
131, 77130.26, 121649.23, -1937.94, 62079.13, 49646.96, 24490.83, 91988.76, 98568.46, 0.00, 0.00, 0.00
132, 77125.38, 121652.02, -1935.30, 62083.44, 49624.18, 24483.27, 91985.38, 98558.74, 0.00, 0.00, 0.00
133, 77123.38, 121646.08, -1937.36, 62078.17, 49658.80, 24496.68, 91986.08, 98555.95, 0.00, 0.00, 0.00
134, 77122.79, 121642.26, -1939.19, 62075.78, 49668.82, 24494.22, 91995.44, 98556.41, 0.00, 0.00, 0.00
135, 77128.55, 121644.34, -1935.37, 62083.36, 49684.37, 24497.20, 92004.63, 98564.69, 0.00, 0.00, 0.00
136, 77136.07, 121649.43, -1936.73, 62084.25, 49681.09, 24499.43, 92012.88, 98568.64, 0.08, -0.25, 0.97
137, 77128.73, 121649.88, -1932.20, 62086.10, 49663.23, 24495.92, 91977.45, 98558.07, 0.00, 0.00, 0.00
138, 77122.21, 121647.48, -1922.07, 62080.27, 49651.34, 24489.78, 91976.11, 98549.53, 0.00, 0.00, 0.00
139, 77122.77, 121644.89, -1927.10, 62072.78, 49644.52, 24480.37, 91978.50, 98545.44, 0.00, 0.00, 0.00
140, 77125.20, 121644.42, -1930.56, 62076.47, 49667.21, 24483.56, 91975.81, 98550.09, 0.00, 0.00, 0.00
141, 77123.10, 121643.29, -1929.67, 62085.93, 49677.18, 24493.13, 91974.63, 98551.37, 0.00, 0.00, 0.00
142, 77122.21, 121641.36, -1931.93, 62085.03, 49662.82, 24494.14, 91978.41, 98549.30, 0.00, 0.00, 0.00
143, 77122.14, 121636.09, -1931.59, 62081.30, 49658.38, 24492.39, 91978.32, 98545.46, 0.00, 0.00, 0.00
144, 77124.85, 121634.44, -1926.32, 62089.81, 49671.57, 24493.55, 91981.54, 98548.88, 0.00, 0.00, 0.00
145, 77125.77, 121634.92, -1924.17, 62097.17, 49677.98, 24494.52, 91981.13, 98548.68, 0.00, 0.00, 0.00
146, 77126.88, 121635.80, -1925.78, 62095.13, 49674.92, 24502.34, 91981.74, 98552.99, 0.07, -0.25, 0.97
147, 77128.45, 121631.46, -1927.82, 62092.21, 49665.93, 24506.72, 92005.45, 98563.01, 0.00, 0.00, 0.00
148, 77129.74, 121631.39, -1929.38, 62095.60, 49654.58, 24495.61, 92005.45, 98561.66, 0.00, 0.00, 0.00
149, 77123.41, 121630.55, -1932.35, 62090.95, 49659.63, 24490.54, 91974.74, 98550.83, 0.00, 0.00, 0.00
150, 77126.79, 121628.82, -1935.33, 62086.08, 49667.09, 24484.17, 91970.38, 98552.39, 0.00, 0.00, 0.00
151, 77128.36, 121634.45, -1931.95, 62087.11, 49661.93, 24486.83, 91976.11, 98554.70, 0.00, 0.00, 0.00
152, 77133.90, 121631.84, -1933.29, 62087.76, 49646.17, 24483.47, 91974.84, 98562.23, 0.00, 0.00, 0.00
153, 77134.99, 121632.24, -1930.36, 62090.20, 49656.77, 24487.99, 91981.85, 98570.77, 0.00, 0.00, 0.00
154, 77136.85, 121631.41, -1934.86, 62084.11, 49624.63, 24480.46, 91983.37, 98574.23, 0.00, 0.00, 0.00
155, 77134.28, 121634.77, -1938.48, 62079.09, 49662.80, 24479.76, 91974.20, 98567.48, 0.00, 0.00, 0.00
156, 77140.70, 121643.02, -1930.45, 62086.91, 49670.74, 24492.21, 91978.09, 98569.76, 0.07, -0.25, 0.97
157, 77140.94, 121645.09, -1927.53, 62090.33, 49662.54, 24498.29, 91988.35, 98569.02, 0.00, 0.00, 0.00
158, 77136.88, 121636.94, -1934.88, 62085.37, 49660.23, 24496.53, 92001.92, 98565.18, 0.00, 0.00, 0.00
159, 77138.44, 121633.38, -1942.46, 62082.37, 49688.35, 24501.62, 91977.36, 98569.06, 0.00, 0.00, 0.00
160, 77143.94, 121638.16, -1935.30, 62089.99, 49690.95, 24511.48, 91980.15, 98580.48, 0.00, 0.00, 0.00
161, 77138.10, 121637.70, -1936.38, 62086.01, 49661.13, 24508.15, 91990.44, 98581.60, 0.00, 0.00, 0.00
162, 77136.94, 121640.60, -1935.57, 62081.66, 49664.17, 24494.92, 91979.39, 98571.44, 0.00, 0.00, 0.00
163, 77139.89, 121647.22, -1931.24, 62089.43, 49692.71, 24498.83, 91970.67, 98568.87, 0.00, 0.00, 0.00
164, 77143.53, 121640.36, -1932.69, 62094.80, 49685.64, 24499.03, 91981.18, 98572.17, 0.00, 0.00, 0.00
165, 77143.09, 121639.17, -1937.05, 62098.29, 49673.42, 24497.42, 91978.23, 98571.37, 0.00, 0.00, 0.00
166, 77143.89, 121643.80, -1926.32, 62095.34, 49673.15, 24495.75, 91976.27, 98573.89, 0.07, -0.25, 0.98
167, 77142.57, 121645.54, -1920.60, 62093.21, 49666.89, 24494.81, 91985.43, 98574.03, 0.00, 0.00, 0.00
168, 77137.70, 121642.91, -1928.60, 62089.81, 49663.43, 24493.22, 91999.95, 98569.76, 0.00, 0.00, 0.00
169, 77142.91, 121640.13, -1931.48, 62093.39, 49667.14, 24494.11, 91970.41, 98572.22, 0.00, 0.00, 0.00
170, 77143.45, 121638.88, -1935.68, 62088.29, 49661.53, 24491.34, 91978.70, 98577.09, 0.00, 0.00, 0.00
171, 77141.88, 121641.27, -1934.95, 62084.34, 49661.08, 24490.22, 91976.20, 98578.41, 0.00, 0.00, 0.00
172, 77142.44, 121646.44, -1932.15, 62082.37, 49644.32, 24494.83, 91979.68, 98582.32, 0.00, 0.00, 0.00
173, 77141.84, 121641.19, -1938.10, 62077.79, 49627.20, 24479.36, 91984.71, 98580.71, 0.00, 0.00, 0.00
174, 77138.05, 121637.77, -1936.42, 62071.78, 49644.47, 24468.03, 91965.11, 98574.16, 0.00, 0.00, 0.00
175, 77139.02, 121642.26, -1940.42, 62069.54, 49648.30, 24471.79, 91953.11, 98570.52, 0.00, 0.00, 0.00
176, 77147.13, 121649.37, -1935.68, 62079.49, 49665.46, 24476.59, 91962.47, 98575.73, 0.07, -0.25, 0.97
177, 77150.06, 121646.03, -1930.94, 62089.43, 49664.81, 24490.94, 91984.96, 98578.41, 0.00, 0.00, 0.00
178, 77143.55, 121645.07, -1927.79, 62088.72, 49657.04, 24488.08, 91967.16, 98575.99, 0.00, 0.00, 0.00
179, 77139.73, 121642.52, -1933.11, 62083.06, 49671.43, 24486.92, 91967.77, 98579.59, 0.00, 0.00, 0.00
180, 77140.85, 121640.67, -1936.02, 62081.32, 49664.64, 24486.42, 91964.22, 98578.39, 0.00, 0.00, 0.00
181, 77143.11, 121641.50, -1932.71, 62085.41, 49652.14, 24490.09, 91967.99, 98576.95, 0.00, 0.00, 0.00
182, 77144.65, 121647.64, -1926.27, 62090.11, 49669.71, 24497.44, 91974.25, 98575.88, 0.00, 0.00, 0.00
183, 77143.42, 121646.86, -1929.54, 62088.20, 49677.55, 24500.55, 91972.58, 98580.29, 0.00, 0.00, 0.00
184, 77140.27, 121641.30, -1930.68, 62091.60, 49687.90, 24498.20, 91968.87, 98578.55, 0.00, 0.00, 0.00
185, 77140.07, 121640.60, -1928.98, 62095.54, 49682.85, 24499.01, 91968.62, 98573.16, 0.00, 0.00, 0.00
186, 77139.63, 121638.55, -1935.57, 62086.28, 49651.70, 24487.81, 91963.14, 98568.71, 0.07, -0.24, 0.97
187, 77141.68, 121637.92, -1938.39, 62086.21, 49653.01, 24491.01, 91981.91, 98574.72, 0.00, 0.00, 0.00
188, 77139.76, 121644.49, -1931.19, 62095.78, 49694.25, 24508.73, 91979.86, 98583.91, 0.00, 0.00, 0.00
189, 77131.95, 121645.21, -1926.83, 62100.61, 49679.05, 24496.10, 91976.60, 98581.85, 0.00, 0.00, 0.00
190, 77130.62, 121639.22, -1932.22, 62098.82, 49678.41, 24488.97, 91964.53, 98573.29, 0.00, 0.00, 0.00
191, 77135.64, 121656.63, -1933.81, 62096.96, 49685.31, 24489.24, 91966.14, 98569.98, 0.00, 0.00, 0.00
192, 77129.45, 121633.14, -1936.73, 62089.86, 49669.55, 24479.54, 91958.83, 98562.52, 0.00, 0.00, 0.00
193, 77128.80, 121634.34, -1929.56, 62093.43, 49667.05, 24480.70, 91960.69, 98561.63, 0.00, 0.00, 0.00
194, 77131.87, 121637.59, -1929.04, 62086.01, 49660.68, 24477.46, 91971.08, 98568.46, 0.00, 0.00, 0.00
195, 77131.73, 121643.42, -1926.77, 62082.55, 49637.03, 24469.75, 91964.04, 98564.93, 0.00, 0.00, 0.00
196, 77133.21, 121647.53, -1931.28, 62081.61, 49638.73, 24461.41, 91964.20, 98563.50, 0.08, -0.24, 0.97
197, 77135.24, 121642.16, -1925.51, 62085.95, 49676.84, 24478.74, 91944.28, 98570.61, 0.00, 0.00, 0.00
198, 77135.33, 121639.22, -1926.14, 62087.85, 49668.39, 24480.88, 91951.01, 98566.98, 0.00, 0.00, 0.00
199, 77141.52, 121647.84, -1923.57, 62090.53, 49650.18, 24464.56, 91966.09, 98570.01, 0.00, 0.00, 0.00
200, 77140.52, 121656.74, -1928.11, 62089.75, 49657.19, 24471.34, 91958.83, 98569.89, 0.00, 0.00, 0.00
201, 77144.14, 121654.48, -1927.32, 62093.30, 49677.73, 24489.89, 91963.37, 98574.52, 0.00, 0.00, 0.00
202, 77144.36, 121642.19, -1919.30, 62096.34, 49700.09, 24498.38, 91967.79, 98577.88, 0.00, 0.00, 0.00
203, 77132.63, 121642.84, -1923.50, 62087.60, 49679.01, 24490.76, 91960.88, 98565.84, 0.00, 0.00, 0.00
204, 77129.36, 121637.07, -1928.44, 62085.32, 49678.61, 24488.86, 91962.59, 98569.45, 0.00, 0.00, 0.00
205, 77132.76, 121636.71, -1928.82, 62086.80, 49671.68, 24489.55, 91977.78, 98575.03, 0.00, 0.00, 0.00
206, 77139.55, 121644.72, -1922.63, 62090.08, 49669.64, 24496.53, 91973.80, 98577.88, 0.08, -0.25, 0.97
207, 77143.11, 121654.98, -1916.19, 62099.27, 49681.38, 24499.61, 91958.96, 98576.42, 0.00, 0.00, 0.00
208, 77143.27, 121632.02, -1926.41, 62092.54, 49690.32, 24498.27, 91960.02, 98574.37, 0.00, 0.00, 0.00
209, 77143.20, 121635.80, -1931.03, 62090.39, 49678.80, 24498.49, 91967.16, 98574.66, 0.00, 0.00, 0.00
210, 77142.77, 121647.66, -1925.69, 62092.99, 49666.98, 24495.05, 91976.22, 98575.37, 0.00, 0.00, 0.00
211, 77141.14, 121644.89, -1924.53, 62098.51, 49685.63, 24500.39, 91962.34, 98575.52, 0.00, 0.00, 0.00
212, 77137.16, 121648.90, -1922.85, 62097.86, 49689.11, 24503.23, 91957.95, 98573.27, 0.00, 0.00, 0.00
213, 77128.78, 121650.66, -1921.38, 62103.29, 49663.63, 24497.09, 91955.66, 98564.95, 0.00, 0.00, 0.00
214, 77125.50, 121647.87, -1922.67, 62099.38, 49663.25, 24495.46, 91965.27, 98562.18, 0.00, 0.00, 0.00
215, 77128.00, 121640.91, -1924.62, 62098.11, 49694.68, 24502.88, 91965.91, 98569.36, 0.00, 0.00, 0.00
216, 77122.03, 121646.75, -1926.52, 62089.55, 49675.36, 24497.15, 91953.13, 98567.63, 0.08, -0.25, 0.97
217, 77129.14, 121654.55, -1928.17, 62090.04, 49672.10, 24503.19, 91954.49, 98572.22, 0.00, 0.00, 0.00
218, 77132.94, 121654.77, -1924.64, 62091.29, 49667.61, 24499.63, 91955.37, 98578.88, 0.00, 0.00, 0.00
219, 77133.74, 121643.17, -1927.37, 62085.39, 49670.69, 24499.48, 91958.96, 98584.22, 0.00, 0.00, 0.00
220, 77143.76, 121644.91, -1926.81, 62091.31, 49683.75, 24504.87, 91968.41, 98594.70, 0.00, 0.00, 0.00
221, 77143.27, 121647.94, -1928.28, 62088.56, 49692.15, 24507.10, 91974.63, 98590.26, 0.00, 0.00, 0.00
222, 77143.09, 121652.45, -1925.54, 62087.40, 49673.04, 24504.75, 91954.16, 98585.90, 0.00, 0.00, 0.00
223, 77138.37, 121658.38, -1928.26, 62084.85, 49653.55, 24499.86, 91951.30, 98578.70, 0.00, 0.00, 0.00
224, 77137.68, 121647.64, -1929.78, 62090.42, 49649.97, 24496.42, 91970.30, 98584.02, 0.00, 0.00, 0.00
225, 77139.53, 121646.66, -1930.01, 62091.27, 49674.20, 24503.99, 91983.75, 98589.52, 0.00, 0.00, 0.00
226, 77135.71, 121662.95, -1929.65, 62093.08, 49705.70, 24511.57, 91962.63, 98582.23, 0.08, -0.25, 0.97
227, 77126.10, 121659.67, -1919.17, 62104.16, 49704.18, 24512.71, 91959.08, 98569.31, 0.00, 0.00, 0.00
228, 77123.41, 121648.52, -1922.38, 62100.54, 49680.13, 24508.89, 91954.02, 98567.32, 0.00, 0.00, 0.00
229, 77126.66, 121646.57, -1925.80, 62100.43, 49712.71, 24517.38, 91962.12, 98570.66, 0.00, 0.00, 0.00
230, 77134.37, 121653.32, -1928.82, 62102.87, 49717.95, 24521.43, 91976.30, 98576.38, 0.00, 0.00, 0.00
231, 77134.77, 121663.58, -1933.40, 62103.25, 49696.91, 24520.51, 91965.24, 98575.01, 0.00, 0.00, 0.00
232, 77134.34, 121646.73, -1918.70, 62110.46, 49700.53, 24523.30, 91963.41, 98578.84, 0.00, 0.00, 0.00
233, 77124.31, 121647.33, -1915.41, 62105.13, 49694.72, 24519.88, 91965.65, 98574.50, 0.00, 0.00, 0.00
234, 77129.19, 121647.60, -1917.02, 62104.90, 49690.21, 24519.15, 91985.20, 98583.44, 0.00, 0.00, 0.00
235, 77136.00, 121647.64, -1922.50, 62098.24, 49687.95, 24514.34, 91953.45, 98584.55, 0.00, 0.00, 0.00
236, 77136.23, 121651.45, -1922.45, 62100.83, 49681.73, 24502.83, 91953.15, 98573.23, 0.08, -0.25, 0.98
237, 77138.57, 121661.28, -1924.22, 62100.92, 49685.02, 24504.64, 91954.09, 98569.89, 0.00, 0.00, 0.00
238, 77137.16, 121662.75, -1921.49, 62104.79, 49682.54, 24511.10, 91963.68, 98577.36, 0.00, 0.00, 0.00
239, 77135.58, 121657.44, -1922.52, 62101.08, 49667.86, 24507.79, 91960.39, 98580.82, 0.00, 0.00, 0.00
240, 77139.42, 121652.29, -1926.34, 62096.90, 49671.45, 24497.71, 91966.52, 98583.17, 0.00, 0.00, 0.00
241, 77142.73, 121659.20, -1931.10, 62093.77, 49695.79, 24509.49, 91963.68, 98579.66, 0.00, 0.00, 0.00
242, 77143.98, 121642.50, -1932.29, 62098.20, 49693.92, 24515.71, 91961.47, 98581.90, 0.00, 0.00, 0.00
243, 77142.26, 121655.11, -1920.60, 62108.37, 49688.98, 24523.69, 91976.35, 98586.92, 0.00, 0.00, 0.00
244, 77135.71, 121666.71, -1923.23, 62098.57, 49669.38, 24508.98, 91979.37, 98580.82, 0.00, 0.00, 0.00
245, 77134.28, 121634.55, -1935.17, 62090.53, 49649.48, 24497.64, 91960.30, 98574.50, 0.00, 0.00, 0.00
246, 77137.27, 121640.24, -1922.88, 62094.06, 49666.78, 24506.99, 91945.38, 98583.28, 0.08, -0.25, 0.97
247, 77130.41, 121648.88, -1919.95, 62098.04, 49685.60, 24513.89, 91952.19, 98580.94, 0.00, 0.00, 0.00
248, 77136.02, 121649.55, -1922.43, 62100.88, 49703.10, 24519.08, 91956.73, 98583.23, 0.00, 0.00, 0.00
249, 77146.35, 121644.23, -1927.17, 62096.34, 49690.12, 24508.02, 91962.30, 98588.24, 0.00, 0.00, 0.00
250, 77151.20, 121646.75, -1924.60, 62096.30, 49705.67, 24513.47, 91960.05, 98586.99, 0.00, 0.00, 0.00
251, 77145.37, 121645.70, -1928.28, 62093.03, 49681.76, 24512.49, 91959.27, 98579.05, 0.00, 0.00, 0.00
252, 77139.09, 121643.51, -1936.20, 62091.18, 49681.06, 24510.56, 91955.90, 98572.71, 0.00, 0.00, 0.00
253, 77141.41, 121649.59, -1926.50, 62110.54, 49714.88, 24525.12, 91970.70, 98576.71, 0.00, 0.00, 0.00
254, 77134.48, 121658.71, -1918.70, 62109.82, 49720.40, 24527.55, 91980.63, 98575.57, 0.00, 0.00, 0.00
255, 77125.81, 121643.77, -1920.35, 62107.49, 49709.74, 24523.17, 91982.70, 98572.66, 0.00, 0.00, 0.00
0, 77126.93, 121647.45, -1925.29, 62109.15, 49704.24, 24517.61, 91949.71, 98572.48, 0.07, -0.25, 0.98
1, 77139.65, 121646.66, -1915.92, 62117.95, 49718.91, 24528.98, 91961.73, 98580.53, 0.00, 0.00, 0.00
2, 77134.21, 121650.35, -1913.06, 62119.95, 49710.43, 24525.07, 91962.85, 98572.48, 0.00, 0.00, 0.00
3, 77126.95, 121643.17, -1926.45, 62110.04, 49691.61, 24514.97, 91967.66, 98567.91, 0.00, 0.00, 0.00
4, 77135.73, 121647.15, -1926.32, 62106.24, 49683.99, 24514.56, 91968.82, 98581.72, 0.00, 0.00, 0.00
5, 77143.35, 121655.02, -1925.11, 62104.68, 49687.30, 24516.60, 91961.22, 98591.10, 0.00, 0.00, 0.00
6, 77141.50, 121658.35, -1920.17, 62108.21, 49688.17, 24511.19, 91964.91, 98580.38, 0.00, 0.00, 0.00
7, 77141.68, 121663.36, -1919.17, 62106.42, 49693.11, 24515.66, 91969.29, 98575.66, 0.00, 0.00, 0.00
8, 77142.98, 121659.05, -1925.76, 62099.67, 49672.05, 24507.26, 91972.22, 98578.16, 0.00, 0.00, 0.00
9, 77132.83, 121658.38, -1928.08, 62099.61, 49680.21, 24502.52, 91960.30, 98569.98, 0.00, 0.00, 0.00
10, 77128.07, 121673.77, -1925.87, 62106.76, 49704.55, 24517.14, 91948.37, 98569.58, 0.07, -0.25, 0.97
11, 77130.34, 121650.91, -1920.98, 62113.66, 49700.11, 24526.19, 91962.88, 98576.42, 0.00, 0.00, 0.00
12, 77133.21, 121653.14, -1926.83, 62109.46, 49685.33, 24518.66, 91963.19, 98577.13, 0.00, 0.00, 0.00
13, 77139.06, 121650.48, -1929.94, 62107.89, 49692.82, 24517.02, 91964.41, 98583.21, 0.00, 0.00, 0.00
14, 77135.33, 121642.81, -1935.62, 62097.97, 49677.18, 24512.58, 91953.91, 98577.36, 0.00, 0.00, 0.00
15, 77137.48, 121650.13, -1932.98, 62104.63, 49694.88, 24516.89, 91963.57, 98577.67, 0.00, 0.00, 0.00
16, 77146.69, 121652.02, -1930.39, 62110.15, 49709.70, 24523.51, 91955.86, 98584.58, 0.00, 0.00, 0.00
17, 77141.55, 121659.71, -1926.32, 62114.80, 49717.36, 24519.97, 91948.66, 98584.51, 0.00, 0.00, 0.00
18, 77136.00, 121655.58, -1921.51, 62114.07, 49714.99, 24520.80, 91950.73, 98582.05, 0.00, 0.00, 0.00
19, 77135.06, 121652.85, -1918.47, 62112.39, 49708.63, 24517.72, 91968.62, 98582.86, 0.00, 0.00, 0.00
20, 77131.04, 121656.70, -1924.62, 62107.47, 49694.03, 24506.41, 91939.41, 98576.04, 0.07, -0.25, 0.98
21, 77135.51, 121667.76, -1915.77, 62116.17, 49696.64, 24515.75, 91945.87, 98579.26, 0.00, 0.00, 0.00
22, 77133.95, 121659.16, -1924.55, 62113.62, 49692.46, 24512.13, 91949.30, 98572.93, 0.00, 0.00, 0.00
23, 77133.25, 121658.30, -1921.49, 62111.96, 49700.62, 24507.99, 91954.31, 98572.35, 0.00, 0.00, 0.00
24, 77133.34, 121655.94, -1920.15, 62110.11, 49696.18, 24506.21, 91938.33, 98575.64, 0.00, 0.00, 0.00
25, 77129.12, 121660.95, -1926.81, 62102.64, 49685.00, 24502.72, 91935.76, 98569.27, 0.00, 0.00, 0.00
26, 77133.41, 121674.55, -1924.84, 62111.56, 49698.97, 24509.96, 91950.96, 98573.60, 0.00, 0.00, 0.00
27, 77134.91, 121662.64, -1929.83, 62108.52, 49699.53, 24507.30, 91931.65, 98576.84, 0.00, 0.00, 0.00
28, 77138.70, 121648.23, -1932.53, 62104.72, 49705.34, 24508.84, 91947.54, 98580.24, 0.00, 0.00, 0.00
29, 77136.38, 121659.16, -1928.64, 62102.18, 49695.82, 24508.82, 91939.41, 98578.03, 0.00, 0.00, 0.00
30, 77132.91, 121665.34, -1930.65, 62108.10, 49686.20, 24512.13, 91930.95, 98576.29, 0.08, -0.25, 0.97
31, 77140.47, 121668.12, -1929.40, 62113.53, 49701.85, 24526.68, 91950.65, 98584.84, 0.00, 0.00, 0.00
32, 77142.82, 121670.48, -1927.97, 62116.88, 49710.30, 24523.26, 91945.20, 98582.61, 0.00, 0.00, 0.00
33, 77138.93, 121669.55, -1927.77, 62111.79, 49724.23, 24522.16, 91942.09, 98576.87, 0.00, 0.00, 0.00
34, 77137.03, 121666.82, -1927.15, 62105.53, 49706.61, 24519.21, 91935.07, 98574.79, 0.00, 0.00, 0.00
35, 77144.05, 121688.80, -1926.14, 62109.44, 49703.19, 24521.74, 91958.00, 98578.59, 0.00, 0.00, 0.00
36, 77147.52, 121672.30, -1928.20, 62109.98, 49703.39, 24526.21, 91958.27, 98583.39, 0.00, 0.00, 0.00
37, 77144.02, 121664.63, -1930.65, 62105.53, 49702.90, 24524.22, 91937.48, 98584.45, 0.00, 0.00, 0.00
38, 77146.04, 121668.23, -1935.93, 62099.00, 49698.27, 24514.97, 91931.34, 98583.39, 0.00, 0.00, 0.00
39, 77153.80, 121677.22, -1933.07, 62101.64, 49682.83, 24513.47, 91918.55, 98585.30, 0.00, 0.00, 0.00
40, 77145.75, 121689.87, -1927.88, 62106.49, 49670.69, 24522.61, 91944.41, 98591.51, 0.08, -0.25, 0.97
41, 77145.12, 121687.48, -1924.53, 62114.40, 49686.63, 24524.29, 91949.58, 98599.60, 0.00, 0.00, 0.00
42, 77153.39, 121688.91, -1920.10, 62123.48, 49741.35, 24536.45, 91949.11, 98607.80, 0.00, 0.00, 0.00
43, 77145.70, 121699.57, -1916.57, 62128.53, 49745.28, 24536.27, 91947.16, 98593.43, 0.00, 0.00, 0.00
44, 77135.73, 121682.63, -1919.05, 62123.23, 49721.21, 24524.22, 91945.04, 98583.35, 0.00, 0.00, 0.00
45, 77135.73, 121689.35, -1927.64, 62116.25, 49707.84, 24513.45, 91935.02, 98582.52, 0.00, 0.00, 0.00
46, 77134.48, 121691.41, -1921.13, 62121.15, 49707.95, 24516.89, 91935.36, 98577.60, 0.00, 0.00, 0.00
47, 77134.50, 121688.88, -1923.12, 62118.47, 49706.21, 24518.03, 91932.37, 98574.92, 0.00, 0.00, 0.00
48, 77138.52, 121691.37, -1922.59, 62121.48, 49706.32, 24515.33, 91953.02, 98579.86, 0.00, 0.00, 0.00
49, 77137.90, 121693.02, -1927.23, 62117.91, 49696.58, 24506.94, 91932.19, 98577.52, 0.00, 0.00, 0.00
50, 77144.25, 121697.66, -1930.01, 62113.24, 49713.39, 24513.13, 91921.50, 98578.99, 0.07, -0.26, 0.97
51, 77147.63, 121703.91, -1928.35, 62111.83, 49700.40, 24512.26, 91930.33, 98583.57, 0.00, 0.00, 0.00
52, 77141.52, 121699.26, -1923.90, 62113.26, 49694.99, 24516.78, 91939.38, 98589.18, 0.00, 0.00, 0.00
53, 77133.70, 121699.84, -1924.80, 62113.06, 49688.51, 24514.43, 91931.73, 98587.51, 0.00, 0.00, 0.00
54, 77132.27, 121693.15, -1930.43, 62105.39, 49678.16, 24508.66, 91940.08, 98592.31, 0.00, 0.00, 0.00
55, 77136.85, 121698.41, -1928.89, 62104.61, 49691.86, 24520.94, 91953.24, 98599.02, 0.00, 0.00, 0.00
56, 77131.46, 121702.95, -1926.18, 62112.14, 49700.80, 24523.28, 91945.93, 98586.23, 0.00, 0.00, 0.00
57, 77129.61, 121707.73, -1926.63, 62110.87, 49691.75, 24519.24, 91948.16, 98579.80, 0.00, 0.00, 0.00
58, 77123.17, 121706.01, -1927.26, 62108.70, 49669.20, 24508.60, 91944.37, 98572.58, 0.00, 0.00, 0.00
59, 77125.72, 121695.37, -1923.95, 62112.28, 49698.50, 24517.76, 91967.30, 98577.74, 0.00, 0.00, 0.00
60, 77127.02, 121698.78, -1923.79, 62117.71, 49724.43, 24528.16, 91947.54, 98581.78, 0.07, -0.25, 0.97
61, 77124.49, 121701.53, -1923.64, 62121.38, 49701.18, 24524.18, 91950.23, 98577.74, 0.00, 0.00, 0.00
62, 77127.69, 121707.62, -1922.99, 62117.71, 49717.41, 24522.52, 91949.06, 98575.13, 0.00, 0.00, 0.00
63, 77124.09, 121710.41, -1919.95, 62112.16, 49722.95, 24525.54, 91946.00, 98575.23, 0.00, 0.00, 0.00
64, 77121.30, 121706.61, -1926.36, 62105.88, 49712.38, 24525.12, 91955.05, 98576.06, 0.00, 0.00, 0.00
65, 77121.77, 121709.45, -1922.23, 62110.76, 49714.10, 24530.39, 91960.21, 98576.62, 0.00, 0.00, 0.00
66, 77124.16, 121713.54, -1921.49, 62117.71, 49720.40, 24529.43, 91952.64, 98584.55, 0.00, 0.00, 0.00
67, 77125.74, 121718.30, -1922.41, 62120.77, 49711.73, 24526.66, 91967.34, 98582.84, 0.00, 0.00, 0.00
68, 77127.58, 121729.16, -1918.27, 62130.98, 49716.83, 24523.46, 91960.05, 98579.30, 0.00, 0.00, 0.00
69, 77117.83, 121725.83, -1922.38, 62126.43, 49702.70, 24517.49, 91961.58, 98574.30, 0.08, -0.25, 0.97
70, 77115.59, 121709.67, -1918.83, 62129.64, 49710.46, 24527.66, 91980.02, 98579.03, 0.00, 0.00, 0.00
71, 77113.49, 121721.74, -1923.01, 62115.12, 49723.13, 24527.78, 91971.63, 98574.68, 0.00, 0.00, 0.00
72, 77109.27, 121715.44, -1917.13, 62122.40, 49715.78, 24520.27, 91959.63, 98565.91, 0.00, 0.00, 0.00
73, 77110.38, 121718.79, -1914.61, 62123.97, 49708.29, 24517.49, 91966.45, 98564.71, 0.00, 0.00, 0.00
74, 77115.57, 121731.80, -1918.92, 62121.06, 49710.12, 24516.38, 91974.03, 98572.20, 0.00, 0.00, 0.00
75, 77123.10, 121712.35, -1923.64, 62120.50, 49706.32, 24520.36, 91981.13, 98581.96, 0.00, 0.00, 0.00
76, 77123.41, 121726.55, -1913.56, 62124.01, 49688.89, 24520.33, 91979.59, 98581.52, 0.00, 0.00, 0.00
77, 77118.59, 121724.47, -1916.10, 62114.47, 49685.94, 24512.55, 91974.03, 98576.09, 0.00, 0.00, 0.00
78, 77125.95, 121718.92, -1920.84, 62109.15, 49684.66, 24509.22, 91987.39, 98574.19, 0.00, 0.00, 0.00
79, 77129.63, 121720.53, -1920.10, 62116.08, 49684.64, 24512.67, 91990.59, 98579.26, 0.07, -0.25, 0.97
80, 77123.10, 121724.69, -1920.26, 62119.12, 49720.00, 24526.77, 91978.14, 98580.42, 0.00, 0.00, 0.00
81, 77122.44, 121722.43, -1921.96, 62117.53, 49705.23, 24528.54, 91984.96, 98580.16, 0.00, 0.00, 0.00
82, 77121.88, 121721.77, -1919.37, 62114.76, 49713.14, 24523.62, 91985.54, 98573.96, 0.00, 0.00, 0.00
83, 77115.35, 121718.63, -1921.42, 62113.68, 49712.45, 24523.08, 91986.86, 98566.80, 0.00, 0.00, 0.00
84, 77110.21, 121721.92, -1920.22, 62117.57, 49695.44, 24522.28, 91990.21, 98566.43, 0.00, 0.00, 0.00
85, 77108.73, 121730.68, -1919.05, 62120.59, 49700.42, 24526.50, 91992.85, 98571.75, 0.00, 0.00, 0.00
86, 77115.30, 121729.98, -1915.70, 62121.22, 49703.80, 24534.21, 91998.52, 98579.08, 0.00, 0.00, 0.00
87, 77113.52, 121726.12, -1922.38, 62111.52, 49698.66, 24525.03, 91994.55, 98567.34, 0.00, 0.00, 0.00
88, 77120.42, 121727.04, -1920.01, 62116.01, 49700.64, 24518.14, 91983.88, 98564.10, 0.00, 0.00, 0.00
89, 77116.98, 121706.56, -1920.19, 62118.47, 49724.40, 24526.70, 92005.50, 98571.75, 0.08, -0.25, 0.97
90, 77113.60, 121719.44, -1916.39, 62127.03, 49714.05, 24533.32, 92000.58, 98576.69, 0.00, 0.00, 0.00
91, 77109.72, 121722.12, -1915.30, 62127.30, 49728.41, 24534.53, 91989.85, 98567.70, 0.00, 0.00, 0.00
92, 77118.01, 121725.61, -1915.83, 62124.86, 49738.66, 24532.69, 91987.53, 98564.06, 0.00, 0.00, 0.00
93, 77120.20, 121723.04, -1913.91, 62120.55, 49721.07, 24527.31, 91986.77, 98562.52, 0.00, 0.00, 0.00
94, 77106.72, 121722.88, -1913.47, 62125.22, 49719.60, 24530.77, 91999.73, 98561.94, 0.00, 0.00, 0.00
95, 77105.09, 121724.45, -1917.82, 62121.42, 49710.25, 24531.35, 91994.59, 98563.55, 0.00, 0.00, 0.00
96, 77106.90, 121729.14, -1919.68, 62119.27, 49696.84, 24527.60, 91980.04, 98560.15, 0.00, 0.00, 0.00
97, 77108.80, 121729.30, -1917.04, 62124.79, 49715.73, 24526.08, 91983.48, 98560.26, 0.00, 0.00, 0.00
98, 77107.23, 121726.84, -1919.72, 62120.70, 49712.42, 24523.51, 92002.44, 98561.78, 0.00, 0.00, 0.00
99, 77113.45, 121729.07, -1920.80, 62116.52, 49703.39, 24520.44, 92003.53, 98565.69, 0.08, -0.25, 0.97
100, 77115.73, 121727.66, -1917.24, 62112.28, 49708.56, 24525.76, 91979.70, 98568.64, 0.00, 0.00, 0.00
101, 77118.68, 121732.40, -1911.12, 62114.45, 49714.55, 24530.59, 91992.05, 98571.26, 0.00, 0.00, 0.00
102, 77117.45, 121733.30, -1920.57, 62103.63, 49700.31, 24519.95, 91986.70, 98565.24, 0.00, 0.00, 0.00
103, 77123.59, 121725.09, -1925.40, 62099.83, 49679.61, 24505.96, 91984.33, 98566.52, 0.00, 0.00, 0.00
104, 77125.16, 121724.55, -1926.50, 62104.39, 49683.39, 24506.34, 91988.89, 98570.52, 0.00, 0.00, 0.00
105, 77121.92, 121733.54, -1924.44, 62106.87, 49688.02, 24515.26, 91987.80, 98573.29, 0.00, 0.00, 0.00
106, 77114.99, 121736.05, -1921.49, 62117.71, 49727.09, 24526.32, 91991.30, 98569.98, 0.00, 0.00, 0.00
107, 77117.34, 121748.54, -1919.77, 62118.13, 49714.55, 24524.18, 91992.47, 98568.75, 0.00, 0.00, 0.00
108, 77113.38, 121722.73, -1920.86, 62117.60, 49698.50, 24515.64, 91979.37, 98561.60, 0.00, 0.00, 0.00
109, 77114.48, 121730.75, -1918.14, 62121.82, 49715.73, 24519.95, 91984.45, 98562.47, 0.08, -0.25, 0.98
110, 77118.39, 121739.33, -1911.59, 62123.65, 49712.67, 24524.62, 92007.42, 98569.40, 0.00, 0.00, 0.00
111, 77112.66, 121748.18, -1912.88, 62121.31, 49716.60, 24520.00, 91985.65, 98571.80, 0.00, 0.00, 0.00
112, 77119.22, 121747.84, -1911.01, 62123.57, 49708.58, 24522.50, 91983.44, 98580.20, 0.00, 0.00, 0.00
113, 77119.75, 121738.98, -1917.38, 62115.61, 49684.30, 24510.61, 91985.67, 98576.80, 0.00, 0.00, 0.00
114, 77124.87, 121737.12, -1919.48, 62111.05, 49688.75, 24513.00, 91984.53, 98576.35, 0.00, 0.00, 0.00
115, 77130.97, 121742.88, -1913.89, 62119.70, 49741.77, 24527.78, 91992.09, 98583.88, 0.00, 0.00, 0.00
116, 77130.26, 121747.40, -1907.43, 62135.79, 49745.44, 24534.71, 91999.87, 98592.02, 0.00, 0.00, 0.00
117, 77130.48, 121750.93, -1907.54, 62132.15, 49717.16, 24528.67, 91993.77, 98592.45, 0.00, 0.00, 0.00
118, 77117.25, 121742.64, -1912.37, 62119.36, 49708.82, 24521.05, 91989.49, 98578.03, 0.00, 0.00, 0.00
119, 77113.59, 121737.52, -1917.78, 62118.98, 49726.26, 24526.28, 91995.62, 98573.63, 0.08, -0.25, 0.98
120, 77115.82, 121747.18, -1906.51, 62126.79, 49730.93, 24535.22, 91999.48, 98576.46, 0.00, 0.00, 0.00
121, 77115.70, 121752.95, -1904.06, 62130.34, 49727.46, 24538.82, 92005.99, 98573.85, 0.00, 0.00, 0.00
122, 77110.34, 121753.28, -1902.38, 62134.36, 49725.23, 24540.45, 91987.77, 98570.16, 0.00, 0.00, 0.00
123, 77107.03, 121748.90, -1909.00, 62122.67, 49720.25, 24535.42, 91997.90, 98572.06, 0.00, 0.00, 0.00
124, 77112.58, 121750.23, -1912.10, 62123.07, 49718.17, 24538.24, 91993.49, 98578.84, 0.00, 0.00, 0.00
125, 77123.30, 121755.65, -1911.50, 62123.23, 49707.55, 24545.54, 92003.20, 98588.52, 0.00, 0.00, 0.00
126, 77129.41, 121759.60, -1912.46, 62119.36, 49716.00, 24547.80, 92011.83, 98593.20, 0.00, 0.00, 0.00
127, 77132.07, 121761.64, -1920.08, 62110.31, 49715.38, 24538.93, 92007.82, 98595.64, 0.00, 0.00, 0.00
128, 77131.55, 121748.79, -1921.33, 62117.02, 49706.66, 24532.65, 92007.09, 98596.36, 0.00, 0.00, 0.00
129, 77132.78, 121749.01, -1920.28, 62117.51, 49692.06, 24522.30, 91998.84, 98596.96, 0.08, -0.25, 0.97
130, 77132.42, 121755.16, -1912.53, 62122.18, 49697.71, 24526.59, 92000.63, 98597.25, 0.00, 0.00, 0.00
131, 77124.36, 121749.70, -1921.11, 62118.42, 49713.21, 24535.82, 92004.00, 98589.72, 0.00, 0.00, 0.00
132, 77129.70, 121748.07, -1920.28, 62124.37, 49719.64, 24535.62, 92013.59, 98592.29, 0.00, 0.00, 0.00
133, 77126.52, 121749.23, -1910.18, 62129.96, 49722.21, 24536.11, 91993.12, 98592.76, 0.00, 0.00, 0.00
134, 77121.00, 121755.63, -1904.79, 62132.10, 49723.64, 24539.38, 92007.96, 98596.09, 0.00, 0.00, 0.00
135, 77117.38, 121753.44, -1911.28, 62117.48, 49719.06, 24531.33, 91992.42, 98591.02, 0.00, 0.00, 0.00
136, 77115.28, 121756.72, -1916.13, 62116.95, 49734.78, 24531.04, 91988.49, 98582.59, 0.00, 0.00, 0.00
137, 77116.91, 121755.11, -1912.08, 62126.94, 49733.79, 24533.61, 91993.14, 98577.47, 0.00, 0.00, 0.00
138, 77126.66, 121742.82, -1910.45, 62129.76, 49723.00, 24527.04, 91997.70, 98592.11, 0.00, 0.00, 0.00
139, 77126.63, 121749.37, -1910.16, 62126.02, 49695.21, 24523.53, 92002.03, 98603.31, 0.07, -0.25, 0.97
140, 77119.35, 121752.77, -1908.53, 62125.69, 49719.58, 24528.83, 91998.62, 98602.10, 0.00, 0.00, 0.00
141, 77111.37, 121751.16, -1909.67, 62120.73, 49729.97, 24527.89, 91989.74, 98590.23, 0.00, 0.00, 0.00
142, 77104.59, 121748.45, -1918.09, 62110.67, 49718.28, 24514.25, 91982.41, 98572.55, 0.00, 0.00, 0.00
143, 77110.77, 121746.70, -1918.16, 62111.85, 49721.70, 24520.91, 91995.06, 98580.33, 0.00, 0.00, 0.00
144, 77106.70, 121755.63, -1909.42, 62121.29, 49729.21, 24529.25, 92017.19, 98587.48, 0.00, 0.00, 0.00
145, 77103.08, 121754.46, -1914.05, 62117.38, 49715.73, 24527.53, 91999.17, 98581.23, 0.00, 0.00, 0.00
146, 77104.42, 121747.58, -1912.62, 62121.84, 49713.54, 24530.12, 91988.22, 98578.86, 0.00, 0.00, 0.00
147, 77101.71, 121749.41, -1912.12, 62127.90, 49729.86, 24533.72, 91995.44, 98576.80, 0.00, 0.00, 0.00
148, 77094.92, 121746.35, -1913.22, 62123.21, 49723.46, 24534.99, 91997.63, 98569.18, 0.00, 0.00, 0.00
149, 77094.72, 121747.18, -1912.06, 62118.07, 49710.66, 24529.83, 91988.58, 98565.18, 0.07, -0.26, 0.97
150, 77096.75, 121749.75, -1914.00, 62113.95, 49699.35, 24530.68, 91991.82, 98570.34, 0.00, 0.00, 0.00
151, 77097.96, 121754.66, -1912.12, 62120.23, 49703.04, 24533.77, 91993.09, 98575.64, 0.00, 0.00, 0.00
152, 77101.73, 121755.40, -1910.49, 62117.17, 49703.33, 24533.30, 91993.79, 98574.81, 0.00, 0.00, 0.00
153, 77102.59, 121753.68, -1909.93, 62113.37, 49753.59, 24538.50, 91997.95, 98568.66, 0.00, 0.00, 0.00
154, 77108.24, 121749.68, -1917.82, 62114.82, 49747.89, 24534.03, 91999.09, 98568.58, 0.00, 0.00, 0.00
155, 77105.94, 121750.84, -1915.41, 62119.54, 49732.54, 24534.53, 91995.80, 98572.44, 0.00, 0.00, 0.00
156, 77096.26, 121761.21, -1910.54, 62120.14, 49732.94, 24545.48, 91983.20, 98576.51, 0.00, 0.00, 0.00
157, 77092.26, 121746.91, -1919.99, 62114.96, 49713.41, 24527.82, 91988.67, 98575.46, 0.00, 0.00, 0.00
158, 77094.59, 121739.11, -1922.50, 62106.76, 49680.89, 24509.67, 91984.91, 98573.11, 0.00, 0.00, 0.00
159, 77092.82, 121745.50, -1917.51, 62110.55, 49700.55, 24513.67, 91987.98, 98567.79, 0.07, -0.25, 0.97
160, 77094.31, 121755.34, -1911.66, 62115.20, 49694.88, 24522.10, 91998.46, 98567.48, 0.00, 0.00, 0.00
161, 77092.62, 121757.26, -1911.68, 62119.90, 49718.08, 24521.45, 91992.98, 98565.11, 0.00, 0.00, 0.00
162, 77090.23, 121756.63, -1910.07, 62119.90, 49744.52, 24524.54, 91986.92, 98565.52, 0.00, 0.00, 0.00
163, 77089.78, 121753.30, -1908.77, 62113.35, 49728.65, 24518.43, 91996.47, 98563.45, 0.00, 0.00, 0.00
164, 77090.92, 121753.84, -1909.00, 62113.57, 49725.10, 24516.87, 91988.91, 98561.16, 0.00, 0.00, 0.00
165, 77092.10, 121756.45, -1913.85, 62114.11, 49700.11, 24513.69, 91987.77, 98565.45, 0.00, 0.00, 0.00
166, 77090.43, 121756.72, -1921.87, 62106.46, 49682.52, 24510.79, 91984.20, 98567.08, 0.00, 0.00, 0.00
167, 77099.01, 121754.73, -1920.31, 62109.64, 49714.55, 24518.12, 92002.10, 98577.60, 0.00, 0.00, 0.00
168, 77103.88, 121749.99, -1916.57, 62106.51, 49720.43, 24520.20, 91995.17, 98582.37, 0.00, 0.00, 0.00
169, 77099.23, 121743.98, -1926.94, 62090.60, 49705.43, 24511.77, 91977.91, 98574.66, 0.07, -0.25, 0.97
170, 77100.71, 121744.49, -1924.93, 62095.96, 49684.44, 24515.17, 91984.38, 98577.31, 0.00, 0.00, 0.00
171, 77099.41, 121747.11, -1917.44, 62106.82, 49714.05, 24524.45, 92001.79, 98585.52, 0.00, 0.00, 0.00
172, 77096.95, 121748.09, -1920.93, 62114.22, 49721.41, 24520.64, 92001.21, 98583.28, 0.00, 0.00, 0.00
173, 77095.39, 121749.14, -1918.70, 62120.17, 49727.20, 24528.29, 91997.61, 98575.21, 0.00, 0.00, 0.00
174, 77092.80, 121741.99, -1923.39, 62118.31, 49725.72, 24528.27, 91992.85, 98571.66, 0.00, 0.00, 0.00
175, 77089.60, 121746.05, -1928.49, 62111.88, 49722.01, 24532.49, 91985.83, 98566.36, 0.00, 0.00, 0.00
176, 77092.35, 121750.69, -1923.41, 62114.18, 49720.25, 24537.14, 91993.88, 98575.62, 0.00, 0.00, 0.00
177, 77101.18, 121748.70, -1923.55, 62120.43, 49722.37, 24539.26, 92002.10, 98588.06, 0.00, 0.00, 0.00
178, 77105.49, 121744.77, -1925.98, 62122.96, 49722.75, 24538.39, 92005.77, 98588.83, 0.00, 0.00, 0.00
179, 77108.06, 121744.90, -1927.55, 62114.20, 49720.29, 24536.47, 92017.75, 98589.65, 0.07, -0.25, 0.97
180, 77106.99, 121747.13, -1925.25, 62109.89, 49698.52, 24527.22, 91999.91, 98589.83, 0.00, 0.00, 0.00
181, 77106.01, 121745.45, -1927.15, 62107.88, 49712.51, 24526.43, 91989.85, 98589.27, 0.00, 0.00, 0.00
182, 77109.36, 121745.73, -1930.99, 62107.02, 49728.05, 24529.00, 91998.95, 98594.26, 0.00, 0.00, 0.00
183, 77109.11, 121742.48, -1933.72, 62108.43, 49717.34, 24529.34, 92005.23, 98599.24, 0.00, 0.00, 0.00
184, 77106.52, 121739.13, -1928.93, 62114.63, 49700.29, 24526.81, 92001.16, 98595.87, 0.00, 0.00, 0.00
185, 77106.85, 121742.98, -1926.65, 62116.43, 49689.40, 24526.14, 92000.23, 98591.13, 0.00, 0.00, 0.00
186, 77105.58, 121747.63, -1921.15, 62120.03, 49712.94, 24536.56, 92005.16, 98587.38, 0.00, 0.00, 0.00
187, 77103.32, 121748.56, -1920.13, 62122.07, 49745.79, 24548.27, 92005.23, 98586.91, 0.00, 0.00, 0.00
188, 77104.20, 121741.32, -1926.99, 62115.63, 49732.00, 24538.66, 91995.73, 98590.75, 0.00, 0.00, 0.00
189, 77098.79, 121732.83, -1931.17, 62114.78, 49719.69, 24532.25, 91995.38, 98588.16, 0.07, -0.25, 0.97
190, 77097.73, 121736.94, -1928.04, 62122.22, 49712.85, 24536.29, 92001.03, 98584.35, 0.00, 0.00, 0.00
191, 77089.29, 121734.03, -1930.34, 62124.95, 49710.46, 24538.33, 92009.39, 98577.41, 0.00, 0.00, 0.00
192, 77084.80, 121727.28, -1933.56, 62113.17, 49703.77, 24527.78, 91987.06, 98572.82, 0.00, 0.00, 0.00
193, 77088.62, 121725.49, -1927.99, 62111.36, 49707.73, 24522.84, 91984.51, 98570.09, 0.00, 0.00, 0.00
194, 77100.09, 121729.43, -1928.75, 62112.12, 49705.72, 24522.16, 91993.74, 98581.59, 0.00, 0.00, 0.00
195, 77090.83, 121734.28, -1925.58, 62118.20, 49691.93, 24519.53, 91994.88, 98576.98, 0.00, 0.00, 0.00
196, 77082.96, 121738.39, -1925.31, 62120.88, 49730.28, 24531.06, 91999.13, 98569.91, 0.00, 0.00, 0.00
197, 77082.45, 121739.63, -1924.02, 62121.71, 49759.05, 24540.47, 92005.56, 98568.98, 0.00, 0.00, 0.00
198, 77074.98, 121733.32, -1925.63, 62114.09, 49728.67, 24526.90, 91992.94, 98558.02, 0.00, 0.00, 0.00
199, 77070.13, 121733.90, -1920.84, 62120.03, 49730.08, 24527.89, 91987.08, 98555.01, 0.08, -0.26, 0.97
200, 77070.02, 121739.51, -1921.04, 62121.00, 49717.16, 24525.09, 91985.23, 98559.79, 0.00, 0.00, 0.00
201, 77069.57, 121738.57, -1921.18, 62121.62, 49723.04, 24525.25, 91987.38, 98560.86, 0.00, 0.00, 0.00
202, 77072.01, 121730.86, -1928.98, 62114.60, 49718.75, 24518.75, 91982.03, 98553.89, 0.00, 0.00, 0.00
