%OpenBCI Raw EEG Data
%Sample Rate = 250.0 Hz
%First Column = SampleIndex
%Other Columns = EEG data in microvolts followed by Accel Data (in G) interleaved with Aux Data
235, 85441.35, 122908.35, 6430.37, 40392.24, 11457.28, 29869.57, 111170.20, 101683.80, 0.00, 0.00, 0.00
236, 85444.23, 122970.22, 6441.64, 40394.94, 11457.66, 29866.11, 111204.22, 101682.91, 0.07, -0.29, 0.96
237, 85460.13, 123068.01, 6473.62, 40419.20, 11500.04, 29897.33, 111233.52, 101698.98, 0.00, 0.00, 0.00
238, 85449.82, 122987.81, 6455.36, 40409.41, 11476.64, 29893.18, 111282.54, 101692.77, 0.00, 0.00, 0.00
239, 85445.24, 122914.56, 6440.63, 40393.04, 11451.31, 29877.35, 111093.17, 101689.39, 0.00, 0.00, 0.00
240, 85451.25, 122855.89, 6412.51, 40375.99, 11450.60, 29870.60, 111049.48, 101694.16, 0.00, 0.00, 0.00
241, 85460.33, 122974.69, 6442.80, 40398.32, 11459.87, 29865.60, 111108.69, 101701.41, 0.00, 0.00, 0.00
242, 85444.75, 122897.64, 6462.76, 40404.33, 11453.73, 29865.69, 111116.44, 101684.77, 0.00, 0.00, 0.00
243, 85439.90, 122856.90, 6459.27, 40385.73, 11454.73, 29864.68, 111142.50, 101681.79, 0.00, 0.00, 0.00
244, 85452.26, 122923.30, 6467.48, 40408.51, 11455.87, 29872.97, 111238.52, 101693.73, 0.00, 0.00, 0.00
245, 85444.77, 122987.74, 6410.66, 40377.60, 11427.46, 29852.50, 111294.16, 101684.59, 0.00, 0.00, 0.00
246, 85459.01, 123013.80, 6428.56, 40390.67, 11456.81, 29865.86, 111166.11, 101699.38, 0.07, -0.29, 0.97
247, 85460.75, 122965.62, 6437.82, 40398.16, 11473.31, 29866.67, 111061.48, 101698.16, 0.00, 0.00, 0.00
248, 85460.62, 122943.58, 6440.61, 40393.02, 11463.45, 29863.00, 111085.02, 101697.48, 0.00, 0.00, 0.00
249, 85456.84, 122918.61, 6439.18, 40381.35, 11440.47, 29846.91, 111118.36, 101691.78, 0.00, 0.00, 0.00
250, 85471.77, 122935.62, 6454.65, 40399.23, 11442.37, 29858.22, 111143.87, 101702.58, 0.00, 0.00, 0.00
251, 85473.78, 123019.33, 6452.48, 40407.41, 11450.93, 29863.27, 111165.52, 101705.64, 0.00, 0.00, 0.00
252, 85468.11, 122934.48, 6445.51, 40400.46, 11451.63, 29865.42, 111287.34, 101698.40, 0.00, 0.00, 0.00
253, 85478.19, 122991.32, 6463.14, 40411.64, 11472.08, 29887.63, 111381.40, 101710.72, 0.00, 0.00, 0.00
254, 85468.66, 122926.50, 6440.19, 40401.29, 11454.98, 29855.69, 111146.86, 101705.62, 0.00, 0.00, 0.00
255, 85458.96, 122868.52, 6420.87, 40389.58, 11461.66, 29844.58, 111044.00, 101703.32, 0.00, 0.00, 0.00
0, 85469.11, 122937.07, 6442.85, 40408.22, 11472.90, 29869.06, 111068.90, 101715.61, 0.07, -0.28, 0.96
1, 85473.67, 123062.24, 6451.52, 40420.40, 11468.95, 29876.37, 111137.27, 101719.23, 0.00, 0.00, 0.00
2, 85458.90, 122969.52, 6455.32, 40411.68, 11463.18, 29873.31, 111167.96, 101705.89, 0.00, 0.00, 0.00
3, 85454.83, 122897.60, 6446.62, 40404.31, 11468.88, 29883.95, 111199.66, 101699.18, 0.00, 0.00, 0.00
4, 85473.13, 122971.29, 6453.35, 40419.98, 11474.00, 29880.44, 111223.59, 101712.88, 0.00, 0.00, 0.00
5, 85473.94, 123042.17, 6465.15, 40422.82, 11460.37, 29879.30, 111206.79, 101713.91, 0.00, 0.00, 0.00
6, 85456.53, 122988.21, 6452.52, 40408.29, 11443.11, 29869.37, 111186.36, 101698.29, 0.00, 0.00, 0.00
7, 85463.70, 122902.98, 6465.15, 40419.73, 11457.91, 29873.04, 111189.69, 101704.41, 0.00, 0.00, 0.00
8, 85467.50, 122889.13, 6460.75, 40409.83, 11462.49, 29872.39, 111195.41, 101706.65, 0.00, 0.00, 0.00
9, 85471.03, 122944.85, 6447.79, 40404.89, 11456.25, 29856.21, 111061.63, 101706.45, 0.07, -0.28, 0.97
10, 85460.46, 122944.00, 6432.79, 40407.95, 11458.29, 29862.33, 111070.59, 101698.02, 0.00, 0.00, 0.00
11, 85461.65, 122993.84, 6450.91, 40422.55, 11453.95, 29872.95, 111135.80, 101703.20, 0.00, 0.00, 0.00
12, 85464.87, 122974.96, 6458.00, 40426.17, 11466.69, 29908.78, 111166.62, 101706.76, 0.00, 0.00, 0.00
13, 85449.45, 122879.11, 6448.48, 40396.91, 11463.40, 29860.92, 111177.53, 101691.23, 0.00, 0.00, 0.00
14, 85468.06, 122812.95, 6450.47, 40410.52, 11452.83, 29845.23, 111198.30, 101708.10, 0.00, 0.00, 0.00
15, 85473.91, 122848.11, 6447.00, 40417.12, 11469.28, 29872.64, 111211.55, 101712.75, 0.00, 0.00, 0.00
16, 85472.60, 122894.52, 6455.50, 40427.69, 11474.89, 29881.24, 111189.24, 101713.42, 0.00, 0.00, 0.00
17, 85464.33, 122885.95, 6436.21, 40416.47, 11466.09, 29866.62, 111146.91, 101702.36, 0.00, 0.00, 0.00
18, 85461.63, 122905.00, 6425.12, 40410.12, 11461.82, 29860.41, 111181.69, 101696.88, 0.00, 0.00, 0.00
19, 85486.61, 123046.48, 6466.87, 40428.40, 11475.30, 29877.69, 111258.64, 101719.16, 0.08, -0.29, 0.96
20, 85467.23, 122888.01, 6459.07, 40425.43, 11459.83, 29864.57, 111071.98, 101702.78, 0.00, 0.00, 0.00
21, 85465.45, 122879.47, 6437.44, 40415.17, 11453.06, 29862.62, 111108.57, 101701.04, 0.00, 0.00, 0.00
22, 85463.52, 122943.64, 6436.48, 40413.03, 11448.43, 29874.38, 111203.66, 101698.53, 0.00, 0.00, 0.00
23, 85451.99, 122900.46, 6456.75, 40407.86, 11443.58, 29860.16, 111212.40, 101690.91, 0.00, 0.00, 0.00
24, 85463.75, 122854.02, 6488.04, 40416.16, 11453.44, 29852.30, 111163.20, 101705.38, 0.00, 0.00, 0.00
25, 85460.33, 122857.43, 6416.31, 40400.29, 11445.55, 29854.80, 111106.98, 101702.16, 0.00, 0.00, 0.00
26, 85459.14, 122866.30, 6425.59, 40402.14, 11446.28, 29864.10, 111114.23, 101698.89, 0.00, 0.00, 0.00
27, 85466.07, 122966.91, 6451.81, 40417.14, 11453.82, 29873.60, 111146.59, 101706.67, 0.00, 0.00, 0.00
28, 85450.63, 122913.40, 6451.25, 40400.71, 11441.43, 29848.65, 111125.96, 101691.74, 0.00, 0.00, 0.00
29, 85464.20, 122880.97, 6488.42, 40424.11, 11446.24, 29865.08, 111144.67, 101704.52, 0.08, -0.28, 0.96
30, 85470.03, 122902.09, 6429.66, 40405.56, 11453.53, 29862.98, 111183.52, 101709.69, 0.00, 0.00, 0.00
31, 85463.48, 122932.42, 6411.11, 40401.94, 11440.27, 29851.22, 111264.70, 101701.95, 0.00, 0.00, 0.00
32, 85465.38, 122961.26, 6441.08, 40410.57, 11447.76, 29855.16, 111150.93, 101702.53, 0.00, 0.00, 0.00
33, 85468.59, 122927.15, 6438.06, 40408.89, 11444.38, 29856.90, 111077.51, 101705.02, 0.00, 0.00, 0.00
34, 85472.66, 122868.92, 6437.35, 40411.02, 11439.98, 29860.72, 111153.30, 101709.76, 0.00, 0.00, 0.00
35, 85460.95, 122840.76, 6441.46, 40414.46, 11451.80, 29865.04, 111242.41, 101698.06, 0.00, 0.00, 0.00
36, 85451.23, 122885.95, 6444.95, 40408.76, 11433.90, 29856.81, 111140.13, 101682.75, 0.00, 0.00, 0.00
37, 85454.43, 122917.00, 6422.37, 40402.77, 11415.73, 29856.05, 111135.44, 101684.30, 0.00, 0.00, 0.00
38, 85452.70, 122910.90, 6437.79, 40404.04, 11440.49, 29863.56, 111254.15, 101683.34, 0.00, 0.00, 0.00
39, 85454.31, 122901.24, 6464.86, 40412.60, 11468.55, 29883.88, 111139.02, 101690.11, 0.07, -0.28, 0.96
40, 85469.27, 122929.02, 6414.03, 40399.44, 11455.72, 29853.44, 111098.13, 101706.47, 0.00, 0.00, 0.00
41, 85463.39, 122963.60, 6419.73, 40398.65, 11447.94, 29842.46, 111075.67, 101698.89, 0.00, 0.00, 0.00
42, 85459.10, 123052.92, 6428.76, 40408.29, 11439.67, 29860.28, 111100.68, 101693.37, 0.00, 0.00, 0.00
43, 85478.50, 123056.79, 6459.14, 40435.82, 11460.01, 29884.48, 111158.44, 101712.68, 0.00, 0.00, 0.00
44, 85468.33, 122821.65, 6462.81, 40420.85, 11451.29, 29844.96, 111223.23, 101704.03, 0.00, 0.00, 0.00
45, 85464.95, 122796.26, 6438.06, 40406.95, 11451.09, 29856.23, 111282.52, 101700.21, 0.00, 0.00, 0.00
46, 85477.72, 122879.63, 6420.14, 40410.12, 11452.16, 29863.83, 111250.93, 101710.80, 0.00, 0.00, 0.00
47, 85476.94, 122951.58, 6429.43, 40410.75, 11445.03, 29864.81, 111116.77, 101706.73, 0.00, 0.00, 0.00
48, 85469.29, 122907.45, 6427.33, 40403.30, 11420.76, 29843.47, 111067.34, 101698.83, 0.00, 0.00, 0.00
49, 85473.20, 122968.05, 6450.09, 40416.73, 11444.90, 29854.84, 111130.99, 101704.95, 0.07, -0.28, 0.96
50, 85480.80, 123031.98, 6481.22, 40430.13, 11449.30, 29858.11, 111168.14, 101710.94, 0.00, 0.00, 0.00
51, 85463.59, 122954.69, 6445.15, 40408.64, 11433.86, 29856.61, 111099.55, 101691.90, 0.00, 0.00, 0.00
52, 85455.63, 122811.08, 6403.10, 40390.47, 11429.07, 29843.27, 111125.54, 101685.08, 0.00, 0.00, 0.00
53, 85476.76, 122907.57, 6445.24, 40425.27, 11463.18, 29861.24, 111211.52, 101706.89, 0.00, 0.00, 0.00
54, 85482.92, 123045.37, 6436.83, 40427.66, 11465.13, 29868.99, 111188.99, 101711.23, 0.00, 0.00, 0.00
55, 85460.57, 122920.76, 6420.27, 40396.44, 11436.29, 29830.46, 111199.73, 101685.48, 0.00, 0.00, 0.00
56, 85475.02, 122958.04, 6426.77, 40404.11, 11450.02, 29852.81, 111230.41, 101699.05, 0.00, 0.00, 0.00
57, 85476.45, 122888.70, 6439.87, 40412.42, 11450.93, 29856.81, 111139.84, 101701.87, 0.00, 0.00, 0.00
58, 85479.62, 122835.70, 6437.03, 40414.23, 11440.11, 29867.03, 111132.18, 101702.11, 0.00, 0.00, 0.00
59, 85483.53, 122873.81, 6447.34, 40423.00, 11458.04, 29875.68, 111090.24, 101704.32, 0.07, -0.29, 0.96
60, 85484.45, 122956.18, 6444.79, 40423.78, 11444.99, 29842.17, 111202.70, 101705.95, 0.00, 0.00, 0.00
61, 85480.16, 122968.99, 6440.74, 40417.16, 11433.43, 29836.45, 111162.80, 101704.73, 0.00, 0.00, 0.00
62, 85473.76, 122937.16, 6439.09, 40418.52, 11436.45, 29847.63, 111136.94, 101698.00, 0.00, 0.00, 0.00
63, 85476.33, 122977.55, 6446.15, 40424.04, 11443.24, 29860.77, 111118.85, 101697.13, 0.00, 0.00, 0.00
64, 85470.19, 122954.82, 6457.35, 40423.08, 11440.36, 29858.55, 111166.29, 101689.02, 0.00, 0.00, 0.00
65, 85477.47, 122982.04, 6472.71, 40437.07, 11461.37, 29859.16, 111278.34, 101697.55, 0.00, 0.00, 0.00
66, 85480.66, 122945.07, 6450.40, 40430.73, 11454.15, 29856.03, 111160.32, 101702.24, 0.00, 0.00, 0.00
67, 85474.72, 122867.83, 6434.89, 40415.73, 11446.01, 29858.76, 111071.18, 101697.15, 0.00, 0.00, 0.00
68, 85472.76, 122894.54, 6434.33, 40419.13, 11437.25, 29854.93, 111118.99, 101699.18, 0.00, 0.00, 0.00
69, 85482.30, 123033.27, 6424.34, 40418.23, 11443.40, 29861.17, 111199.41, 101707.77, 0.07, -0.29, 0.96
70, 85462.48, 122866.75, 6414.08, 40406.86, 11429.43, 29855.47, 111169.73, 101682.80, 0.00, 0.00, 0.00
71, 85466.83, 122898.29, 6430.44, 40418.57, 11440.25, 29845.93, 111172.86, 101687.67, 0.00, 0.00, 0.00
72, 85490.13, 123048.02, 6457.42, 40435.76, 11446.13, 29853.68, 111230.62, 101709.91, 0.00, 0.00, 0.00
73, 85494.33, 123055.31, 6460.08, 40430.91, 11459.47, 29864.12, 111203.81, 101713.91, 0.00, 0.00, 0.00
74, 85468.95, 122873.19, 6455.83, 40410.79, 11429.09, 29840.92, 111063.60, 101687.38, 0.00, 0.00, 0.00
75, 85459.97, 122759.62, 6434.28, 40414.57, 11411.39, 29834.53, 111082.51, 101681.66, 0.00, 0.00, 0.00
76, 85479.28, 122852.78, 6431.56, 40429.12, 11433.83, 29857.21, 111245.41, 101703.41, 0.00, 0.00, 0.00
77, 85484.53, 122918.59, 6420.49, 40425.74, 11440.72, 29857.50, 111138.73, 101710.54, 0.00, 0.00, 0.00
78, 85481.90, 122932.29, 6436.99, 40435.78, 11462.51, 29863.58, 111103.95, 101707.74, 0.00, 0.00, 0.00
79, 85480.60, 122953.43, 6432.56, 40433.79, 11454.06, 29866.02, 111170.24, 101703.25, 0.07, -0.28, 0.96
80, 85477.18, 122975.96, 6431.69, 40424.29, 11455.78, 29868.23, 111196.77, 101697.33, 0.00, 0.00, 0.00
81, 85487.09, 123034.08, 6447.34, 40435.38, 11466.96, 29868.84, 111188.55, 101707.81, 0.00, 0.00, 0.00
82, 85489.85, 122987.07, 6452.50, 40443.51, 11456.81, 29867.05, 111155.67, 101710.88, 0.00, 0.00, 0.00
83, 85478.21, 122897.38, 6416.94, 40416.29, 11433.45, 29858.55, 111130.37, 101698.65, 0.00, 0.00, 0.00
84, 85471.97, 122903.41, 6401.18, 40412.54, 11416.85, 29830.14, 111139.20, 101688.66, 0.00, 0.00, 0.00
85, 85478.84, 122924.60, 6418.50, 40431.20, 11435.15, 29849.70, 111154.59, 101693.02, 0.00, 0.00, 0.00
86, 85482.21, 122941.05, 6464.26, 40449.73, 11448.07, 29864.92, 111199.30, 101698.11, 0.00, 0.00, 0.00
87, 85476.94, 122908.95, 6444.77, 40437.16, 11442.48, 29849.14, 111207.84, 101693.44, 0.00, 0.00, 0.00
88, 85478.77, 122913.78, 6395.75, 40411.66, 11426.05, 29833.95, 111102.70, 101696.16, 0.00, 0.00, 0.00
89, 85476.55, 122959.40, 6415.02, 40424.18, 11435.67, 29849.17, 111091.36, 101697.82, 0.08, -0.28, 0.97
90, 85463.97, 122893.93, 6391.68, 40405.43, 11424.85, 29845.30, 111153.14, 101685.93, 0.00, 0.00, 0.00
91, 85472.64, 122925.91, 6406.99, 40414.10, 11425.45, 29841.90, 111239.60, 101694.16, 0.00, 0.00, 0.00
92, 85484.47, 122983.12, 6427.31, 40424.58, 11425.70, 29855.51, 111225.27, 101701.87, 0.00, 0.00, 0.00
93, 85481.56, 122870.02, 6421.16, 40418.30, 11420.04, 29850.15, 111090.83, 101694.47, 0.00, 0.00, 0.00
94, 85474.50, 122880.37, 6415.08, 40417.63, 11417.23, 29833.63, 111083.25, 101687.52, 0.00, 0.00, 0.00
95, 85478.21, 122980.63, 6418.50, 40416.42, 11433.14, 29850.26, 111127.10, 101692.05, 0.00, 0.00, 0.00
96, 85483.80, 122958.98, 6439.02, 40423.66, 11431.67, 29858.24, 111158.15, 101699.45, 0.00, 0.00, 0.00
97, 85482.41, 122952.02, 6457.60, 40430.84, 11398.99, 29835.13, 111147.11, 101699.14, 0.00, 0.00, 0.00
98, 85478.34, 122926.56, 6414.68, 40406.16, 11421.20, 29846.02, 111130.79, 101693.23, 0.00, 0.00, 0.00
99, 85471.62, 122883.80, 6388.49, 40405.76, 11444.56, 29837.77, 111181.66, 101687.45, 0.08, -0.28, 0.97
100, 85456.53, 122908.20, 6359.85, 40389.06, 11419.42, 29814.01, 111170.06, 101672.45, 0.00, 0.00, 0.00
101, 85495.84, 122990.89, 6410.37, 40429.61, 11445.46, 29853.30, 111329.23, 101712.34, 0.00, 0.00, 0.00
102, 85490.32, 122957.63, 6406.37, 40422.48, 11436.45, 29852.74, 111204.57, 101710.34, 0.00, 0.00, 0.00
103, 85488.47, 122925.13, 6406.01, 40420.00, 11436.52, 29850.24, 111003.50, 101709.17, 0.00, 0.00, 0.00
104, 85484.78, 122938.39, 6413.25, 40419.71, 11429.92, 29841.23, 111103.55, 101701.66, 0.00, 0.00, 0.00
105, 85479.08, 122987.36, 6429.14, 40435.06, 11430.26, 29850.46, 111144.29, 101697.73, 0.00, 0.00, 0.00
106, 85493.32, 123021.25, 6424.61, 40439.64, 11431.93, 29857.55, 111138.21, 101710.05, 0.00, 0.00, 0.00
107, 85475.51, 122857.72, 6394.86, 40401.29, 11403.21, 29828.89, 111143.77, 101687.54, 0.00, 0.00, 0.00
108, 85469.00, 122795.88, 6390.39, 40401.85, 11405.38, 29836.70, 111190.67, 101685.01, 0.00, 0.00, 0.00
109, 85472.40, 122850.91, 6420.63, 40421.72, 11428.36, 29858.24, 111242.23, 101688.34, 0.08, -0.28, 0.97
110, 85475.88, 122938.13, 6400.94, 40423.69, 11416.02, 29832.51, 111211.97, 101691.07, 0.00, 0.00, 0.00
111, 85473.90, 122896.73, 6389.92, 40417.94, 11412.26, 29831.04, 111075.29, 101692.59, 0.00, 0.00, 0.00
112, 85462.67, 122936.02, 6397.09, 40408.93, 11415.37, 29828.29, 111050.33, 101680.23, 0.00, 0.00, 0.00
113, 85476.40, 122980.45, 6420.92, 40430.01, 11429.14, 29839.60, 111103.55, 101694.16, 0.00, 0.00, 0.00
114, 85485.38, 123008.20, 6391.82, 40419.86, 11437.41, 29847.58, 111143.95, 101699.38, 0.00, 0.00, 0.00
115, 85479.15, 122933.31, 6396.60, 40422.91, 11419.19, 29836.45, 111178.89, 101693.37, 0.00, 0.00, 0.00
116, 85474.59, 122911.21, 6412.69, 40427.31, 11398.18, 29834.82, 111297.24, 101688.74, 0.00, 0.00, 0.00
117, 85476.53, 122909.84, 6472.86, 40446.29, 11424.16, 29853.28, 111234.66, 101690.33, 0.00, 0.00, 0.00
118, 85474.19, 122893.95, 6432.36, 40439.24, 11430.48, 29844.90, 111091.77, 101690.51, 0.00, 0.00, 0.00
119, 85482.74, 122970.55, 6369.93, 40427.15, 11433.79, 29837.59, 111118.54, 101698.51, 0.07, -0.28, 0.97
120, 85460.98, 122954.22, 6364.52, 40409.47, 11406.99, 29821.03, 111178.89, 101674.57, 0.00, 0.00, 0.00
121, 85469.78, 122963.73, 6397.92, 40423.17, 11411.37, 29827.33, 111222.59, 101681.01, 0.00, 0.00, 0.00
122, 85471.23, 122873.30, 6417.21, 40427.11, 11394.96, 29818.43, 111062.93, 101686.11, 0.00, 0.00, 0.00
123, 85474.74, 122907.86, 6400.96, 40421.77, 11399.37, 29831.11, 111058.20, 101691.80, 0.00, 0.00, 0.00
124, 85471.93, 122965.13, 6395.48, 40423.93, 11427.13, 29835.17, 111097.42, 101689.34, 0.00, 0.00, 0.00
125, 85464.71, 122895.79, 6394.81, 40424.94, 11432.29, 29832.89, 111126.21, 101683.98, 0.00, 0.00, 0.00
126, 85472.48, 122951.69, 6393.92, 40424.83, 11427.91, 29843.49, 111169.66, 101691.43, 0.00, 0.00, 0.00
127, 85472.48, 122904.82, 6381.83, 40417.63, 11407.84, 29831.78, 111216.95, 101692.61, 0.00, 0.00, 0.00
128, 85470.90, 122869.93, 6381.42, 40415.08, 11399.66, 29817.92, 111209.31, 101691.88, 0.00, 0.00, 0.00
129, 85470.34, 122928.76, 6374.16, 40408.40, 11401.24, 29818.63, 111187.43, 101688.50, 0.08, -0.28, 0.97
130, 85471.37, 122994.90, 6380.26, 40406.39, 11403.50, 29820.02, 111177.15, 101688.77, 0.00, 0.00, 0.00
131, 85475.48, 123030.86, 6394.05, 40423.96, 11404.11, 29827.13, 111117.09, 101692.32, 0.00, 0.00, 0.00
132, 85460.80, 123021.52, 6378.16, 40411.13, 11377.17, 29813.56, 111163.55, 101677.05, 0.00, 0.00, 0.00
133, 85462.52, 122794.24, 6385.96, 40404.02, 11387.59, 29813.43, 111086.40, 101677.70, 0.00, 0.00, 0.00
134, 85472.64, 122828.13, 6405.85, 40427.46, 11396.68, 29836.81, 111105.00, 101685.39, 0.00, 0.00, 0.00
135, 85471.84, 122872.20, 6350.11, 40383.36, 11370.91, 29820.87, 111201.84, 101681.70, 0.00, 0.00, 0.00
136, 85484.49, 123029.67, 6377.02, 40419.04, 11398.34, 29828.54, 111208.82, 101695.36, 0.00, 0.00, 0.00
137, 85487.06, 123117.30, 6396.87, 40465.66, 11440.79, 29839.73, 111191.23, 101695.88, 0.00, 0.00, 0.00
138, 85465.55, 122870.80, 6359.65, 40425.95, 11409.18, 29810.83, 111071.05, 101667.09, 0.00, 0.00, 0.00
139, 85483.93, 122857.92, 6363.27, 40435.85, 11411.77, 29830.68, 111070.53, 101687.02, 0.07, -0.28, 0.96
140, 85467.41, 122828.29, 6360.50, 40418.14, 11391.52, 29818.66, 111145.81, 101671.29, 0.00, 0.00, 0.00
141, 85467.21, 122852.56, 6356.70, 40409.34, 11390.02, 29817.16, 111207.93, 101669.66, 0.00, 0.00, 0.00
142, 85484.20, 122938.01, 6381.89, 40430.15, 11401.94, 29819.66, 111189.40, 101689.48, 0.00, 0.00, 0.00
143, 85463.45, 122914.43, 6416.83, 40433.79, 11413.78, 29829.92, 111129.70, 101667.71, 0.00, 0.00, 0.00
144, 85471.48, 122920.51, 6418.15, 40437.28, 11412.35, 29820.09, 111126.43, 101675.71, 0.00, 0.00, 0.00
145, 85483.08, 122943.66, 6328.40, 40414.25, 11397.82, 29812.11, 111063.83, 101684.20, 0.00, 0.00, 0.00
146, 85490.39, 123040.29, 6336.12, 40419.57, 11402.36, 29830.14, 111073.15, 101693.64, 0.00, 0.00, 0.00
147, 85482.55, 122993.91, 6344.61, 40419.89, 11387.59, 29814.19, 111113.40, 101686.77, 0.00, 0.00, 0.00
148, 85472.69, 122853.32, 6339.76, 40410.81, 11388.84, 29813.56, 111136.65, 101676.07, 0.00, 0.00, 0.00
149, 85463.59, 122904.55, 6309.90, 40400.80, 11380.10, 29807.75, 111202.63, 101667.30, 0.07, -0.28, 0.96
150, 85475.73, 122995.70, 6322.59, 40417.18, 11380.12, 29826.97, 111153.66, 101681.79, 0.00, 0.00, 0.00
151, 85482.41, 122863.47, 6334.22, 40420.29, 11383.39, 29824.58, 111110.32, 101687.88, 0.00, 0.00, 0.00
152, 85471.16, 122825.73, 6306.95, 40405.83, 11366.15, 29794.43, 111173.13, 101675.71, 0.00, 0.00, 0.00
153, 85464.82, 122837.67, 6311.95, 40415.28, 11395.23, 29798.27, 111112.64, 101666.75, 0.00, 0.00, 0.00
154, 85456.70, 122874.09, 6339.16, 40421.79, 11396.10, 29808.75, 111089.53, 101657.85, 0.00, 0.00, 0.00
155, 85468.27, 122975.90, 6318.32, 40422.86, 11384.77, 29820.04, 111158.44, 101670.55, 0.00, 0.00, 0.00
156, 85479.37, 123105.83, 6303.64, 40411.82, 11390.69, 29822.23, 111208.40, 101679.22, 0.00, 0.00, 0.00
157, 85468.02, 122962.82, 6284.39, 40384.41, 11393.38, 29810.65, 111090.54, 101669.56, 0.00, 0.00, 0.00
158, 85465.67, 122802.24, 6290.97, 40407.08, 11385.60, 29816.04, 111176.37, 101666.86, 0.00, 0.00, 0.00
159, 85470.61, 122861.97, 6326.64, 40463.00, 11410.81, 29825.63, 111137.97, 101669.59, 0.07, -0.28, 0.97
160, 85478.03, 122869.23, 6326.46, 40458.11, 11408.53, 29824.38, 111095.59, 101676.47, 0.00, 0.00, 0.00
161, 85473.88, 122925.43, 6292.26, 40451.18, 11405.38, 29822.72, 111135.91, 101667.45, 0.00, 0.00, 0.00
162, 85474.54, 122981.93, 6305.27, 40446.29, 11388.28, 29818.81, 111128.80, 101668.90, 0.00, 0.00, 0.00
163, 85467.14, 122987.45, 6313.12, 40445.21, 11397.13, 29808.46, 111088.88, 101665.79, 0.00, 0.00, 0.00
164, 85456.69, 122871.13, 6300.13, 40434.15, 11404.96, 29812.64, 111092.01, 101655.44, 0.00, 0.00, 0.00
165, 85459.14, 122893.38, 6331.87, 40444.50, 11408.84, 29824.71, 111117.52, 101659.51, 0.00, 0.00, 0.00
166, 85458.72, 123010.23, 6335.11, 40451.87, 11410.74, 29820.45, 111148.54, 101659.62, 0.00, 0.00, 0.00
167, 85455.84, 123037.52, 6288.28, 40436.18, 11403.95, 29823.78, 111220.78, 101658.05, 0.00, 0.00, 0.00
168, 85440.52, 122863.47, 6278.81, 40419.04, 11378.29, 29808.31, 111151.27, 101644.89, 0.00, 0.00, 0.00
169, 85444.99, 122824.38, 6283.88, 40419.57, 11388.50, 29807.50, 111107.99, 101646.86, 0.07, -0.28, 0.97
170, 85450.13, 122844.98, 6282.20, 40411.59, 11383.01, 29800.60, 111303.95, 101645.27, 0.00, 0.00, 0.00
171, 85462.49, 122972.56, 6297.18, 40435.38, 11394.54, 29816.35, 111230.19, 101659.40, 0.00, 0.00, 0.00
172, 85453.98, 122990.11, 6302.05, 40437.68, 11402.32, 29816.29, 110996.66, 101651.69, 0.00, 0.00, 0.00
173, 85473.27, 122960.18, 6320.51, 40449.19, 11408.31, 29829.38, 111064.32, 101669.92, 0.00, 0.00, 0.00
174, 85479.80, 122951.00, 6366.96, 40462.02, 11415.84, 29845.81, 111084.45, 101678.28, 0.00, 0.00, 0.00
175, 85456.46, 122937.63, 6356.86, 40451.76, 11412.22, 29832.00, 111093.55, 101650.88, 0.00, 0.00, 0.00
176, 85451.86, 122889.46, 6291.59, 40433.97, 11400.57, 29844.09, 111175.07, 101642.03, 0.00, 0.00, 0.00
177, 85457.55, 122845.54, 6263.18, 40433.84, 11399.68, 29811.37, 111143.55, 101647.59, 0.00, 0.00, 0.00
178, 85469.55, 122864.98, 6244.94, 40416.02, 11382.02, 29788.97, 111115.19, 101661.27, 0.00, 0.00, 0.00
179, 85466.85, 122933.52, 6264.75, 40422.30, 11374.58, 29802.65, 111133.96, 101657.88, 0.08, -0.28, 0.97
180, 85461.69, 123058.77, 6320.98, 40446.06, 11403.75, 29840.45, 111132.00, 101652.94, 0.00, 0.00, 0.00
181, 85462.92, 123063.36, 6315.26, 40451.56, 11396.60, 29809.89, 111151.35, 101658.95, 0.00, 0.00, 0.00
182, 85447.14, 122903.81, 6291.32, 40431.53, 11392.64, 29800.91, 111221.38, 101641.63, 0.00, 0.00, 0.00
183, 85459.08, 122823.57, 6288.75, 40441.86, 11394.81, 29812.96, 111170.40, 101648.35, 0.00, 0.00, 0.00
184, 85471.08, 122892.75, 6278.02, 40440.52, 11394.02, 29819.26, 111067.80, 101657.18, 0.00, 0.00, 0.00
185, 85461.87, 122853.97, 6286.45, 40435.64, 11412.08, 29821.23, 111081.75, 101651.28, 0.00, 0.00, 0.00
186, 85473.98, 122918.19, 6308.38, 40451.67, 11426.57, 29847.49, 111157.30, 101668.74, 0.00, 0.00, 0.00
187, 85464.98, 122914.95, 6281.60, 40440.41, 11404.35, 29826.41, 111135.46, 101660.52, 0.00, 0.00, 0.00
188, 85456.95, 122957.81, 6284.30, 40431.11, 11398.90, 29816.31, 111129.18, 101652.87, 0.00, 0.00, 0.00
189, 85466.09, 123007.75, 6305.56, 40445.77, 11416.91, 29826.86, 111168.77, 101661.50, 0.08, -0.28, 0.96
190, 85463.66, 122913.53, 6290.32, 40443.04, 11399.70, 29822.32, 111228.85, 101656.20, 0.00, 0.00, 0.00
191, 85454.83, 122886.20, 6274.22, 40435.96, 11383.14, 29827.60, 111232.29, 101649.70, 0.00, 0.00, 0.00
192, 85458.12, 122950.66, 6295.06, 40442.17, 11389.33, 29835.73, 111132.24, 101658.88, 0.00, 0.00, 0.00
193, 85467.23, 122908.20, 6269.49, 40416.40, 11362.84, 29812.69, 111079.45, 101674.46, 0.00, 0.00, 0.00
194, 85477.23, 122896.03, 6266.42, 40420.43, 11380.59, 29811.57, 111112.95, 101678.64, 0.00, 0.00, 0.00
195, 85457.34, 122930.81, 6283.81, 40454.06, 11418.99, 29828.16, 111135.66, 101643.82, 0.00, 0.00, 0.00
196, 85453.35, 122940.47, 6301.07, 40463.05, 11427.75, 29856.74, 111203.19, 101640.84, 0.00, 0.00, 0.00
197, 85445.04, 122959.80, 6309.32, 40459.32, 11402.05, 29831.38, 111152.61, 101633.73, 0.00, 0.00, 0.00
198, 85428.41, 122932.20, 6268.10, 40434.86, 11382.54, 29803.32, 111095.97, 101608.32, 0.00, 0.00, 0.00
199, 85434.00, 122955.24, 6262.09, 40429.23, 11375.67, 29801.22, 111121.94, 101607.95, 0.08, -0.28, 0.96
200, 85437.73, 122952.90, 6268.95, 40439.56, 11385.53, 29808.15, 111149.19, 101617.77, 0.00, 0.00, 0.00
201, 85426.15, 122944.89, 6272.66, 40433.43, 11389.87, 29814.61, 111224.83, 101605.02, 0.00, 0.00, 0.00
202, 85424.27, 122962.35, 6271.97, 40446.82, 11407.50, 29817.63, 111223.53, 101600.32, 0.00, 0.00, 0.00
203, 85420.61, 122892.13, 6265.22, 40445.52, 11393.13, 29813.38, 111095.68, 101595.23, 0.00, 0.00, 0.00
204, 85421.23, 122906.38, 6267.85, 40444.61, 11390.25, 29809.25, 111114.23, 101591.20, 0.00, 0.00, 0.00
205, 85414.64, 122934.34, 6287.08, 40455.63, 11385.80, 29811.10, 111125.63, 101577.08, 0.00, 0.00, 0.00
206, 85392.02, 122972.55, 6263.88, 40446.13, 11380.95, 29804.98, 111129.49, 101551.82, 0.00, 0.00, 0.00
207, 85390.10, 122877.05, 6262.42, 40430.48, 11374.87, 29794.61, 111206.01, 101553.56, 0.00, 0.00, 0.00
208, 85371.28, 122819.44, 6310.05, 40450.58, 11374.71, 29798.72, 111138.34, 101535.01, 0.00, 0.00, 0.00
209, 85376.59, 122961.55, 6265.15, 40432.18, 11381.89, 29805.18, 111085.73, 101535.66, 0.08, -0.28, 0.96
210, 85384.84, 122975.63, 6237.99, 40423.82, 11377.33, 29815.79, 111063.58, 101539.45, 0.00, 0.00, 0.00
211, 85378.25, 122914.90, 6240.12, 40427.26, 11370.64, 29799.70, 111076.95, 101534.90, 0.00, 0.00, 0.00
212, 85370.56, 122899.68, 6249.57, 40427.80, 11369.10, 29774.85, 111081.05, 101525.84, 0.00, 0.00, 0.00
213, 85342.96, 122878.58, 6240.29, 40405.89, 11337.16, 29752.58, 111101.76, 101491.91, 0.00, 0.00, 0.00
214, 85366.30, 122900.30, 6252.77, 40425.25, 11357.30, 29768.92, 111107.59, 101516.59, 0.00, 0.00, 0.00
215, 85376.93, 122902.09, 6271.12, 40442.04, 11376.72, 29798.38, 111171.91, 101530.20, 0.00, 0.00, 0.00
216, 85379.48, 122947.46, 6258.78, 40448.88, 11378.51, 29790.13, 111146.08, 101528.64, 0.00, 0.00, 0.00
217, 85372.44, 122966.80, 6259.34, 40445.32, 11369.91, 29783.77, 111014.27, 101524.03, 0.00, 0.00, 0.00
218, 85376.27, 122936.47, 6273.11, 40439.13, 11369.73, 29779.34, 111126.27, 101525.11, 0.00, 0.00, 0.00
219, 85375.88, 122859.73, 6273.62, 40442.29, 11365.97, 29782.22, 111108.15, 101525.51, 0.07, -0.28, 0.96
220, 85368.64, 122855.71, 6234.21, 40433.43, 11349.68, 29774.80, 111021.02, 101522.98, 0.00, 0.00, 0.00
221, 85372.51, 122896.81, 6246.64, 40447.40, 11365.66, 29785.04, 111032.48, 101525.93, 0.00, 0.00, 0.00
222, 85371.50, 122971.38, 6267.05, 40447.02, 11363.98, 29773.82, 111064.32, 101521.69, 0.00, 0.00, 0.00
223, 85380.17, 123024.35, 6270.60, 40442.20, 11360.34, 29776.72, 111113.80, 101528.28, 0.00, 0.00, 0.00
224, 85387.66, 122890.73, 6260.72, 40445.12, 11363.20, 29778.13, 111153.34, 101537.02, 0.00, 0.00, 0.00
225, 85392.67, 122816.48, 6235.26, 40418.23, 11361.41, 29773.15, 111034.97, 101540.82, 0.00, 0.00, 0.00
226, 85400.31, 122866.44, 6272.99, 40451.14, 11374.76, 29801.56, 111123.66, 101549.07, 0.00, 0.00, 0.00
227, 85396.47, 123008.28, 6270.40, 40465.84, 11373.30, 29799.54, 111140.40, 101548.91, 0.00, 0.00, 0.00
228, 85393.61, 123019.46, 6263.70, 40455.83, 11372.77, 29771.70, 111069.41, 101546.97, 0.00, 0.00, 0.00
229, 85398.81, 122842.91, 6233.10, 40437.01, 11369.86, 29768.25, 111050.70, 101549.23, 0.07, -0.28, 0.96
230, 85407.98, 122839.33, 6240.96, 40426.50, 11347.89, 29772.84, 111086.73, 101559.02, 0.00, 0.00, 0.00
231, 85416.12, 122920.35, 6244.65, 40431.53, 11362.40, 29782.51, 111077.23, 101565.12, 0.00, 0.00, 0.00
232, 85419.05, 122941.56, 6255.05, 40453.04, 11368.28, 29789.42, 111090.05, 101568.65, 0.00, 0.00, 0.00
233, 85411.63, 122890.20, 6242.13, 40445.52, 11371.00, 29784.17, 111113.55, 101565.56, 0.00, 0.00, 0.00
234, 85418.95, 122904.39, 6250.67, 40441.10, 11369.97, 29785.75, 111130.61, 101571.20, 0.00, 0.00, 0.00
235, 85421.63, 122965.21, 6251.07, 40440.85, 11365.17, 29792.26, 111187.09, 101573.07, 0.00, 0.00, 0.00
236, 85408.60, 123000.91, 6242.53, 40423.66, 11356.34, 29781.82, 111203.37, 101562.88, 0.00, 0.00, 0.00
237, 85398.84, 122923.37, 6241.03, 40429.50, 11353.86, 29765.88, 111018.49, 101552.27, 0.00, 0.00, 0.00
238, 85417.73, 122967.65, 6256.54, 40451.98, 11355.49, 29789.58, 111045.30, 101571.22, 0.00, 0.00, 0.00
239, 85410.80, 122880.63, 6251.87, 40441.75, 11343.69, 29774.67, 111040.73, 101563.73, 0.08, -0.29, 0.96
240, 85415.76, 122853.52, 6256.54, 40453.15, 11361.73, 29772.61, 111062.30, 101567.98, 0.00, 0.00, 0.00
241, 85419.94, 122917.89, 6244.32, 40443.56, 11370.73, 29780.90, 111160.95, 101570.99, 0.00, 0.00, 0.00
242, 85414.30, 122910.12, 6252.41, 40440.43, 11365.26, 29777.02, 111111.91, 101567.98, 0.00, 0.00, 0.00
243, 85424.59, 122995.43, 6253.01, 40444.90, 11357.46, 29773.21, 111025.72, 101579.69, 0.00, 0.00, 0.00
244, 85409.95, 122884.66, 6246.53, 40442.66, 11345.86, 29765.06, 111024.59, 101566.63, 0.00, 0.00, 0.00
245, 85410.77, 122889.73, 6247.18, 40435.15, 11337.14, 29755.07, 111043.22, 101562.16, 0.00, 0.00, 0.00
246, 85420.16, 122887.41, 6241.88, 40434.91, 11343.35, 29769.62, 111092.28, 101567.40, 0.00, 0.00, 0.00
247, 85423.54, 122908.77, 6224.49, 40438.64, 11351.62, 29779.29, 111125.18, 101569.97, 0.00, 0.00, 0.00
248, 85419.18, 122978.00, 6228.56, 40426.93, 11350.10, 29777.33, 111130.92, 101568.24, 0.00, 0.00, 0.00
249, 85423.96, 122967.41, 6252.70, 40421.63, 11352.29, 29785.91, 111150.02, 101574.23, 0.08, -0.29, 0.96
250, 85421.86, 122970.48, 6276.59, 40459.96, 11352.14, 29758.24, 111139.82, 101573.38, 0.00, 0.00, 0.00
251, 85438.73, 123019.33, 6240.85, 40453.39, 11362.20, 29772.57, 111103.79, 101591.70, 0.00, 0.00, 0.00
252, 85417.01, 122829.47, 6216.35, 40429.99, 11329.05, 29751.76, 111064.98, 101570.26, 0.00, 0.00, 0.00
253, 85414.23, 122850.10, 6223.22, 40422.86, 11328.31, 29749.52, 111029.47, 101566.03, 0.00, 0.00, 0.00
254, 85414.13, 122872.59, 6223.60, 40408.44, 11347.94, 29756.83, 111059.29, 101562.21, 0.00, 0.00, 0.00
255, 85423.91, 122913.18, 6239.02, 40450.87, 11373.13, 29773.08, 111129.02, 101570.73, 0.00, 0.00, 0.00
0, 85423.24, 122939.69, 6250.20, 40454.06, 11366.17, 29774.40, 111088.30, 101573.16, 0.00, 0.00, 0.00
1, 85415.18, 122945.34, 6280.75, 40451.36, 11337.14, 29765.77, 111078.53, 101566.08, 0.00, 0.00, 0.00
2, 85419.18, 122945.16, 6271.14, 40454.27, 11330.19, 29777.98, 111139.27, 101569.68, 0.00, 0.00, 0.00
3, 85430.09, 122930.41, 6243.00, 40448.92, 11376.68, 29812.51, 111231.53, 101580.83, 0.07, -0.28, 0.96
4, 85434.16, 122952.34, 6226.97, 40439.91, 11381.28, 29784.62, 111098.11, 101584.49, 0.00, 0.00, 0.00
5, 85428.38, 122992.44, 6234.17, 40439.36, 11371.63, 29784.14, 111038.12, 101575.87, 0.00, 0.00, 0.00
6, 85418.22, 122901.53, 6220.85, 40425.07, 11359.67, 29752.21, 111025.60, 101567.62, 0.00, 0.00, 0.00
7, 85410.39, 122921.56, 6217.05, 40425.54, 11340.98, 29746.55, 111035.33, 101562.84, 0.00, 0.00, 0.00
8, 85426.04, 122971.90, 6237.66, 40445.70, 11352.72, 29772.03, 111134.59, 101577.90, 0.00, 0.00, 0.00
9, 85426.22, 122986.29, 6251.07, 40444.56, 11357.46, 29776.79, 111194.41, 101580.27, 0.00, 0.00, 0.00
10, 85423.65, 122910.88, 6247.38, 40435.49, 11339.49, 29754.31, 111114.07, 101576.65, 0.00, 0.00, 0.00
11, 85418.64, 122850.05, 6231.51, 40449.50, 11334.77, 29760.86, 111043.98, 101572.58, 0.00, 0.00, 0.00
12, 85427.23, 122882.76, 6219.55, 40439.02, 11355.74, 29772.43, 111037.80, 101580.27, 0.00, 0.00, 0.00
13, 85429.66, 122921.13, 6233.07, 40439.96, 11354.51, 29768.37, 111051.76, 101583.63, 0.07, -0.28, 0.96
14, 85430.16, 122916.69, 6245.08, 40447.56, 11355.45, 29763.04, 111066.41, 101583.87, 0.00, 0.00, 0.00
15, 85433.82, 122989.33, 6246.87, 40440.65, 11362.82, 29774.91, 111136.76, 101586.46, 0.00, 0.00, 0.00
16, 85424.88, 122981.71, 6241.23, 40440.88, 11359.85, 29787.25, 111094.34, 101577.09, 0.00, 0.00, 0.00
17, 85431.13, 122933.00, 6254.98, 40461.75, 11362.73, 29797.73, 111068.97, 101583.89, 0.00, 0.00, 0.00
18, 85430.11, 122944.36, 6224.54, 40448.83, 11342.82, 29768.81, 111106.52, 101580.78, 0.00, 0.00, 0.00
19, 85436.10, 122936.42, 6222.75, 40442.53, 11336.78, 29763.67, 111135.75, 101576.31, 0.00, 0.00, 0.00
20, 85442.13, 122901.94, 6224.07, 40435.18, 11316.89, 29745.01, 111091.36, 101580.96, 0.00, 0.00, 0.00
21, 85425.30, 122889.62, 6244.36, 40443.96, 11323.95, 29760.23, 111077.64, 101578.26, 0.00, 0.00, 0.00
22, 85416.20, 122914.65, 6228.87, 40439.56, 11338.41, 29771.05, 111106.02, 101568.70, 0.00, 0.00, 0.00
23, 85434.24, 122973.35, 6250.53, 40456.52, 11355.42, 29782.74, 111102.54, 101585.26, 0.07, -0.28, 0.97
24, 85436.66, 122958.26, 6244.83, 40451.14, 11346.93, 29776.52, 111102.83, 101587.63, 0.00, 0.00, 0.00
25, 85430.11, 122959.58, 6241.52, 40457.35, 11344.23, 29784.55, 111137.23, 101589.84, 0.00, 0.00, 0.00
26, 85422.98, 122952.25, 6233.59, 40436.88, 11324.60, 29772.37, 111133.63, 101585.32, 0.00, 0.00, 0.00
27, 85431.90, 122926.88, 6227.84, 40444.81, 11327.28, 29768.14, 111147.20, 101591.49, 0.00, 0.00, 0.00
28, 85422.73, 122895.95, 6212.98, 40432.11, 11349.48, 29762.96, 111153.45, 101581.99, 0.00, 0.00, 0.00
29, 85434.45, 122972.48, 6240.58, 40448.12, 11367.23, 29783.74, 111147.58, 101590.73, 0.00, 0.00, 0.00
30, 85448.13, 123102.52, 6272.95, 40461.17, 11366.62, 29802.94, 111090.05, 101604.41, 0.00, 0.00, 0.00
31, 85435.49, 122959.83, 6231.20, 40438.46, 11328.65, 29768.10, 111131.04, 101591.07, 0.00, 0.00, 0.00
32, 85435.96, 122902.09, 6229.32, 40438.30, 11335.69, 29771.76, 111113.05, 101589.46, 0.00, 0.00, 0.00
33, 85438.96, 122897.13, 6245.28, 40447.58, 11351.24, 29769.59, 111092.39, 101594.62, 0.07, -0.28, 0.97
34, 85446.09, 123012.60, 6267.85, 40453.71, 11348.38, 29776.79, 111126.14, 101599.80, 0.00, 0.00, 0.00
35, 85456.91, 123078.54, 6247.45, 40458.91, 11354.69, 29790.81, 111139.09, 101604.30, 0.00, 0.00, 0.00
36, 85442.31, 122897.98, 6217.96, 40434.33, 11328.83, 29784.93, 111149.99, 101590.46, 0.00, 0.00, 0.00
37, 85439.49, 122884.19, 6222.35, 40436.09, 11325.61, 29772.97, 111182.24, 101590.33, 0.00, 0.00, 0.00
38, 85439.41, 122905.63, 6232.90, 40440.36, 11325.47, 29764.61, 111145.50, 101586.73, 0.00, 0.00, 0.00
39, 85448.77, 122976.14, 6230.44, 40440.59, 11340.16, 29779.07, 111062.35, 101594.64, 0.00, 0.00, 0.00
40, 85447.92, 122963.38, 6226.84, 40442.33, 11352.88, 29781.44, 111094.91, 101590.38, 0.00, 0.00, 0.00
41, 85453.71, 122955.02, 6244.41, 40453.66, 11343.31, 29775.74, 111106.70, 101594.17, 0.00, 0.00, 0.00
42, 85445.42, 122966.15, 6268.70, 40446.22, 11326.48, 29772.88, 111102.43, 101584.56, 0.00, 0.00, 0.00
43, 85449.69, 122967.85, 6245.28, 40453.84, 11321.78, 29761.95, 111102.05, 101588.63, 0.08, -0.28, 0.96
44, 85460.59, 123000.13, 6242.62, 40434.89, 11322.50, 29772.59, 111129.94, 101600.81, 0.00, 0.00, 0.00
45, 85459.41, 123033.74, 6226.73, 40423.04, 11360.45, 29791.70, 111176.32, 101597.52, 0.00, 0.00, 0.00
46, 85444.15, 123001.11, 6208.71, 40444.43, 11348.47, 29783.99, 111152.63, 101581.26, 0.00, 0.00, 0.00
47, 85435.16, 122952.34, 6224.42, 40451.45, 11347.53, 29774.67, 111159.83, 101572.52, 0.00, 0.00, 0.00
48, 85453.42, 122959.63, 6236.76, 40461.26, 11351.89, 29788.24, 111150.13, 101591.34, 0.00, 0.00, 0.00
49, 85445.87, 122931.82, 6228.94, 40451.76, 11316.08, 29774.22, 111016.28, 101583.71, 0.00, 0.00, 0.00
50, 85447.68, 122948.45, 6234.66, 40432.41, 11341.65, 29771.67, 111060.41, 101583.60, 0.00, 0.00, 0.00
51, 85449.24, 122999.39, 6246.15, 40439.78, 11350.86, 29780.21, 111099.74, 101584.80, 0.00, 0.00, 0.00
52, 85443.43, 122993.58, 6261.84, 40457.95, 11326.34, 29769.19, 111124.63, 101578.30, 0.00, 0.00, 0.00
53, 85437.30, 122929.43, 6217.41, 40435.85, 11297.08, 29759.76, 111150.23, 101571.45, 0.08, -0.29, 0.96
54, 85448.73, 122993.53, 6232.43, 40442.11, 11320.11, 29778.09, 111136.55, 101580.92, 0.00, 0.00, 0.00
55, 85453.24, 123017.34, 6253.17, 40458.24, 11345.81, 29795.88, 111085.28, 101583.00, 0.00, 0.00, 0.00
56, 85437.91, 122940.83, 6227.26, 40432.92, 11332.31, 29767.94, 111125.74, 101567.40, 0.00, 0.00, 0.00
57, 85454.02, 122988.16, 6249.12, 40448.90, 11340.00, 29775.27, 111124.22, 101584.80, 0.00, 0.00, 0.00
58, 85454.49, 122972.84, 6225.90, 40435.67, 11326.30, 29765.33, 111106.47, 101581.23, 0.00, 0.00, 0.00
59, 85455.08, 122972.09, 6243.29, 40441.99, 11334.44, 29773.35, 111123.26, 101577.74, 0.00, 0.00, 0.00
60, 85459.79, 122983.88, 6225.59, 40448.83, 11349.92, 29794.14, 111083.16, 101579.87, 0.00, 0.00, 0.00
61, 85459.86, 123006.16, 6217.32, 40435.54, 11333.36, 29780.32, 111121.85, 101578.57, 0.00, 0.00, 0.00
62, 85455.88, 123020.71, 6221.29, 40430.23, 11308.35, 29748.14, 111107.32, 101575.95, 0.00, 0.00, 0.00
63, 85457.16, 123116.38, 6233.28, 40441.99, 11312.84, 29763.31, 111104.17, 101577.08, 0.07, -0.28, 0.96
64, 85451.72, 123008.48, 6227.67, 40447.67, 11320.73, 29764.56, 111136.98, 101569.56, 0.00, 0.00, 0.00
65, 85450.58, 122909.76, 6245.52, 40447.00, 11332.31, 29778.51, 111154.82, 101570.57, 0.00, 0.00, 0.00
66, 85450.70, 122937.41, 6247.27, 40460.14, 11349.75, 29792.42, 111099.97, 101571.87, 0.00, 0.00, 0.00
67, 85443.59, 122964.52, 6220.11, 40455.63, 11351.76, 29784.79, 111102.98, 101567.30, 0.00, 0.00, 0.00
68, 85449.89, 123017.91, 6217.16, 40441.86, 11347.71, 29778.89, 111138.03, 101574.95, 0.00, 0.00, 0.00
69, 85460.69, 123030.01, 6234.91, 40459.99, 11339.44, 29785.42, 111131.33, 101586.41, 0.00, 0.00, 0.00
70, 85446.80, 122970.98, 6229.16, 40447.02, 11318.95, 29778.69, 111148.12, 101573.52, 0.00, 0.00, 0.00
71, 85451.81, 122994.47, 6287.97, 40454.78, 11340.98, 29784.37, 111205.87, 101575.04, 0.00, 0.00, 0.00
72, 85461.13, 123081.98, 6244.76, 40453.04, 11367.67, 29802.27, 111131.55, 101582.66, 0.00, 0.00, 0.00
73, 85458.61, 123048.61, 6212.96, 40452.72, 11350.19, 29808.49, 111080.30, 101581.32, 0.07, -0.28, 0.96
74, 85442.31, 122956.38, 6222.93, 40437.23, 11315.82, 29779.99, 111154.64, 101563.98, 0.00, 0.00, 0.00
75, 85451.27, 122953.61, 6237.66, 40450.69, 11342.86, 29775.65, 111128.34, 101574.08, 0.00, 0.00, 0.00
76, 85442.34, 122961.62, 6189.00, 40429.07, 11335.75, 29761.59, 111075.72, 101568.20, 0.00, 0.00, 0.00
77, 85448.23, 123000.59, 6204.35, 40444.65, 11331.42, 29777.28, 111122.88, 101578.57, 0.00, 0.00, 0.00
78, 85452.21, 123041.81, 6207.73, 40443.27, 11340.67, 29777.17, 111128.11, 101581.03, 0.00, 0.00, 0.00
79, 85453.94, 122985.30, 6221.56, 40449.59, 11342.17, 29783.52, 111133.23, 101581.77, 0.00, 0.00, 0.00
80, 85446.88, 123007.37, 6214.34, 40436.23, 11326.68, 29780.81, 111142.37, 101574.62, 0.00, 0.00, 0.00
81, 85450.58, 122994.74, 6219.15, 40441.70, 11329.05, 29776.84, 111117.76, 101579.38, 0.00, 0.00, 0.00
82, 85455.37, 122991.97, 6225.05, 40447.69, 11329.18, 29774.38, 111161.21, 101583.71, 0.00, 0.00, 0.00
83, 85444.03, 123017.49, 6225.25, 40439.80, 11316.71, 29768.86, 111102.94, 101570.86, 0.07, -0.27, 0.95
84, 85441.28, 123024.84, 6258.58, 40439.73, 11310.63, 29763.02, 111134.01, 101568.24, 0.00, 0.00, 0.00
85, 85455.66, 123108.04, 6269.13, 40460.63, 11322.75, 29777.73, 111170.04, 101582.82, 0.00, 0.00, 0.00
86, 85464.09, 123142.30, 6223.46, 40452.48, 11333.72, 29783.47, 111101.11, 101589.91, 0.00, 0.00, 0.00
87, 85444.62, 122987.66, 6178.13, 40423.93, 11319.28, 29769.75, 111105.29, 101571.22, 0.00, 0.00, 0.00
88, 85441.77, 122924.02, 6198.76, 40442.42, 11320.53, 29776.01, 111117.76, 101569.30, 0.00, 0.00, 0.00
89, 85444.23, 122983.25, 6213.07, 40448.14, 11320.31, 29766.71, 111111.37, 101572.49, 0.00, 0.00, 0.00
90, 85459.63, 123053.23, 6240.90, 40460.63, 11336.22, 29785.42, 111129.45, 101588.12, 0.00, 0.00, 0.00
91, 85464.57, 123012.24, 6219.95, 40432.36, 11318.21, 29782.51, 111159.02, 101592.30, 0.00, 0.00, 0.00
92, 85446.20, 123016.73, 6177.19, 40422.50, 11302.27, 29755.40, 111153.99, 101584.00, 0.00, 0.00, 0.00
93, 85453.91, 123077.98, 6212.04, 40452.88, 11323.24, 29773.42, 111084.99, 101593.41, 0.08, -0.28, 0.96
94, 85454.49, 123009.16, 6225.09, 40462.16, 11333.54, 29774.51, 111072.72, 101594.06, 0.00, 0.00, 0.00
95, 85447.97, 123019.51, 6208.11, 40447.18, 11330.72, 29769.57, 111116.93, 101589.37, 0.00, 0.00, 0.00
96, 85451.63, 123023.02, 6217.67, 40451.34, 11319.17, 29780.50, 111275.01, 101591.80, 0.00, 0.00, 0.00
97, 85446.38, 123007.19, 6227.84, 40446.20, 11316.06, 29779.94, 111268.68, 101584.74, 0.00, 0.00, 0.00
98, 85457.60, 123028.87, 6283.63, 40465.24, 11369.46, 29796.33, 111170.33, 101597.02, 0.00, 0.00, 0.00
99, 85445.48, 122930.95, 6243.51, 40451.43, 11338.53, 29779.99, 110978.82, 101585.34, 0.00, 0.00, 0.00
100, 85460.15, 123109.07, 6192.86, 40436.74, 11346.06, 29796.08, 110999.30, 101596.99, 0.00, 0.00, 0.00
101, 85463.03, 123130.64, 6179.43, 40450.18, 11340.67, 29807.84, 111063.34, 101594.58, 0.00, 0.00, 0.00
102, 85451.90, 122924.84, 6169.13, 40431.44, 11305.38, 29760.54, 111127.28, 101580.92, 0.00, 0.00, 0.00
103, 85468.30, 122997.69, 6205.11, 40442.95, 11319.04, 29743.94, 111131.71, 101600.50, 0.07, -0.28, 0.96
104, 85461.98, 122908.70, 6203.75, 40439.42, 11326.10, 29752.85, 111083.78, 101594.17, 0.00, 0.00, 0.00
105, 85464.41, 122910.52, 6200.11, 40443.78, 11318.50, 29756.90, 111061.03, 101597.17, 0.00, 0.00, 0.00
106, 85460.02, 122995.43, 6207.46, 40443.87, 11307.12, 29756.85, 111078.40, 101593.34, 0.00, 0.00, 0.00
107, 85471.34, 123085.15, 6224.76, 40454.18, 11339.02, 29779.68, 111115.77, 101606.53, 0.00, 0.00, 0.00
108, 85455.73, 123070.31, 6212.38, 40440.96, 11322.57, 29764.45, 111142.73, 101594.17, 0.00, 0.00, 0.00
109, 85457.51, 123119.62, 6226.93, 40452.23, 11324.35, 29772.39, 111148.98, 101596.74, 0.00, 0.00, 0.00
110, 85454.92, 123049.81, 6224.18, 40445.17, 11302.76, 29759.76, 111153.86, 101592.07, 0.00, 0.00, 0.00
111, 85447.61, 122932.51, 6193.09, 40432.63, 11301.13, 29758.93, 111143.45, 101584.83, 0.00, 0.00, 0.00
112, 85453.94, 122982.34, 6187.92, 40445.03, 11323.35, 29760.03, 111066.46, 101589.77, 0.00, 0.00, 0.00
113, 85453.09, 122980.41, 6200.44, 40451.14, 11329.09, 29762.91, 111050.99, 101589.97, 0.08, -0.28, 0.96
114, 85454.92, 123010.90, 6199.23, 40450.46, 11323.30, 29768.74, 111077.39, 101588.07, 0.00, 0.00, 0.00
115, 85453.47, 123040.23, 6204.64, 40452.81, 11324.38, 29770.35, 111109.91, 101584.23, 0.00, 0.00, 0.00
116, 85455.79, 123086.91, 6220.89, 40460.61, 11328.47, 29790.87, 111162.82, 101587.27, 0.00, 0.00, 0.00
117, 85455.73, 123092.21, 6215.53, 40459.65, 11324.20, 29772.19, 111114.16, 101586.62, 0.00, 0.00, 0.00
118, 85442.31, 123045.61, 6189.29, 40439.31, 11304.15, 29748.79, 111104.88, 101572.36, 0.00, 0.00, 0.00
119, 85446.02, 123112.17, 6193.69, 40441.50, 11312.62, 29755.87, 111172.97, 101575.40, 0.00, 0.00, 0.00
120, 85455.34, 122959.65, 6197.40, 40447.56, 11317.60, 29764.10, 111170.22, 101581.66, 0.00, 0.00, 0.00
121, 85454.34, 122937.07, 6202.27, 40442.33, 11319.21, 29763.67, 111092.97, 101580.72, 0.00, 0.00, 0.00
122, 85459.79, 123047.42, 6209.27, 40456.41, 11333.94, 29768.19, 111056.72, 101587.20, 0.00, 0.00, 0.00
123, 85441.89, 123074.11, 6186.98, 40425.32, 11295.66, 29742.39, 111054.26, 101569.99, 0.07, -0.28, 0.96
124, 85465.34, 123076.10, 6217.05, 40462.73, 11309.11, 29757.64, 111090.06, 101593.08, 0.00, 0.00, 0.00
125, 85458.88, 122999.59, 6201.20, 40455.38, 11295.39, 29754.06, 111091.54, 101583.34, 0.00, 0.00, 0.00
126, 85462.14, 123042.86, 6210.05, 40464.46, 11318.54, 29767.54, 111109.76, 101583.60, 0.00, 0.00, 0.00
127, 85444.03, 123022.66, 6203.21, 40452.81, 11316.11, 29746.53, 111121.09, 101567.75, 0.00, 0.00, 0.00
128, 85464.93, 123039.82, 6227.40, 40475.14, 11333.81, 29776.70, 111142.21, 101590.22, 0.00, 0.00, 0.00
129, 85450.47, 123077.69, 6198.05, 40454.71, 11299.34, 29759.76, 111104.77, 101574.05, 0.00, 0.00, 0.00
130, 85448.93, 123064.43, 6192.13, 40451.65, 11319.28, 29765.48, 111130.10, 101571.15, 0.00, 0.00, 0.00
131, 85452.35, 123071.47, 6208.85, 40463.32, 11334.03, 29768.97, 111111.26, 101575.45, 0.00, 0.00, 0.00
132, 85449.35, 123005.69, 6215.98, 40457.35, 11313.00, 29763.76, 111059.04, 101574.50, 0.07, -0.28, 0.96
133, 85457.55, 122972.77, 6194.74, 40458.64, 11331.53, 29768.48, 111056.65, 101582.22, 0.00, 0.00, 0.00
134, 85446.00, 123012.62, 6188.06, 40448.97, 11322.39, 29758.35, 111065.23, 101570.70, 0.00, 0.00, 0.00
135, 85457.22, 123087.05, 6215.42, 40460.30, 11313.25, 29761.97, 111114.98, 101582.46, 0.00, 0.00, 0.00
136, 85465.83, 123034.01, 6223.89, 40469.75, 11327.93, 29787.23, 111140.63, 101590.59, 0.00, 0.00, 0.00
137, 85456.39, 123054.10, 6213.70, 40461.66, 11349.17, 29784.48, 111171.90, 101583.29, 0.00, 0.00, 0.00
138, 85451.97, 123006.41, 6189.82, 40463.25, 11345.10, 29780.57, 111178.27, 101576.63, 0.00, 0.00, 0.00
139, 85439.12, 122977.20, 6173.22, 40452.61, 11323.91, 29783.92, 111117.38, 101562.37, 0.00, 0.00, 0.00
140, 85456.21, 123025.20, 6191.72, 40462.31, 11310.27, 29776.46, 111093.11, 101577.45, 0.00, 0.00, 0.00
141, 85454.92, 122994.70, 6204.13, 40464.32, 11336.02, 29759.85, 111032.48, 101578.15, 0.00, 0.00, 0.00
142, 85463.05, 123044.94, 6214.25, 40475.34, 11349.23, 29777.28, 111090.36, 101589.59, 0.08, -0.28, 0.96
143, 85461.11, 123083.20, 6206.10, 40478.14, 11348.14, 29783.61, 111113.05, 101588.81, 0.00, 0.00, 0.00
144, 85452.26, 123073.04, 6196.55, 40468.14, 11330.86, 29771.65, 111133.72, 101581.14, 0.00, 0.00, 0.00
145, 85452.02, 122988.15, 6197.96, 40473.35, 11333.27, 29775.25, 111154.84, 101578.86, 0.00, 0.00, 0.00
146, 85448.64, 123009.80, 6195.32, 40472.70, 11335.53, 29789.02, 111233.43, 101577.23, 0.00, 0.00, 0.00
147, 85441.30, 123056.36, 6204.40, 40464.28, 11323.93, 29783.94, 111141.16, 101569.97, 0.00, 0.00, 0.00
148, 85434.22, 123041.16, 6250.58, 40473.96, 11320.33, 29772.12, 111066.17, 101563.26, 0.00, 0.00, 0.00
149, 85431.07, 123013.63, 6194.47, 40471.99, 11321.92, 29770.85, 111051.77, 101559.23, 0.00, 0.00, 0.00
150, 85447.56, 123034.66, 6169.82, 40466.58, 11322.90, 29774.45, 111087.65, 101574.57, 0.00, 0.00, 0.00
151, 85452.70, 123010.50, 6185.20, 40468.57, 11311.46, 29775.61, 111117.20, 101577.77, 0.00, 0.00, 0.00
152, 85441.06, 122950.68, 6183.45, 40461.62, 11287.38, 29759.58, 111087.83, 101565.48, 0.08, -0.29, 0.96
153, 85440.08, 123022.63, 6197.27, 40474.22, 11311.17, 29762.67, 111126.30, 101565.12, 0.00, 0.00, 0.00
154, 85442.38, 123069.73, 6212.73, 40477.55, 11348.92, 29781.62, 111131.15, 101568.96, 0.00, 0.00, 0.00
155, 85432.37, 123041.25, 6183.30, 40464.39, 11318.68, 29765.73, 111136.24, 101559.93, 0.00, 0.00, 0.00
156, 85429.77, 123012.46, 6185.67, 40456.95, 11323.88, 29768.43, 111184.99, 101559.46, 0.00, 0.00, 0.00
157, 85439.67, 123093.06, 6204.08, 40463.56, 11349.05, 29783.50, 111154.06, 101568.31, 0.00, 0.00, 0.00
158, 85451.01, 123133.70, 6218.12, 40496.18, 11346.95, 29793.76, 111082.20, 101578.95, 0.00, 0.00, 0.00
159, 85438.71, 122972.48, 6189.80, 40479.59, 11319.19, 29769.13, 111061.26, 101569.20, 0.00, 0.00, 0.00
160, 85430.89, 122948.45, 6194.56, 40466.07, 11314.27, 29759.54, 111079.85, 101559.80, 0.00, 0.00, 0.00
161, 85427.38, 123004.73, 6202.50, 40461.75, 11295.01, 29752.65, 111087.61, 101555.80, 0.00, 0.00, 0.00
162, 85440.30, 123016.89, 6196.19, 40466.27, 11317.47, 29779.32, 111135.17, 101562.77, 0.07, -0.28, 0.95
163, 85440.61, 122972.14, 6186.16, 40457.55, 11322.32, 29767.40, 111183.14, 101564.85, 0.00, 0.00, 0.00
164, 85440.68, 122988.08, 6172.93, 40455.85, 11308.95, 29755.04, 111170.38, 101567.22, 0.00, 0.00, 0.00
165, 85434.87, 123045.50, 6172.01, 40461.64, 11309.85, 29760.63, 111101.27, 101560.22, 0.00, 0.00, 0.00
166, 85415.60, 123031.40, 6170.33, 40449.68, 11302.27, 29746.57, 111051.29, 101540.38, 0.00, 0.00, 0.00
167, 85422.13, 123054.15, 6185.82, 40457.86, 11302.34, 29740.07, 111091.72, 101548.62, 0.00, 0.00, 0.00
168, 85440.99, 123106.56, 6216.27, 40479.88, 11320.73, 29763.20, 111141.14, 101570.39, 0.00, 0.00, 0.00
169, 85433.86, 123064.23, 6233.25, 40479.68, 11309.96, 29759.63, 111144.13, 101562.95, 0.00, 0.00, 0.00
170, 85421.46, 123064.52, 6176.14, 40458.80, 11280.34, 29744.54, 111124.63, 101551.52, 0.00, 0.00, 0.00
171, 85421.75, 123061.26, 6165.80, 40452.05, 11296.21, 29763.65, 111115.01, 101549.52, 0.00, 0.00, 0.00
172, 85424.54, 122909.76, 6170.44, 40450.20, 11304.75, 29752.32, 111088.34, 101551.64, 0.08, -0.28, 0.96
173, 85418.71, 122941.70, 6194.07, 40456.84, 11314.52, 29766.55, 111087.79, 101544.93, 0.00, 0.00, 0.00
174, 85429.08, 123040.88, 6190.52, 40477.09, 11320.89, 29759.74, 111171.96, 101553.70, 0.00, 0.00, 0.00
175, 85424.23, 123055.20, 6169.66, 40451.45, 11299.95, 29730.97, 111074.91, 101549.23, 0.00, 0.00, 0.00
176, 85423.78, 123058.84, 6190.52, 40464.57, 11297.53, 29738.62, 111050.68, 101550.23, 0.00, 0.00, 0.00
177, 85408.12, 122978.42, 6193.15, 40462.56, 11279.99, 29725.94, 111038.59, 101535.05, 0.00, 0.00, 0.00
178, 85412.41, 123011.55, 6181.60, 40453.77, 11282.27, 29738.01, 111110.09, 101539.92, 0.00, 0.00, 0.00
179, 85420.92, 123050.15, 6197.56, 40480.10, 11308.19, 29761.84, 111147.91, 101545.18, 0.00, 0.00, 0.00
180, 85406.19, 123036.49, 6171.56, 40458.91, 11294.25, 29740.69, 111092.39, 101533.66, 0.00, 0.00, 0.00
181, 85406.10, 122991.41, 6175.27, 40475.90, 11289.84, 29746.68, 111070.59, 101536.23, 0.00, 0.00, 0.00
182, 85408.65, 122988.08, 6207.59, 40484.02, 11295.43, 29746.82, 111081.48, 101538.79, 0.07, -0.28, 0.95
183, 85407.11, 123007.41, 6185.38, 40461.93, 11313.63, 29743.87, 111121.29, 101539.68, 0.00, 0.00, 0.00
184, 85412.98, 123021.13, 6177.28, 40472.84, 11314.32, 29750.93, 111194.88, 101543.44, 0.00, 0.00, 0.00
185, 85418.44, 123051.52, 6177.87, 40479.10, 11306.03, 29748.63, 111134.59, 101542.63, 0.00, 0.00, 0.00
186, 85401.38, 123054.58, 6163.81, 40457.57, 11292.77, 29737.07, 111073.33, 101525.55, 0.00, 0.00, 0.00
187, 85393.92, 123042.48, 6164.39, 40457.19, 11291.07, 29724.42, 111091.16, 101520.57, 0.00, 0.00, 0.00
188, 85420.43, 123070.91, 6191.92, 40486.00, 11311.32, 29756.25, 111109.76, 101546.56, 0.00, 0.00, 0.00
189, 85406.84, 122999.23, 6169.57, 40465.17, 11308.48, 29745.88, 111075.56, 101535.23, 0.00, 0.00, 0.00
190, 85410.66, 122928.24, 6171.16, 40461.20, 11305.04, 29734.14, 111074.66, 101542.20, 0.00, 0.00, 0.00
191, 85412.74, 122958.13, 6168.68, 40453.50, 11293.69, 29730.10, 111088.86, 101546.34, 0.00, 0.00, 0.00
192, 85411.91, 123015.70, 6202.39, 40458.78, 11301.56, 29746.62, 111131.80, 101541.36, 0.07, -0.28, 0.96
193, 85407.20, 123099.13, 6206.25, 40483.75, 11315.88, 29761.55, 111133.18, 101533.87, 0.00, 0.00, 0.00
194, 85412.56, 123046.46, 6175.34, 40470.60, 11303.86, 29743.46, 111141.50, 101538.34, 0.00, 0.00, 0.00
195, 85413.66, 122969.19, 6172.84, 40458.67, 11296.73, 29740.87, 111063.55, 101536.17, 0.00, 0.00, 0.00
196, 85413.34, 122949.52, 6188.08, 40463.38, 11298.34, 29750.06, 111048.88, 101537.78, 0.00, 0.00, 0.00
197, 85421.81, 122996.93, 6190.78, 40472.55, 11303.46, 29743.13, 111118.81, 101548.48, 0.00, 0.00, 0.00
198, 85423.76, 123025.61, 6225.47, 40487.05, 11303.34, 29758.57, 111101.42, 101550.09, 0.00, 0.00, 0.00
199, 85435.05, 123120.29, 6204.71, 40481.09, 11317.38, 29758.15, 111111.45, 101558.74, 0.00, 0.00, 0.00
200, 85437.51, 123077.10, 6152.32, 40460.39, 11297.93, 29734.97, 111119.52, 101562.86, 0.00, 0.00, 0.00
201, 85421.23, 122965.50, 6128.74, 40432.81, 11280.23, 29726.08, 111099.81, 101549.58, 0.00, 0.00, 0.00
202, 85424.66, 122975.88, 6158.22, 40450.84, 11295.50, 29731.71, 111133.14, 101554.99, 0.07, -0.28, 0.96
203, 85428.72, 123013.73, 6184.91, 40487.90, 11301.87, 29737.10, 111140.38, 101556.35, 0.00, 0.00, 0.00
204, 85432.19, 123080.63, 6188.44, 40484.91, 11299.10, 29738.30, 111084.84, 101561.07, 0.00, 0.00, 0.00
205, 85421.34, 123017.45, 6195.66, 40476.62, 11289.06, 29738.82, 111097.40, 101548.40, 0.00, 0.00, 0.00
206, 85414.30, 122975.74, 6175.94, 40465.78, 11291.39, 29727.44, 111139.64, 101540.04, 0.00, 0.00, 0.00
207, 85433.37, 123007.70, 6178.60, 40468.79, 11291.41, 29732.36, 111106.18, 101560.20, 0.00, 0.00, 0.00
208, 85424.50, 122978.53, 6166.76, 40467.12, 11296.88, 29730.46, 111093.84, 101549.76, 0.00, 0.00, 0.00
209, 85421.63, 123001.35, 6178.45, 40458.62, 11292.17, 29733.18, 111090.83, 101545.94, 0.00, 0.00, 0.00
210, 85413.92, 122991.50, 6178.54, 40463.27, 11287.21, 29740.36, 111107.57, 101539.34, 0.00, 0.00, 0.00
211, 85425.55, 123038.88, 6190.18, 40473.93, 11296.10, 29751.18, 111118.01, 101551.86, 0.00, 0.00, 0.00
212, 85439.80, 123109.16, 6209.11, 40496.64, 11329.50, 29758.31, 111156.52, 101565.01, 0.08, -0.29, 0.96
213, 85424.79, 123025.85, 6184.77, 40475.61, 11300.33, 29723.39, 111095.95, 101546.74, 0.00, 0.00, 0.00
214, 85419.29, 123047.91, 6175.36, 40471.18, 11311.64, 29737.03, 111095.20, 101544.73, 0.00, 0.00, 0.00
215, 85429.88, 123077.87, 6184.26, 40486.18, 11303.21, 29752.72, 111100.68, 101555.39, 0.00, 0.00, 0.00
216, 85423.24, 122982.18, 6210.97, 40483.34, 11309.18, 29747.78, 111128.17, 101546.97, 0.00, 0.00, 0.00
217, 85427.05, 122956.34, 6189.35, 40485.29, 11321.45, 29758.04, 111156.05, 101552.02, 0.00, 0.00, 0.00
218, 85420.43, 123025.52, 6199.55, 40482.72, 11307.39, 29749.77, 111135.84, 101545.72, 0.00, 0.00, 0.00
219, 85440.63, 123049.55, 6172.59, 40488.11, 11318.72, 29743.53, 111126.86, 101563.41, 0.00, 0.00, 0.00
220, 85432.30, 123086.23, 6170.06, 40485.63, 11300.97, 29735.24, 111091.59, 101554.32, 0.00, 0.00, 0.00
221, 85432.63, 123052.43, 6183.16, 40489.42, 11321.47, 29749.12, 111131.06, 101553.65, 0.00, 0.00, 0.00
222, 85434.29, 122959.04, 6201.45, 40486.59, 11320.62, 29769.73, 111084.37, 101554.72, 0.08, -0.29, 0.96
223, 85432.70, 122953.84, 6195.66, 40492.60, 11319.30, 29773.04, 111070.06, 101555.95, 0.00, 0.00, 0.00
224, 85429.23, 123019.15, 6183.77, 40495.14, 11300.30, 29727.89, 111089.46, 101554.05, 0.00, 0.00, 0.00
225, 85435.56, 123029.00, 6196.42, 40492.48, 11306.94, 29734.81, 111106.14, 101559.71, 0.00, 0.00, 0.00
226, 85425.93, 122995.39, 6175.83, 40485.24, 11315.82, 29735.17, 111114.50, 101550.48, 0.00, 0.00, 0.00
227, 85435.72, 122996.13, 6168.61, 40487.66, 11321.69, 29745.34, 111128.35, 101555.10, 0.00, 0.00, 0.00
228, 85441.64, 123020.84, 6176.86, 40493.69, 11319.01, 29760.16, 111123.68, 101557.92, 0.00, 0.00, 0.00
229, 85443.18, 123044.05, 6184.26, 40495.86, 11315.82, 29760.14, 111163.24, 101557.63, 0.00, 0.00, 0.00
230, 85447.59, 123054.13, 6190.40, 40484.89, 11299.99, 29747.94, 111190.34, 101557.07, 0.00, 0.00, 0.00
231, 85443.05, 123014.68, 6187.66, 40488.98, 11299.50, 29743.11, 111100.41, 101553.00, 0.00, 0.00, 0.00
232, 85457.17, 123081.42, 6193.51, 40495.01, 11312.53, 29750.04, 111127.53, 101564.53, 0.07, -0.28, 0.95
233, 85457.58, 123063.80, 6196.64, 40496.84, 11316.42, 29751.60, 111109.53, 101561.90, 0.00, 0.00, 0.00
234, 85446.38, 123001.11, 6182.00, 40493.43, 11305.49, 29743.42, 111088.23, 101548.29, 0.00, 0.00, 0.00
235, 85445.42, 122965.75, 6183.70, 40489.22, 11309.78, 29743.73, 111057.84, 101548.20, 0.00, 0.00, 0.00
236, 85459.05, 122993.60, 6199.21, 40509.00, 11334.03, 29761.79, 111096.48, 101557.31, 0.00, 0.00, 0.00
237, 85458.18, 123035.93, 6166.94, 40498.77, 11322.12, 29759.13, 111107.45, 101551.51, 0.00, 0.00, 0.00
238, 85463.88, 123039.94, 6175.97, 40498.30, 11313.49, 29758.17, 111122.16, 101557.74, 0.00, 0.00, 0.00
239, 85466.05, 123055.91, 6200.93, 40506.70, 11313.09, 29749.08, 111138.55, 101561.96, 0.00, 0.00, 0.00
240, 85470.34, 123038.80, 6220.58, 40502.14, 11320.44, 29756.68, 111172.05, 101563.73, 0.00, 0.00, 0.00
241, 85469.73, 122999.27, 6187.79, 40495.46, 11313.18, 29764.23, 111120.98, 101556.55, 0.00, 0.00, 0.00
242, 85469.58, 123030.44, 6143.60, 40481.87, 11307.61, 29752.67, 111059.27, 101557.56, 0.07, -0.28, 0.96
243, 85472.91, 123066.42, 6172.10, 40498.19, 11309.78, 29729.29, 111104.30, 101563.71, 0.00, 0.00, 0.00
244, 85472.58, 123033.67, 6188.64, 40506.23, 11312.69, 29739.58, 111131.41, 101562.48, 0.00, 0.00, 0.00
245, 85480.16, 123069.17, 6199.73, 40512.00, 11322.68, 29756.83, 111136.73, 101569.38, 0.00, 0.00, 0.00
246, 85468.22, 123042.62, 6188.21, 40504.11, 11311.86, 29755.78, 111101.95, 101555.28, 0.00, 0.00, 0.00
247, 85468.98, 122995.48, 6175.76, 40499.97, 11320.73, 29777.98, 111077.66, 101553.65, 0.00, 0.00, 0.00
248, 85472.62, 123080.30, 6223.87, 40503.37, 11319.10, 29748.79, 111091.66, 101558.70, 0.00, 0.00, 0.00
249, 85456.51, 123024.42, 6197.56, 40495.37, 11302.47, 29736.74, 111083.30, 101540.69, 0.00, 0.00, 0.00
250, 85458.95, 122980.14, 6137.39, 40467.72, 11296.15, 29730.97, 111083.47, 101539.39, 0.00, 0.00, 0.00
251, 85472.77, 123022.57, 6152.50, 40492.06, 11301.78, 29744.45, 111112.17, 101556.11, 0.00, 0.00, 0.00
252, 85474.03, 123038.86, 6171.90, 40507.24, 11315.10, 29747.73, 111101.17, 101555.66, 0.07, -0.29, 0.96
253, 85473.98, 123025.98, 6183.72, 40506.63, 11320.33, 29751.76, 111100.59, 101552.20, 0.00, 0.00, 0.00
254, 85476.33, 123074.11, 6204.08, 40510.64, 11316.04, 29761.73, 111138.97, 101555.88, 0.00, 0.00, 0.00
255, 85476.94, 123069.91, 6191.97, 40511.21, 11315.10, 29766.94, 111117.98, 101554.90, 0.00, 0.00, 0.00
0, 85479.75, 123076.77, 6186.45, 40517.32, 11321.02, 29767.61, 111123.98, 101558.08, 0.00, 0.00, 0.00
1, 85472.42, 123061.64, 6160.77, 40499.97, 11305.69, 29740.38, 111124.84, 101550.97, 0.00, 0.00, 0.00
2, 85457.00, 122988.44, 6169.55, 40483.59, 11286.20, 29730.93, 111095.48, 101533.09, 0.00, 0.00, 0.00
3, 85460.87, 123014.50, 6178.85, 40493.63, 11319.06, 29753.26, 111109.09, 101539.79, 0.00, 0.00, 0.00
4, 85470.23, 123109.13, 6186.43, 40505.63, 11318.07, 29763.60, 111090.58, 101551.57, 0.00, 0.00, 0.00
5, 85475.55, 123080.13, 6181.22, 40509.41, 11296.26, 29750.97, 111084.68, 101552.55, 0.00, 0.00, 0.00
6, 85474.41, 123031.51, 6170.27, 40509.65, 11312.91, 29758.57, 111111.41, 101548.20, 0.07, -0.28, 0.96
7, 85478.55, 122980.95, 6178.22, 40507.30, 11300.10, 29752.81, 111083.16, 101547.97, 0.00, 0.00, 0.00
8, 85479.80, 122983.77, 6198.50, 40512.80, 11317.31, 29746.79, 111069.57, 101548.87, 0.00, 0.00, 0.00
9, 85476.11, 123043.80, 6164.70, 40498.43, 11317.94, 29750.21, 111087.56, 101548.02, 0.00, 0.00, 0.00
10, 85473.58, 123081.73, 6172.68, 40492.29, 11304.66, 29743.44, 111105.69, 101542.88, 0.00, 0.00, 0.00
11, 85462.63, 123062.62, 6189.15, 40494.45, 11294.22, 29738.57, 111094.55, 101531.05, 0.00, 0.00, 0.00
12, 85467.08, 123028.04, 6167.29, 40500.82, 11297.71, 29736.34, 111098.02, 101533.04, 0.00, 0.00, 0.00
13, 85485.85, 123074.73, 6189.11, 40509.77, 11312.80, 29748.32, 111146.88, 101544.62, 0.00, 0.00, 0.00
14, 85496.56, 123046.30, 6182.67, 40508.60, 11305.74, 29744.94, 111106.27, 101550.88, 0.00, 0.00, 0.00
15, 85494.66, 123022.92, 6173.51, 40507.73, 11308.71, 29755.18, 111054.13, 101554.86, 0.00, 0.00, 0.00
16, 85480.06, 123020.60, 6192.82, 40515.06, 11321.07, 29773.15, 111089.77, 101545.55, 0.07, -0.28, 0.96
17, 85470.59, 123026.73, 6186.58, 40505.96, 11295.10, 29755.80, 111104.69, 101536.02, 0.00, 0.00, 0.00
18, 85477.72, 123038.66, 6188.08, 40505.98, 11297.04, 29759.54, 111083.56, 101542.66, 0.00, 0.00, 0.00
19, 85488.96, 123035.38, 6164.23, 40501.34, 11293.13, 29749.08, 111081.75, 101554.55, 0.00, 0.00, 0.00
20, 85484.47, 123029.05, 6155.16, 40492.78, 11298.54, 29738.50, 111071.49, 101546.56, 0.00, 0.00, 0.00
21, 85482.30, 123030.91, 6175.70, 40507.08, 11327.77, 29755.18, 111088.05, 101543.50, 0.00, 0.00, 0.00
22, 85483.59, 123024.40, 6201.47, 40523.80, 11325.38, 29756.29, 111077.17, 101544.62, 0.00, 0.00, 0.00
23, 85483.23, 123033.88, 6192.39, 40521.83, 11312.35, 29758.57, 111069.52, 101544.11, 0.00, 0.00, 0.00
24, 85491.33, 123052.14, 6197.89, 40529.55, 11314.65, 29763.94, 111103.68, 101552.45, 0.00, 0.00, 0.00
25, 85477.72, 123013.96, 6186.69, 40522.10, 11321.45, 29760.21, 111096.52, 101540.17, 0.00, 0.00, 0.00
26, 85478.19, 123026.57, 6204.02, 40518.91, 11318.10, 29771.81, 111087.85, 101539.92, 0.07, -0.28, 0.96
27, 85473.72, 123059.23, 6209.67, 40523.42, 11316.40, 29769.73, 111108.41, 101536.10, 0.00, 0.00, 0.00
28, 85483.77, 122995.12, 6164.19, 40513.00, 11295.27, 29749.28, 111082.60, 101543.81, 0.00, 0.00, 0.00
29, 85481.59, 122949.03, 6222.81, 40513.30, 11305.49, 29760.97, 111082.60, 101539.26, 0.00, 0.00, 0.00
30, 85486.77, 123014.61, 6199.88, 40523.73, 11313.69, 29754.42, 111108.23, 101545.18, 0.00, 0.00, 0.00
31, 85494.66, 123089.22, 6167.54, 40512.13, 11316.31, 29760.56, 111075.74, 101552.13, 0.00, 0.00, 0.00
32, 85486.21, 123043.31, 6152.16, 40499.59, 11291.86, 29738.46, 111076.50, 101544.95, 0.00, 0.00, 0.00
33, 85477.38, 123011.28, 6142.15, 40492.11, 11275.76, 29717.22, 111066.02, 101539.41, 0.00, 0.00, 0.00
34, 85490.79, 123004.41, 6175.52, 40525.30, 11304.28, 29742.21, 111066.95, 101549.78, 0.00, 0.00, 0.00
35, 85496.63, 123057.13, 6199.84, 40531.82, 11317.45, 29756.07, 111106.85, 101555.55, 0.00, 0.00, 0.00
36, 85489.54, 123065.19, 6196.37, 40528.76, 11316.91, 29756.16, 111099.07, 101551.82, 0.07, -0.28, 0.97
37, 85495.04, 123075.09, 6172.10, 40518.97, 11307.48, 29763.27, 111108.93, 101558.99, 0.00, 0.00, 0.00
38, 85503.53, 123087.05, 6183.48, 40523.89, 11305.58, 29759.63, 111129.36, 101566.75, 0.00, 0.00, 0.00
39, 85495.17, 123046.44, 6189.33, 40518.23, 11303.19, 29765.97, 111121.18, 101556.96, 0.00, 0.00, 0.00
40, 85504.52, 123049.84, 6220.56, 40529.37, 11307.10, 29749.86, 111140.49, 101561.16, 0.00, 0.00, 0.00
41, 85500.09, 123075.27, 6192.48, 40522.53, 11304.98, 29751.56, 111160.14, 101554.01, 0.00, 0.00, 0.00
42, 85504.45, 123085.98, 6145.30, 40497.89, 11306.14, 29756.74, 111158.51, 101556.17, 0.00, 0.00, 0.00
43, 85502.86, 123011.99, 6163.36, 40503.80, 11296.15, 29745.01, 111144.36, 101555.20, 0.00, 0.00, 0.00
44, 85502.93, 123009.05, 6173.31, 40515.15, 11295.03, 29746.59, 111166.45, 101554.79, 0.00, 0.00, 0.00
45, 85512.25, 123060.01, 6176.59, 40531.54, 11307.57, 29762.71, 111165.32, 101562.91, 0.00, 0.00, 0.00
46, 85496.52, 122987.95, 6181.67, 40509.72, 11294.98, 29735.66, 111149.74, 101548.46, 0.06, -0.29, 0.96
47, 85501.97, 123056.85, 6169.75, 40512.69, 11303.10, 29739.84, 111154.35, 101555.21, 0.00, 0.00, 0.00
48, 85498.84, 123032.76, 6167.05, 40512.49, 11291.23, 29744.90, 111166.48, 101550.88, 0.00, 0.00, 0.00
49, 85510.95, 123129.34, 6201.67, 40526.19, 11308.24, 29753.14, 111190.56, 101557.61, 0.00, 0.00, 0.00
50, 85503.17, 123053.52, 6237.61, 40526.39, 11296.53, 29736.58, 111171.16, 101548.80, 0.00, 0.00, 0.00
51, 85504.12, 123048.20, 6147.65, 40490.16, 11284.30, 29729.36, 111175.18, 101547.88, 0.00, 0.00, 0.00
52, 85508.41, 123066.31, 6144.32, 40501.74, 11300.13, 29749.23, 111203.30, 101550.32, 0.00, 0.00, 0.00
53, 85503.49, 123128.58, 6166.02, 40505.18, 11295.05, 29745.05, 111198.34, 101548.09, 0.00, 0.00, 0.00
54, 85492.27, 123060.84, 6188.77, 40500.78, 11286.36, 29725.67, 111156.52, 101536.91, 0.00, 0.00, 0.00
55, 85500.16, 122979.41, 6219.66, 40523.24, 11297.64, 29732.76, 111177.06, 101546.30, 0.00, 0.00, 0.00
56, 85505.81, 123052.18, 6164.12, 40523.29, 11302.36, 29738.62, 111177.38, 101552.63, 0.06, -0.28, 0.96
57, 85501.95, 123060.30, 6148.45, 40515.60, 11302.61, 29740.58, 111191.52, 101551.33, 0.00, 0.00, 0.00
58, 85490.79, 123018.16, 6161.30, 40510.48, 11297.87, 29737.21, 111193.48, 101542.61, 0.00, 0.00, 0.00
59, 85492.27, 123039.11, 6248.23, 40531.82, 11298.99, 29763.31, 111181.22, 101545.02, 0.00, 0.00, 0.00
60, 85504.12, 123111.64, 6262.58, 40558.80, 11320.35, 29755.63, 111190.70, 101555.66, 0.00, 0.00, 0.00
61, 85495.62, 123048.43, 6105.24, 40490.92, 11308.26, 29714.25, 111194.38, 101544.33, 0.00, 0.00, 0.00
62, 85498.37, 122944.67, 6131.19, 40496.66, 11307.23, 29733.43, 111199.26, 101546.61, 0.00, 0.00, 0.00
63, 85498.66, 122989.13, 6154.91, 40510.08, 11299.72, 29734.30, 111192.68, 101549.83, 0.00, 0.00, 0.00
64, 85500.98, 123039.13, 6176.59, 40521.12, 11305.49, 29742.04, 111201.02, 101550.97, 0.00, 0.00, 0.00
65, 85496.11, 123055.98, 6187.79, 40527.22, 11301.31, 29740.56, 111193.40, 101548.29, 0.00, 0.00, 0.00
66, 85482.59, 123055.20, 6188.37, 40510.14, 11296.46, 29730.72, 111169.26, 101539.03, 0.07, -0.29, 0.97
67, 85480.91, 123042.59, 6163.56, 40500.76, 11295.14, 29722.39, 111180.79, 101537.87, 0.00, 0.00, 0.00
68, 85491.80, 123083.90, 6166.94, 40511.29, 11301.96, 29739.35, 111200.48, 101546.56, 0.00, 0.00, 0.00
69, 85484.76, 123057.84, 6177.84, 40517.14, 11297.93, 29738.86, 111225.59, 101538.59, 0.00, 0.00, 0.00
70, 85486.79, 123076.97, 6175.14, 40515.31, 11303.41, 29748.56, 111230.30, 101540.51, 0.00, 0.00, 0.00
71, 85475.66, 123053.32, 6164.45, 40499.59, 11301.56, 29746.91, 111201.22, 101529.60, 0.00, 0.00, 0.00
72, 85487.89, 123089.78, 6197.83, 40525.63, 11305.09, 29758.69, 111223.66, 101541.83, 0.00, 0.00, 0.00
73, 85494.19, 123057.91, 6210.52, 40530.62, 11314.47, 29770.80, 111264.16, 101549.85, 0.00, 0.00, 0.00
74, 85498.02, 123034.15, 6186.96, 40524.85, 11300.50, 29740.65, 111264.30, 101552.20, 0.00, 0.00, 0.00
75, 85489.18, 123035.69, 6149.12, 40509.29, 11277.55, 29722.46, 111195.59, 101542.74, 0.00, 0.00, 0.00
76, 85482.99, 123025.74, 6157.15, 40503.46, 11285.75, 29721.70, 111178.67, 101538.34, 0.07, -0.29, 0.96
77, 85476.82, 123067.94, 6161.46, 40507.89, 11280.52, 29720.38, 111181.40, 101537.63, 0.00, 0.00, 0.00
78, 85476.11, 123039.76, 6159.27, 40490.14, 11279.58, 29716.87, 111176.08, 101538.80, 0.00, 0.00, 0.00
79, 85486.45, 123068.14, 6193.20, 40508.20, 11296.28, 29737.32, 111211.64, 101541.71, 0.00, 0.00, 0.00
80, 85473.13, 123065.64, 6176.93, 40528.00, 11298.38, 29740.80, 111226.14, 101524.93, 0.00, 0.00, 0.00
81, 85471.86, 123073.41, 6169.08, 40532.07, 11310.07, 29740.98, 111228.34, 101526.02, 0.00, 0.00, 0.00
82, 85474.48, 123065.91, 6168.32, 40521.07, 11299.41, 29741.30, 111244.36, 101528.13, 0.00, 0.00, 0.00
83, 85482.99, 123133.84, 6189.69, 40531.89, 11318.43, 29753.08, 111266.48, 101533.84, 0.00, 0.00, 0.00
84, 85474.23, 123083.52, 6184.88, 40524.92, 11300.88, 29738.88, 111260.63, 101524.03, 0.00, 0.00, 0.00
85, 85477.20, 123043.47, 6191.46, 40522.82, 11295.52, 29733.43, 111241.68, 101526.07, 0.00, 0.00, 0.00
86, 85474.84, 123021.18, 6187.23, 40521.92, 11303.66, 29731.13, 111213.52, 101519.85, 0.07, -0.28, 0.96
87, 85472.48, 123001.02, 6187.61, 40518.93, 11287.43, 29723.82, 111230.84, 101518.58, 0.00, 0.00, 0.00
88, 85480.87, 123053.81, 6178.71, 40520.71, 11288.10, 29737.79, 111276.91, 101527.16, 0.00, 0.00, 0.00
89, 85477.23, 123108.40, 6167.38, 40515.31, 11307.01, 29722.16, 111258.87, 101522.11, 0.00, 0.00, 0.00
90, 85463.63, 123088.46, 6163.36, 40505.88, 11295.23, 29714.77, 111214.54, 101510.13, 0.00, 0.00, 0.00
91, 85469.05, 123092.64, 6158.73, 40509.61, 11298.72, 29726.30, 111217.27, 101517.75, 0.00, 0.00, 0.00
92, 85477.90, 123079.90, 6169.06, 40516.80, 11303.19, 29732.40, 111249.79, 101523.88, 0.00, 0.00, 0.00
93, 85491.80, 123069.15, 6188.50, 40524.58, 11304.39, 29741.30, 111281.35, 101536.13, 0.00, 0.00, 0.00
94, 85484.22, 123030.77, 6184.86, 40519.82, 11296.57, 29725.20, 111256.88, 101529.87, 0.00, 0.00, 0.00
95, 85485.48, 123038.99, 6165.95, 40508.64, 11298.78, 29729.34, 111274.60, 101528.64, 0.00, 0.00, 0.00
96, 85490.39, 123067.60, 6176.10, 40519.55, 11304.46, 29746.21, 111242.30, 101532.05, 0.07, -0.28, 0.96
97, 85481.98, 123012.51, 6171.29, 40518.61, 11289.55, 29723.28, 111242.80, 101522.23, 0.00, 0.00, 0.00
98, 85479.57, 123047.66, 6165.06, 40501.00, 11279.79, 29716.82, 111266.17, 101520.55, 0.00, 0.00, 0.00
99, 85480.58, 123082.09, 6221.38, 40530.06, 11293.33, 29730.14, 111260.19, 101526.23, 0.00, 0.00, 0.00
100, 85486.08, 123093.31, 6150.46, 40523.73, 11296.10, 29725.20, 111265.26, 101533.09, 0.00, 0.00, 0.00
101, 85490.86, 123059.40, 6141.72, 40513.61, 11293.60, 29731.89, 111270.09, 101537.18, 0.00, 0.00, 0.00
102, 85479.84, 123058.04, 6154.08, 40499.32, 11283.72, 29718.45, 111251.71, 101522.72, 0.00, 0.00, 0.00
103, 85482.70, 123043.71, 6148.76, 40500.02, 11274.24, 29716.80, 111272.66, 101521.69, 0.00, 0.00, 0.00
104, 85489.56, 123079.18, 6149.93, 40499.71, 11274.89, 29712.26, 111276.66, 101531.09, 0.00, 0.00, 0.00
105, 85482.26, 123035.27, 6154.46, 40496.64, 11250.97, 29697.40, 111283.74, 101525.91, 0.00, 0.00, 0.00
106, 85485.56, 122991.45, 6169.80, 40512.02, 11271.05, 29708.02, 111263.25, 101527.52, 0.07, -0.28, 0.96
107, 85478.77, 123019.51, 6162.71, 40507.19, 11277.50, 29708.02, 111198.00, 101519.74, 0.00, 0.00, 0.00
108, 85468.27, 123035.89, 6144.61, 40494.41, 11273.97, 29703.54, 111207.39, 101509.55, 0.00, 0.00, 0.00
109, 85484.76, 123080.34, 6183.68, 40517.45, 11300.50, 29743.55, 111251.73, 101528.52, 0.00, 0.00, 0.00
110, 85475.62, 123098.18, 6181.17, 40516.74, 11295.66, 29727.13, 111265.73, 101517.82, 0.00, 0.00, 0.00
111, 85473.09, 123109.80, 6193.36, 40517.99, 11283.74, 29703.41, 111267.45, 101517.02, 0.00, 0.00, 0.00
112, 85476.51, 123082.42, 6165.64, 40517.14, 11285.31, 29719.91, 111235.55, 101519.90, 0.00, 0.00, 0.00
113, 85473.38, 123020.27, 6146.75, 40504.45, 11268.59, 29703.86, 111225.43, 101516.13, 0.00, 0.00, 0.00
114, 85477.00, 122989.55, 6125.61, 40498.32, 11270.93, 29709.13, 111224.87, 101516.79, 0.00, 0.00, 0.00
115, 85475.62, 123028.13, 6137.12, 40499.79, 11275.49, 29708.11, 111242.21, 101518.96, 0.00, 0.00, 0.00
116, 85479.75, 123034.93, 6146.86, 40501.61, 11271.47, 29703.19, 111255.98, 101525.40, 0.07, -0.28, 0.96
117, 85484.22, 123048.88, 6154.84, 40506.48, 11284.57, 29720.09, 111258.45, 101530.29, 0.00, 0.00, 0.00
118, 85477.96, 123041.95, 6162.22, 40507.75, 11276.28, 29726.72, 111246.51, 101522.31, 0.00, 0.00, 0.00
119, 85482.14, 123126.16, 6174.02, 40517.25, 11274.98, 29716.42, 111244.72, 101520.79, 0.00, 0.00, 0.00
120, 85486.41, 123166.22, 6178.96, 40515.57, 11287.56, 29720.46, 111261.03, 101523.95, 0.00, 0.00, 0.00
121, 85476.89, 122994.74, 6148.54, 40498.14, 11275.96, 29719.82, 111259.16, 101513.59, 0.00, 0.00, 0.00
122, 85478.73, 123012.15, 6153.41, 40510.43, 11273.57, 29707.77, 111257.91, 101512.19, 0.00, 0.00, 0.00
123, 85470.32, 123020.82, 6154.93, 40507.86, 11273.95, 29713.94, 111236.20, 101501.99, 0.00, 0.00, 0.00
124, 85469.96, 123065.86, 6152.18, 40500.76, 11261.95, 29707.30, 111204.87, 101503.76, 0.00, 0.00, 0.00
125, 85477.90, 123083.88, 6143.44, 40504.78, 11273.19, 29706.43, 111226.88, 101514.69, 0.00, 0.00, 0.00
126, 85480.42, 123073.80, 6145.77, 40510.57, 11282.09, 29716.49, 111235.17, 101513.55, 0.08, -0.28, 0.96
127, 85485.05, 123032.78, 6151.29, 40506.77, 11277.44, 29726.10, 111254.59, 101517.95, 0.00, 0.00, 0.00
128, 85480.65, 123032.22, 6159.56, 40513.38, 11277.10, 29731.08, 111252.54, 101513.59, 0.00, 0.00, 0.00
129, 85489.30, 123096.53, 6163.98, 40518.82, 11291.07, 29719.24, 111239.82, 101520.39, 0.00, 0.00, 0.00
130, 85492.83, 123095.99, 6134.95, 40504.96, 11284.68, 29708.35, 111218.21, 101522.91, 0.00, 0.00, 0.00
131, 85474.88, 123048.92, 6144.29, 40508.20, 11285.31, 29716.91, 111237.86, 101513.55, 0.00, 0.00, 0.00
132, 85466.67, 123063.85, 6179.72, 40520.54, 11291.90, 29725.99, 111249.39, 101511.59, 0.00, 0.00, 0.00
133, 85464.38, 123060.61, 6165.26, 40515.46, 11285.82, 29719.10, 111218.92, 101511.59, 0.00, 0.00, 0.00
134, 85464.64, 123044.49, 6167.23, 40522.75, 11288.84, 29719.30, 111245.92, 101512.84, 0.00, 0.00, 0.00
135, 85475.37, 123081.17, 6197.67, 40531.73, 11301.31, 29747.44, 111253.81, 101518.60, 0.00, 0.00, 0.00
136, 85462.20, 123061.57, 6167.07, 40516.18, 11280.08, 29717.40, 111221.38, 101497.79, 0.08, -0.28, 0.96
137, 85473.78, 123052.41, 6111.55, 40497.31, 11275.31, 29704.06, 111199.95, 101509.20, 0.00, 0.00, 0.00
138, 85479.41, 123113.49, 6139.47, 40522.73, 11296.26, 29729.70, 111259.91, 101520.93, 0.00, 0.00, 0.00
139, 85465.85, 123072.41, 6149.50, 40518.10, 11278.02, 29714.90, 111244.09, 101513.30, 0.00, 0.00, 0.00
140, 85470.59, 123056.63, 6169.64, 40520.67, 11286.89, 29719.71, 111227.82, 101520.63, 0.00, 0.00, 0.00
141, 85469.98, 123102.41, 6257.95, 40553.53, 11300.62, 29734.03, 111209.16, 101517.66, 0.00, 0.00, 0.00
142, 85459.77, 123097.09, 6179.27, 40520.49, 11287.61, 29714.90, 111190.88, 101505.08, 0.00, 0.00, 0.00
143, 85478.79, 123148.92, 6109.02, 40511.48, 11283.05, 29708.53, 111245.99, 101523.38, 0.00, 0.00, 0.00
144, 85473.07, 123037.03, 6120.18, 40509.81, 11264.88, 29701.98, 111262.04, 101514.80, 0.00, 0.00, 0.00
145, 85487.10, 123010.61, 6157.01, 40524.92, 11278.38, 29725.58, 111231.73, 101528.10, 0.00, 0.00, 0.00
146, 85481.74, 123040.07, 6159.85, 40519.00, 11276.39, 29712.98, 111224.16, 101520.86, 0.07, -0.29, 0.96
147, 85470.14, 123021.16, 6125.90, 40492.51, 11265.10, 29682.51, 111224.76, 101507.18, 0.00, 0.00, 0.00
148, 85483.35, 123050.22, 6144.85, 40510.73, 11281.55, 29707.61, 111233.95, 101520.30, 0.00, 0.00, 0.00
149, 85492.13, 123085.27, 6157.50, 40524.96, 11283.72, 29715.82, 111216.15, 101529.76, 0.00, 0.00, 0.00
150, 85484.42, 123078.73, 6158.46, 40523.69, 11285.66, 29713.71, 111229.83, 101521.87, 0.00, 0.00, 0.00
151, 85477.83, 123081.69, 6155.45, 40515.08, 11276.63, 29715.32, 111235.64, 101516.14, 0.00, 0.00, 0.00
152, 85473.02, 123053.79, 6177.28, 40518.21, 11272.27, 29710.14, 111214.59, 101514.45, 0.00, 0.00, 0.00
153, 85481.09, 123097.40, 6157.23, 40519.71, 11293.87, 29737.10, 111225.25, 101523.16, 0.00, 0.00, 0.00
154, 85485.34, 123069.15, 6161.59, 40520.09, 11291.27, 29725.94, 111208.95, 101524.19, 0.00, 0.00, 0.00
155, 85491.87, 123081.80, 6158.58, 40537.64, 11295.97, 29713.92, 111251.42, 101530.94, 0.00, 0.00, 0.00
156, 85485.48, 123047.80, 6187.59, 40540.32, 11290.85, 29720.60, 111213.88, 101523.92, 0.07, -0.29, 0.96
157, 85475.48, 122944.72, 6183.16, 40521.48, 11265.64, 29711.95, 111196.93, 101511.49, 0.00, 0.00, 0.00
158, 85481.47, 122997.02, 6143.18, 40511.73, 11255.35, 29704.71, 111228.71, 101517.73, 0.00, 0.00, 0.00
159, 85490.50, 123031.17, 6122.34, 40512.02, 11271.43, 29706.79, 111251.85, 101524.05, 0.00, 0.00, 0.00
160, 85485.79, 123041.41, 6127.31, 40504.04, 11281.17, 29708.44, 111217.54, 101521.24, 0.00, 0.00, 0.00
161, 85465.45, 123083.48, 6137.99, 40494.39, 11256.94, 29690.63, 111185.98, 101504.48, 0.00, 0.00, 0.00
162, 85493.16, 123117.63, 6166.98, 40536.65, 11292.55, 29723.97, 111210.84, 101530.60, 0.00, 0.00, 0.00
163, 85497.56, 123088.17, 6162.26, 40525.63, 11281.10, 29723.66, 111167.47, 101533.94, 0.00, 0.00, 0.00
164, 85483.22, 123053.39, 6159.49, 40516.43, 11269.53, 29713.27, 111154.84, 101519.92, 0.00, 0.00, 0.00
165, 85482.23, 123020.40, 6165.71, 40509.92, 11262.31, 29704.86, 111183.95, 101518.34, 0.00, 0.00, 0.00
166, 85485.32, 123064.16, 6155.76, 40518.32, 11275.11, 29701.96, 111194.18, 101522.38, 0.07, -0.30, 0.96
167, 85479.20, 123012.66, 6123.39, 40505.50, 11260.54, 29680.08, 111193.09, 101513.73, 0.00, 0.00, 0.00
168, 85485.25, 123005.91, 6133.07, 40511.17, 11269.93, 29688.50, 111225.20, 101520.73, 0.00, 0.00, 0.00
169, 85484.87, 123042.88, 6144.58, 40516.96, 11270.55, 29688.26, 111204.82, 101519.61, 0.00, 0.00, 0.00
170, 85491.30, 123106.27, 6152.61, 40521.70, 11281.33, 29701.91, 111157.21, 101523.66, 0.00, 0.00, 0.00
171, 85477.88, 123065.86, 6152.63, 40511.93, 11279.61, 29701.20, 111169.62, 101511.77, 0.00, 0.00, 0.00
172, 85478.08, 123052.23, 6199.73, 40526.84, 11276.92, 29697.89, 111128.71, 101513.23, 0.00, 0.00, 0.00
173, 85498.80, 123052.92, 6156.18, 40534.13, 11290.92, 29715.88, 111143.51, 101531.32, 0.00, 0.00, 0.00
174, 85495.77, 123074.00, 6122.39, 40516.31, 11281.77, 29711.79, 111145.63, 101528.62, 0.00, 0.00, 0.00
175, 85487.17, 123051.91, 6159.94, 40521.32, 11283.27, 29705.94, 111162.40, 101521.71, 0.00, 0.00, 0.00
176, 85491.04, 123050.95, 6138.93, 40519.00, 11291.23, 29726.12, 111207.55, 101524.55, 0.07, -0.29, 0.96
177, 85492.88, 123097.80, 6140.60, 40512.11, 11283.45, 29722.63, 111196.86, 101524.46, 0.00, 0.00, 0.00
178, 85473.76, 123014.41, 6142.91, 40491.88, 11257.46, 29683.00, 111133.83, 101502.69, 0.00, 0.00, 0.00
179, 85479.39, 123053.59, 6136.65, 40507.33, 11266.53, 29687.00, 111140.38, 101510.35, 0.00, 0.00, 0.00
180, 85498.73, 123155.67, 6165.15, 40538.06, 11289.35, 29713.83, 111196.23, 101531.95, 0.00, 0.00, 0.00
181, 85489.72, 123089.17, 6165.08, 40527.09, 11285.57, 29712.49, 111200.46, 101523.41, 0.00, 0.00, 0.00
182, 85493.50, 123042.59, 6141.57, 40524.23, 11269.95, 29705.40, 111154.33, 101524.88, 0.00, 0.00, 0.00
183, 85497.45, 123064.52, 6160.25, 40531.38, 11281.06, 29713.36, 111138.34, 101530.80, 0.00, 0.00, 0.00
184, 85489.92, 123018.21, 6171.83, 40528.54, 11286.83, 29712.31, 111146.86, 101520.70, 0.00, 0.00, 0.00
185, 85488.71, 123083.92, 6131.60, 40518.08, 11268.01, 29695.77, 111152.59, 101513.75, 0.00, 0.00, 0.00
186, 85487.44, 123085.48, 6129.94, 40506.70, 11260.27, 29682.20, 111176.86, 101515.43, 0.07, -0.29, 0.96
187, 85492.80, 123104.27, 6158.17, 40523.62, 11281.86, 29704.71, 111202.67, 101525.71, 0.00, 0.00, 0.00
188, 85488.02, 123098.49, 6172.46, 40531.47, 11282.36, 29714.68, 111148.13, 101522.94, 0.00, 0.00, 0.00
189, 85489.23, 123082.34, 6163.54, 40523.73, 11280.21, 29707.12, 111149.73, 101522.07, 0.00, 0.00, 0.00
190, 85497.16, 123099.21, 6167.02, 40523.80, 11281.89, 29711.75, 111114.52, 101528.98, 0.00, 0.00, 0.00
191, 85499.58, 123121.92, 6176.10, 40527.64, 11279.23, 29719.37, 111114.14, 101529.17, 0.00, 0.00, 0.00
192, 85489.32, 122964.30, 6186.20, 40522.32, 11274.02, 29697.24, 111117.91, 101519.34, 0.00, 0.00, 0.00
193, 85501.08, 122995.59, 6174.42, 40524.14, 11290.16, 29713.69, 111154.51, 101529.78, 0.00, 0.00, 0.00
194, 85493.41, 123040.36, 6125.23, 40513.09, 11273.37, 29704.37, 111159.60, 101519.85, 0.00, 0.00, 0.00
195, 85484.96, 123084.41, 6085.96, 40485.82, 11257.75, 29691.10, 111150.73, 101511.67, 0.00, 0.00, 0.00
196, 85487.02, 123044.41, 6116.96, 40499.75, 11272.72, 29697.09, 111175.70, 101514.67, 0.07, -0.29, 0.95
197, 85505.32, 123056.09, 6149.81, 40531.40, 11281.91, 29711.95, 111184.30, 101533.84, 0.00, 0.00, 0.00
198, 85502.51, 123103.70, 6144.85, 40526.73, 11268.14, 29695.23, 111159.87, 101530.41, 0.00, 0.00, 0.00
199, 85503.33, 123059.05, 6148.81, 40520.85, 11275.02, 29698.43, 111204.55, 101532.08, 0.00, 0.00, 0.00
200, 85500.59, 123037.05, 6165.26, 40529.19, 11280.46, 29706.45, 111167.36, 101526.63, 0.00, 0.00, 0.00
201, 85507.00, 123142.10, 6166.60, 40534.91, 11280.50, 29711.97, 111100.41, 101532.20, 0.00, 0.00, 0.00
202, 85501.97, 123064.72, 6134.79, 40523.44, 11271.85, 29705.71, 111133.48, 101527.25, 0.00, 0.00, 0.00
203, 85500.29, 123010.72, 6138.15, 40518.66, 11271.18, 29694.69, 111216.09, 101526.27, 0.00, 0.00, 0.00
204, 85495.84, 123031.93, 6132.18, 40515.33, 11266.06, 29699.05, 111176.95, 101522.72, 0.00, 0.00, 0.00
205, 85496.41, 123064.97, 6136.76, 40518.84, 11268.14, 29694.13, 111119.39, 101525.55, 0.00, 0.00, 0.00
206, 85494.48, 123100.51, 6146.57, 40518.37, 11267.83, 29695.48, 111124.22, 101525.82, 0.07, -0.28, 0.95
207, 85498.62, 123068.86, 6148.36, 40522.82, 11269.93, 29698.70, 111129.90, 101531.90, 0.00, 0.00, 0.00
208, 85489.07, 123084.88, 6145.68, 40518.75, 11248.11, 29687.21, 111138.50, 101520.93, 0.00, 0.00, 0.00
209, 85489.14, 123061.75, 6163.45, 40525.05, 11268.88, 29715.06, 111151.58, 101518.24, 0.00, 0.00, 0.00
210, 85496.11, 123072.52, 6149.21, 40527.46, 11272.45, 29708.35, 111163.23, 101521.91, 0.00, 0.00, 0.00
211, 85482.52, 123068.57, 6126.01, 40504.55, 11265.79, 29701.98, 111163.47, 101509.02, 0.00, 0.00, 0.00
212, 85496.27, 123109.09, 6139.73, 40517.72, 11280.50, 29715.26, 111222.68, 101526.85, 0.00, 0.00, 0.00
213, 85491.98, 123089.78, 6126.19, 40521.90, 11272.43, 29701.67, 111173.35, 101523.03, 0.00, 0.00, 0.00
214, 85486.23, 123016.13, 6141.28, 40533.95, 11259.07, 29687.92, 111134.16, 101514.73, 0.00, 0.00, 0.00
215, 85497.70, 123067.72, 6156.61, 40528.74, 11282.40, 29702.32, 111103.99, 101521.06, 0.00, 0.00, 0.00
216, 85490.81, 123098.72, 6121.85, 40528.81, 11279.11, 29704.30, 111117.94, 101513.91, 0.07, -0.28, 0.95
217, 85477.18, 123016.80, 6106.00, 40506.46, 11247.17, 29682.74, 111149.16, 101502.09, 0.00, 0.00, 0.00
218, 85496.76, 123060.30, 6144.25, 40529.41, 11278.31, 29706.79, 111171.38, 101519.79, 0.00, 0.00, 0.00
219, 85490.86, 123031.53, 6136.25, 40517.30, 11269.24, 29699.57, 111191.45, 101515.96, 0.00, 0.00, 0.00
220, 85491.27, 123068.66, 6139.76, 40528.81, 11269.62, 29700.64, 111156.43, 101517.40, 0.00, 0.00, 0.00
221, 85499.91, 123091.74, 6143.33, 40537.84, 11280.21, 29710.09, 111142.52, 101524.26, 0.00, 0.00, 0.00
222, 85493.32, 123131.30, 6191.88, 40540.54, 11268.16, 29696.93, 111163.96, 101518.11, 0.00, 0.00, 0.00
223, 85494.10, 123140.45, 6156.63, 40541.32, 11275.38, 29709.13, 111214.30, 101521.09, 0.00, 0.00, 0.00
224, 85487.04, 123047.94, 6083.05, 40505.58, 11256.58, 29687.50, 111154.39, 101510.20, 0.00, 0.00, 0.00
225, 85485.65, 122995.34, 6105.20, 40510.34, 11250.82, 29676.83, 111098.72, 101505.93, 0.00, 0.00, 0.00
226, 85492.85, 123047.45, 6123.91, 40522.48, 11257.30, 29689.13, 111116.69, 101516.44, 0.07, -0.28, 0.96
227, 85494.77, 123057.77, 6120.06, 40519.60, 11267.11, 29691.01, 111122.50, 101517.20, 0.00, 0.00, 0.00
228, 85495.02, 123105.67, 6131.55, 40520.63, 11265.08, 29696.10, 111130.73, 101516.08, 0.00, 0.00, 0.00
229, 85499.35, 123122.41, 6137.32, 40533.41, 11263.42, 29698.22, 111169.84, 101521.04, 0.00, 0.00, 0.00
230, 85500.65, 123175.41, 6155.54, 40534.11, 11256.76, 29692.68, 111183.32, 101522.54, 0.00, 0.00, 0.00
231, 85489.18, 123086.05, 6153.59, 40524.45, 11253.92, 29695.95, 111168.16, 101509.80, 0.00, 0.00, 0.00
232, 85500.27, 123049.73, 6131.84, 40534.46, 11269.68, 29711.88, 111168.03, 101519.14, 0.00, 0.00, 0.00
233, 85491.13, 123089.16, 6097.22, 40505.14, 11247.93, 29677.51, 111141.05, 101511.30, 0.00, 0.00, 0.00
234, 85481.96, 123046.70, 6104.86, 40506.25, 11239.82, 29673.73, 111118.85, 101505.44, 0.00, 0.00, 0.00
235, 85495.66, 123043.06, 6141.72, 40530.82, 11270.17, 29693.93, 111166.35, 101516.10, 0.08, -0.28, 0.96
236, 85485.77, 123077.93, 6157.97, 40534.44, 11272.14, 29693.31, 111162.62, 101504.72, 0.00, 0.00, 0.00
237, 85491.11, 123139.98, 6138.64, 40532.68, 11264.34, 29688.10, 111151.16, 101509.04, 0.00, 0.00, 0.00
238, 85497.48, 123106.84, 6119.37, 40530.04, 11261.50, 29695.88, 111127.48, 101513.13, 0.00, 0.00, 0.00
239, 85491.24, 123083.56, 6134.70, 40534.13, 11251.78, 29691.14, 111106.02, 101506.82, 0.00, 0.00, 0.00
240, 85492.23, 123109.47, 6126.30, 40525.93, 11244.85, 29679.54, 111118.77, 101505.03, 0.00, 0.00, 0.00
241, 85487.51, 123017.88, 6118.34, 40515.17, 11246.35, 29682.98, 111149.37, 101500.97, 0.00, 0.00, 0.00
242, 85493.50, 123066.98, 6126.48, 40538.26, 11275.90, 29702.09, 111125.12, 101508.56, 0.00, 0.00, 0.00
243, 85488.83, 123077.48, 6143.02, 40533.97, 11267.94, 29693.26, 111122.45, 101503.27, 0.00, 0.00, 0.00
244, 85505.79, 123113.85, 6128.51, 40541.95, 11272.59, 29709.07, 111182.58, 101520.19, 0.00, 0.00, 0.00
245, 85507.45, 123141.63, 6125.63, 40545.53, 11278.04, 29717.29, 111202.63, 101522.47, 0.07, -0.28, 0.95
246, 85501.19, 123101.65, 6140.25, 40544.97, 11262.73, 29692.71, 111151.11, 101515.77, 0.00, 0.00, 0.00
247, 85489.59, 123050.66, 6121.74, 40530.39, 11254.24, 29679.45, 111105.34, 101505.37, 0.00, 0.00, 0.00
248, 85485.80, 123062.80, 6127.44, 40529.16, 11259.33, 29684.61, 111150.44, 101503.91, 0.00, 0.00, 0.00
249, 85490.01, 123072.39, 6136.72, 40539.22, 11260.07, 29690.49, 111159.34, 101509.39, 0.00, 0.00, 0.00
250, 85493.99, 123077.09, 6137.63, 40540.23, 11269.10, 29700.73, 111103.01, 101513.75, 0.00, 0.00, 0.00
251, 85487.82, 123114.12, 6118.97, 40527.71, 11261.43, 29690.20, 111118.23, 101506.27, 0.00, 0.00, 0.00
252, 85484.42, 123089.17, 6107.57, 40521.61, 11248.05, 29671.47, 111143.66, 101501.64, 0.00, 0.00, 0.00
253, 85485.56, 123043.60, 6114.95, 40522.84, 11245.07, 29679.34, 111163.13, 101499.72, 0.00, 0.00, 0.00
254, 85508.20, 123097.47, 6154.37, 40549.71, 11275.43, 29700.35, 111178.63, 101519.92, 0.00, 0.00, 0.00
255, 85515.70, 123193.63, 6136.83, 40548.88, 11281.91, 29711.75, 111149.16, 101529.02, 0.07, -0.28, 0.95
0, 85491.48, 123148.90, 6122.88, 40525.84, 11255.47, 29691.61, 111122.38, 101504.50, 0.00, 0.00, 0.00
1, 85486.32, 123000.84, 6112.11, 40531.38, 11256.63, 29689.78, 111089.62, 101496.70, 0.00, 0.00, 0.00
2, 85492.70, 123026.55, 6117.18, 40533.90, 11251.38, 29684.63, 111116.75, 101504.38, 0.00, 0.00, 0.00
3, 85491.27, 123049.23, 6111.93, 40525.19, 11256.74, 29682.15, 111115.68, 101503.36, 0.00, 0.00, 0.00
4, 85501.92, 123124.34, 6155.13, 40539.56, 11263.47, 29698.83, 111162.09, 101513.28, 0.00, 0.00, 0.00
5, 85499.33, 123126.77, 6167.65, 40557.95, 11282.51, 29715.10, 111213.42, 101512.21, 0.00, 0.00, 0.00
6, 85497.34, 123139.24, 6121.27, 40539.11, 11266.51, 29693.98, 111174.02, 101508.41, 0.00, 0.00, 0.00
7, 85496.38, 123054.02, 6087.90, 40532.03, 11247.91, 29688.37, 111112.55, 101505.64, 0.00, 0.00, 0.00
8, 85510.22, 123033.56, 6113.63, 40545.57, 11263.27, 29701.36, 111093.71, 101519.16, 0.00, 0.00, 0.00
9, 85505.01, 123077.77, 6133.27, 40549.15, 11281.06, 29696.44, 111126.41, 101518.70, 0.08, -0.28, 0.96
10, 85495.62, 123085.58, 6129.09, 40539.38, 11255.47, 29680.90, 111099.19, 101509.17, 0.00, 0.00, 0.00
11, 85497.09, 123086.80, 6139.20, 40552.41, 11257.54, 29692.28, 111100.08, 101510.96, 0.00, 0.00, 0.00
12, 85505.57, 123182.72, 6124.65, 40540.32, 11273.95, 29715.39, 111136.53, 101519.38, 0.00, 0.00, 0.00
13, 85498.34, 123060.52, 6109.13, 40525.99, 11271.27, 29706.05, 111143.89, 101510.58, 0.00, 0.00, 0.00
14, 85505.91, 123053.39, 6122.95, 40553.68, 11267.16, 29693.53, 111181.40, 101515.61, 0.00, 0.00, 0.00
15, 85501.32, 123092.70, 6115.33, 40550.58, 11253.57, 29690.22, 111158.04, 101510.51, 0.00, 0.00, 0.00
16, 85506.62, 123099.66, 6135.91, 40551.76, 11254.97, 29687.72, 111130.50, 101518.06, 0.00, 0.00, 0.00
17, 85496.56, 123082.76, 6135.33, 40541.10, 11258.42, 29697.85, 111093.06, 101509.82, 0.00, 0.00, 0.00
18, 85498.77, 123083.59, 6127.42, 40544.45, 11259.65, 29699.21, 111099.21, 101511.96, 0.00, 0.00, 0.00
19, 85505.21, 123109.49, 6123.37, 40544.83, 11272.30, 29697.64, 111160.23, 101517.69, 0.07, -0.29, 0.95
20, 85500.09, 123087.77, 6132.85, 40542.02, 11269.03, 29710.25, 111149.79, 101512.32, 0.00, 0.00, 0.00
21, 85488.73, 123060.30, 6150.40, 40548.97, 11262.10, 29719.79, 111140.11, 101502.64, 0.00, 0.00, 0.00
22, 85505.59, 123105.49, 6134.64, 40553.46, 11266.24, 29711.35, 111155.65, 101516.34, 0.00, 0.00, 0.00
23, 85499.91, 123130.75, 6134.28, 40539.60, 11234.34, 29663.96, 111153.79, 101511.34, 0.00, 0.00, 0.00
24, 85495.22, 123119.91, 6121.27, 40539.89, 11251.44, 29680.77, 111166.89, 101505.99, 0.00, 0.00, 0.00
25, 85517.46, 123145.75, 6102.65, 40545.17, 11267.69, 29696.10, 111155.87, 101525.60, 0.00, 0.00, 0.00
26, 85509.14, 123087.55, 6107.06, 40535.87, 11252.05, 29687.61, 111116.09, 101516.79, 0.00, 0.00, 0.00
27, 85506.80, 123034.75, 6103.77, 40537.66, 11264.68, 29694.83, 111072.25, 101517.44, 0.00, 0.00, 0.00
28, 85504.23, 123067.45, 6118.30, 40537.66, 11258.71, 29696.30, 111072.54, 101514.24, 0.00, 0.00, 0.00
29, 85513.10, 123086.74, 6123.91, 40536.41, 11259.71, 29693.22, 111091.02, 101519.74, 0.07, -0.29, 0.95
30, 85509.48, 123118.57, 6116.44, 40544.36, 11260.79, 29688.19, 111137.20, 101522.78, 0.00, 0.00, 0.00
31, 85503.94, 123088.75, 6117.74, 40544.79, 11265.70, 29692.75, 111166.48, 101517.55, 0.00, 0.00, 0.00
32, 85504.83, 123095.97, 6109.83, 40538.87, 11261.99, 29690.69, 111142.39, 101518.73, 0.00, 0.00, 0.00
33, 85497.19, 123110.74, 6102.83, 40545.30, 11254.24, 29688.41, 111114.50, 101510.47, 0.00, 0.00, 0.00
34, 85507.94, 123072.84, 6115.57, 40550.60, 11265.90, 29699.86, 111143.58, 101516.05, 0.00, 0.00, 0.00
35, 85504.43, 123082.40, 6133.88, 40556.39, 11259.96, 29686.74, 111160.48, 101512.73, 0.00, 0.00, 0.00
36, 85503.76, 123092.23, 6151.11, 40569.71, 11264.00, 29699.14, 111165.88, 101513.53, 0.00, 0.00, 0.00
37, 85498.52, 123079.45, 6124.22, 40559.63, 11259.09, 29691.70, 111152.45, 101507.96, 0.00, 0.00, 0.00
38, 85498.73, 123126.99, 6103.72, 40555.79, 11261.34, 29691.61, 111104.91, 101509.39, 0.00, 0.00, 0.00
39, 85504.09, 123100.51, 6111.59, 40550.94, 11255.87, 29692.71, 111097.30, 101514.09, 0.07, -0.28, 0.95
40, 85493.20, 123076.30, 6127.28, 40556.05, 11261.03, 29687.88, 111107.63, 101505.52, 0.00, 0.00, 0.00
41, 85500.90, 123097.83, 6114.39, 40560.50, 11266.35, 29696.10, 111107.68, 101513.57, 0.00, 0.00, 0.00
42, 85513.08, 123145.45, 6117.31, 40563.68, 11283.05, 29716.42, 111130.26, 101524.48, 0.00, 0.00, 0.00
43, 85503.11, 123086.36, 6112.33, 40549.26, 11266.60, 29699.72, 111125.59, 101512.97, 0.00, 0.00, 0.00
44, 85506.55, 123068.63, 6138.33, 40561.78, 11267.98, 29705.82, 111132.67, 101514.45, 0.00, 0.00, 0.00
45, 85506.87, 123088.93, 6132.67, 40567.30, 11272.03, 29715.17, 111133.27, 101511.54, 0.00, 0.00, 0.00
46, 85493.85, 123109.78, 6100.31, 40542.69, 11245.70, 29686.42, 111127.88, 101496.48, 0.00, 0.00, 0.00
47, 85501.70, 123079.67, 6090.65, 40537.14, 11250.06, 29683.25, 111141.05, 101508.12, 0.00, 0.00, 0.00
48, 85504.18, 123073.98, 6109.60, 40561.82, 11271.72, 29689.13, 111130.81, 101513.77, 0.00, 0.00, 0.00
49, 85499.55, 123106.85, 6123.91, 40562.52, 11275.27, 29696.26, 111115.63, 101508.66, 0.07, -0.28, 0.96
50, 85497.07, 123121.41, 6136.63, 40559.77, 11253.97, 29688.17, 111135.02, 101501.44, 0.00, 0.00, 0.00
51, 85498.98, 123112.35, 6125.27, 40567.77, 11258.04, 29693.67, 111144.34, 101503.25, 0.00, 0.00, 0.00
52, 85512.14, 123149.41, 6106.16, 40561.78, 11277.15, 29708.04, 111122.41, 101516.26, 0.00, 0.00, 0.00
53, 85497.01, 123113.92, 6120.98, 40555.92, 11259.15, 29689.55, 111118.66, 101503.88, 0.00, 0.00, 0.00
54, 85494.77, 123067.16, 6119.66, 40545.41, 11247.02, 29681.28, 111133.07, 101499.80, 0.00, 0.00, 0.00
55, 85509.45, 123103.41, 6107.14, 40541.17, 11251.38, 29686.47, 111125.60, 101510.02, 0.00, 0.00, 0.00
56, 85508.80, 123081.11, 6103.57, 40549.71, 11254.04, 29686.51, 111139.98, 101511.23, 0.00, 0.00, 0.00
57, 85498.73, 123074.09, 6137.32, 40556.23, 11254.17, 29699.57, 111149.84, 101508.77, 0.00, 0.00, 0.00
58, 85492.00, 123065.70, 6112.49, 40548.75, 11251.55, 29695.16, 111137.90, 101505.51, 0.00, 0.00, 0.00
59, 85497.68, 123102.25, 6088.39, 40545.23, 11251.73, 29679.05, 111123.77, 101510.53, 0.07, -0.28, 0.95
60, 85498.57, 123103.73, 6087.56, 40540.30, 11243.22, 29672.23, 111138.08, 101509.73, 0.00, 0.00, 0.00
61, 85503.09, 123103.81, 6103.41, 40549.59, 11248.51, 29677.33, 111130.32, 101517.80, 0.00, 0.00, 0.00
62, 85505.61, 123086.05, 6119.55, 40562.49, 11254.44, 29680.99, 111121.88, 101519.36, 0.00, 0.00, 0.00
63, 85503.02, 123065.03, 6103.79, 40548.39, 11242.99, 29681.04, 111124.82, 101516.10, 0.00, 0.00, 0.00
64, 85505.59, 123088.66, 6123.06, 40557.15, 11239.71, 29689.66, 111119.59, 101518.29, 0.00, 0.00, 0.00
65, 85491.04, 123072.43, 6165.59, 40553.39, 11254.55, 29683.12, 111110.98, 101503.45, 0.00, 0.00, 0.00
66, 85498.75, 123097.34, 6097.22, 40551.07, 11260.27, 29688.41, 111127.51, 101511.47, 0.00, 0.00, 0.00
67, 85512.59, 123136.63, 6056.61, 40534.60, 11253.99, 29698.49, 111147.47, 101521.46, 0.00, 0.00, 0.00
68, 85508.52, 123080.03, 6066.20, 40536.41, 11250.17, 29704.60, 111149.48, 101513.26, 0.00, 0.00, 0.00
69, 85509.28, 123067.60, 6091.16, 40543.52, 11245.36, 29684.14, 111146.41, 101511.77, 0.07, -0.28, 0.96
70, 85513.32, 123067.59, 6105.00, 40553.13, 11251.11, 29673.91, 111142.19, 101515.41, 0.00, 0.00, 0.00
71, 85512.20, 123078.00, 6087.41, 40548.10, 11263.42, 29687.81, 111130.21, 101514.96, 0.00, 0.00, 0.00
72, 85505.45, 123080.62, 6086.76, 40542.62, 11259.42, 29687.83, 111125.85, 101509.77, 0.00, 0.00, 0.00
73, 85505.01, 123088.52, 6095.52, 40547.52, 11251.85, 29690.25, 111131.15, 101508.56, 0.00, 0.00, 0.00
74, 85505.95, 123082.76, 6111.46, 40557.82, 11251.53, 29683.41, 111137.27, 101508.45, 0.00, 0.00, 0.00
75, 85509.08, 123080.70, 6113.56, 40558.20, 11261.97, 29692.86, 111137.92, 101511.85, 0.00, 0.00, 0.00
76, 85511.70, 123117.16, 6089.93, 40553.53, 11268.94, 29699.52, 111153.05, 101510.80, 0.00, 0.00, 0.00
77, 85500.88, 123112.58, 6072.10, 40534.35, 11247.04, 29671.47, 111148.94, 101497.59, 0.00, 0.00, 0.00
78, 85514.82, 123132.38, 6093.71, 40551.41, 11257.28, 29690.69, 111130.81, 101513.75, 0.00, 0.00, 0.00
79, 85519.85, 123107.73, 6119.59, 40566.87, 11265.61, 29697.94, 111120.09, 101519.72, 0.07, -0.28, 0.96
80, 85505.57, 123081.30, 6096.04, 40548.34, 11253.63, 29692.37, 111141.61, 101504.79, 0.00, 0.00, 0.00
81, 85505.74, 123052.49, 6089.93, 40549.55, 11254.75, 29694.43, 111149.03, 101506.27, 0.00, 0.00, 0.00
82, 85497.12, 123064.81, 6064.83, 40540.39, 11245.36, 29696.48, 111114.38, 101500.14, 0.00, 0.00, 0.00
83, 85503.89, 123088.73, 6073.51, 40542.35, 11244.69, 29686.22, 111112.91, 101507.05, 0.00, 0.00, 0.00
84, 85507.55, 123075.45, 6084.75, 40555.68, 11248.96, 29683.32, 111143.66, 101507.76, 0.00, 0.00, 0.00
85, 85508.30, 123092.51, 6089.42, 40556.16, 11263.92, 29694.36, 111156.77, 101508.68, 0.00, 0.00, 0.00
86, 85506.51, 123115.51, 6088.91, 40547.88, 11247.71, 29688.41, 111127.08, 101505.51, 0.00, 0.00, 0.00
87, 85508.79, 123088.41, 6115.86, 40555.63, 11249.25, 29698.74, 111118.14, 101507.12, 0.00, 0.00, 0.00
88, 85503.38, 123066.38, 6118.63, 40555.90, 11255.69, 29698.90, 111119.70, 101500.97, 0.00, 0.00, 0.00
89, 85505.32, 123073.04, 6089.46, 40529.79, 11250.42, 29687.23, 111130.03, 101504.95, 0.07, -0.27, 0.96
90, 85506.10, 123112.33, 6061.97, 40546.76, 11240.22, 29686.96, 111121.76, 101510.58, 0.00, 0.00, 0.00
91, 85498.30, 123067.43, 6053.48, 40537.66, 11239.60, 29674.15, 111119.55, 101498.46, 0.00, 0.00, 0.00
92, 85491.64, 123086.56, 6069.79, 40540.61, 11244.33, 29676.61, 111131.26, 101482.98, 0.00, 0.00, 0.00
93, 85507.34, 123099.70, 6096.59, 40557.60, 11269.86, 29699.63, 111145.88, 101499.58, 0.00, 0.00, 0.00
94, 85508.67, 123104.28, 6141.32, 40579.43, 11276.03, 29704.24, 111102.88, 101503.65, 0.00, 0.00, 0.00
95, 85502.05, 123128.98, 6135.73, 40572.84, 11264.79, 29682.78, 111090.52, 101497.05, 0.00, 0.00, 0.00
96, 85504.09, 123128.23, 6060.85, 40543.11, 11255.47, 29680.84, 111110.27, 101496.61, 0.00, 0.00, 0.00
97, 85507.55, 123058.71, 6045.16, 40547.85, 11250.37, 29677.10, 111114.34, 101496.43, 0.00, 0.00, 0.00
98, 85507.00, 123042.10, 6061.48, 40552.48, 11247.58, 29677.01, 111098.38, 101496.98, 0.00, 0.00, 0.00
99, 85507.27, 123063.58, 6082.89, 40559.47, 11253.83, 29677.82, 111119.15, 101500.36, 0.07, -0.28, 0.96
100, 85506.73, 123088.88, 6105.92, 40568.73, 11252.83, 29688.44, 111100.95, 101504.16, 0.00, 0.00, 0.00
101, 85501.84, 123090.94, 6092.17, 40553.35, 11237.70, 29688.12, 111094.29, 101499.31, 0.00, 0.00, 0.00
102, 85496.45, 123087.84, 6052.43, 40542.66, 11246.44, 29668.88, 111104.73, 101493.79, 0.00, 0.00, 0.00
103, 85499.87, 123086.67, 6062.33, 40548.10, 11256.74, 29677.75, 111074.51, 101498.04, 0.00, 0.00, 0.00
104, 85498.82, 123114.45, 6072.45, 40551.00, 11252.94, 29678.51, 111075.25, 101494.04, 0.00, 0.00, 0.00
105, 85495.89, 123108.53, 6091.83, 40554.40, 11241.12, 29680.57, 111088.63, 101489.27, 0.00, 0.00, 0.00
106, 85495.55, 123080.79, 6077.53, 40542.55, 11225.36, 29665.81, 111093.59, 101490.23, 0.00, 0.00, 0.00
107, 85511.31, 123114.25, 6105.24, 40558.78, 11251.78, 29689.91, 111148.59, 101507.07, 0.00, 0.00, 0.00
108, 85507.69, 123109.76, 6128.87, 40576.53, 11257.21, 29693.58, 111129.85, 101502.09, 0.00, 0.00, 0.00
109, 85501.12, 123071.80, 6070.26, 40557.53, 11248.31, 29688.12, 111055.73, 101494.13, 0.08, -0.27, 0.96
110, 85501.41, 123075.65, 6039.08, 40539.49, 11230.37, 29671.07, 111071.91, 101493.88, 0.00, 0.00, 0.00
111, 85518.30, 123111.77, 6077.17, 40569.06, 11252.34, 29690.60, 111087.56, 101510.45, 0.00, 0.00, 0.00
112, 85510.62, 123120.47, 6085.22, 40562.11, 11261.52, 29686.74, 111110.59, 101504.50, 0.00, 0.00, 0.00
113, 85499.64, 123052.07, 6066.06, 40549.06, 11240.71, 29674.20, 111072.20, 101494.48, 0.00, 0.00, 0.00
114, 85500.85, 123053.59, 6079.54, 40550.94, 11245.05, 29682.71, 111051.53, 101492.48, 0.00, 0.00, 0.00
115, 85509.37, 123082.91, 6115.57, 40571.16, 11252.09, 29690.40, 111066.66, 101496.79, 0.00, 0.00, 0.00
116, 85509.10, 123109.72, 6093.22, 40580.21, 11254.86, 29684.93, 111086.67, 101497.68, 0.00, 0.00, 0.00
117, 85510.13, 123146.02, 6065.88, 40560.14, 11250.66, 29687.34, 111104.57, 101503.73, 0.00, 0.00, 0.00
118, 85508.14, 123092.93, 6076.39, 40561.51, 11247.96, 29691.01, 111102.56, 101500.56, 0.00, 0.00, 0.00
119, 85499.47, 123001.49, 6081.60, 40559.43, 11228.96, 29671.45, 111092.50, 101491.63, 0.08, -0.28, 0.96
120, 85501.37, 123032.00, 6101.80, 40563.63, 11218.27, 29661.35, 111056.34, 101492.61, 0.00, 0.00, 0.00
121, 85500.98, 123047.06, 6142.08, 40565.06, 11235.19, 29682.47, 111043.64, 101493.52, 0.00, 0.00, 0.00
122, 85503.20, 123075.36, 6069.66, 40553.21, 11247.53, 29697.40, 111040.89, 101496.74, 0.00, 0.00, 0.00
123, 85505.12, 123065.13, 6069.08, 40547.96, 11239.04, 29661.55, 111053.32, 101496.79, 0.00, 0.00, 0.00
124, 85518.02, 123092.82, 6110.05, 40578.50, 11247.46, 29683.81, 111065.68, 101509.17, 0.00, 0.00, 0.00
125, 85515.34, 123080.95, 6067.90, 40551.52, 11239.66, 29682.89, 111079.47, 101508.56, 0.00, 0.00, 0.00
126, 85514.84, 123103.68, 6073.04, 40554.07, 11228.22, 29685.87, 111085.28, 101508.92, 0.00, 0.00, 0.00
127, 85508.36, 123066.87, 6061.73, 40546.71, 11218.25, 29672.83, 111053.92, 101503.54, 0.00, 0.00, 0.00
128, 85502.15, 123050.41, 6067.11, 40538.53, 11213.04, 29664.03, 111043.38, 101494.10, 0.00, 0.00, 0.00
129, 85508.43, 123103.50, 6111.28, 40556.10, 11225.92, 29692.32, 111071.89, 101497.66, 0.08, -0.28, 0.96
130, 85511.27, 123093.65, 6088.03, 40556.48, 11229.31, 29683.70, 111087.48, 101493.77, 0.00, 0.00, 0.00
131, 85513.95, 123068.66, 6068.68, 40544.14, 11238.97, 29669.03, 111077.57, 101497.16, 0.00, 0.00, 0.00
132, 85501.30, 123033.79, 6135.80, 40571.30, 11243.78, 29676.59, 111027.15, 101488.12, 0.00, 0.00, 0.00
133, 85503.38, 123065.21, 6085.91, 40557.86, 11222.12, 29655.73, 111019.75, 101487.45, 0.00, 0.00, 0.00
134, 85497.01, 123098.95, 6035.60, 40536.45, 11228.24, 29666.15, 111016.17, 101480.23, 0.00, 0.00, 0.00
135, 85508.41, 123093.24, 6064.99, 40565.04, 11241.76, 29690.31, 111038.92, 101493.77, 0.00, 0.00, 0.00
136, 85511.73, 123083.38, 6065.50, 40566.83, 11251.69, 29689.66, 111051.27, 101497.91, 0.00, 0.00, 0.00
137, 85514.55, 123092.37, 6099.01, 40563.05, 11249.86, 29681.78, 111059.98, 101501.66, 0.00, 0.00, 0.00
138, 85510.46, 123090.23, 6138.12, 40573.13, 11254.57, 29692.73, 111063.49, 101496.16, 0.00, 0.00, 0.00
139, 85508.34, 123076.55, 6106.25, 40561.31, 11241.83, 29682.24, 111059.09, 101494.59, 0.08, -0.28, 0.97
140, 85516.14, 123118.23, 6073.64, 40560.99, 11249.32, 29683.43, 111048.29, 101502.04, 0.00, 0.00, 0.00
141, 85520.74, 123146.13, 6076.05, 40563.52, 11255.51, 29697.15, 111061.70, 101505.73, 0.00, 0.00, 0.00
142, 85512.36, 123119.51, 6064.39, 40548.25, 11246.30, 29682.13, 111079.90, 101498.40, 0.00, 0.00, 0.00
143, 85518.17, 123085.38, 6117.11, 40577.55, 11263.02, 29691.65, 111065.45, 101506.63, 0.00, 0.00, 0.00
144, 85514.73, 123058.38, 6096.35, 40571.75, 11254.37, 29707.46, 111036.53, 101505.70, 0.00, 0.00, 0.00
145, 85515.65, 123057.50, 6084.55, 40568.62, 11251.40, 29703.59, 111049.20, 101504.19, 0.00, 0.00, 0.00
146, 85518.15, 123110.63, 6075.41, 40564.30, 11236.47, 29664.21, 111061.23, 101508.52, 0.00, 0.00, 0.00
147, 85511.76, 123080.15, 6064.27, 40554.91, 11235.17, 29659.27, 111033.18, 101503.18, 0.00, 0.00, 0.00
148, 85513.26, 123069.21, 6085.44, 40567.92, 11247.13, 29672.30, 111012.59, 101500.68, 0.00, 0.00, 0.00
149, 85517.86, 123081.30, 6094.94, 40570.34, 11251.69, 29675.09, 111017.63, 101503.65, 0.08, -0.28, 0.96
150, 85514.33, 123104.71, 6103.77, 40565.71, 11235.62, 29678.47, 111034.14, 101500.34, 0.00, 0.00, 0.00
151, 85526.33, 123132.13, 6151.67, 40585.45, 11258.42, 29703.34, 111045.23, 101513.93, 0.00, 0.00, 0.00
152, 85524.99, 123113.05, 6080.66, 40568.62, 11257.25, 29680.17, 111054.55, 101514.47, 0.00, 0.00, 0.00
153, 85517.68, 123122.70, 6056.96, 40557.15, 11225.25, 29661.37, 111031.75, 101507.38, 0.00, 0.00, 0.00
154, 85523.98, 123091.74, 6084.68, 40565.35, 11237.88, 29674.73, 111023.62, 101515.18, 0.00, 0.00, 0.00
155, 85520.56, 123080.84, 6108.44, 40573.54, 11254.71, 29687.83, 111019.77, 101507.72, 0.00, 0.00, 0.00
156, 85514.80, 123076.77, 6100.39, 40570.52, 11246.75, 29685.33, 111030.25, 101500.23, 0.00, 0.00, 0.00
157, 85511.09, 123050.06, 6099.63, 40563.99, 11257.30, 29701.91, 111011.73, 101499.13, 0.00, 0.00, 0.00
158, 85502.37, 123061.98, 6120.49, 40567.66, 11246.77, 29657.01, 111012.17, 101492.85, 0.00, 0.00, 0.00
159, 85515.40, 123139.35, 6109.04, 40571.32, 11247.31, 29665.50, 111023.75, 101505.21, 0.08, -0.28, 0.96
160, 85519.73, 123104.73, 6091.52, 40567.39, 11249.81, 29677.10, 111030.19, 101507.16, 0.00, 0.00, 0.00
161, 85512.98, 123077.69, 6090.58, 40571.68, 11231.62, 29665.14, 111029.45, 101498.35, 0.00, 0.00, 0.00
162, 85530.31, 123113.49, 6124.22, 40589.94, 11253.90, 29688.12, 110998.40, 101516.16, 0.00, 0.00, 0.00
163, 85531.14, 123124.52, 6108.42, 40581.22, 11257.81, 29681.37, 111008.86, 101515.16, 0.00, 0.00, 0.00
164, 85532.39, 123120.11, 6115.84, 40581.91, 11257.81, 29691.65, 111016.13, 101516.16, 0.00, 0.00, 0.00
165, 85537.59, 123109.11, 6119.19, 40587.37, 11255.91, 29677.55, 111017.49, 101521.06, 0.00, 0.00, 0.00
166, 85531.54, 123082.89, 6111.93, 40569.06, 11244.78, 29674.24, 111001.40, 101513.73, 0.00, 0.00, 0.00
167, 85526.00, 123097.36, 6101.71, 40572.75, 11231.75, 29665.88, 111003.63, 101511.63, 0.00, 0.00, 0.00
168, 85525.21, 123136.23, 6117.02, 40570.27, 11236.74, 29660.41, 111016.57, 101511.31, 0.00, 0.00, 0.00
169, 85529.46, 123108.98, 6142.50, 40585.67, 11247.33, 29671.60, 111038.08, 101516.50, 0.07, -0.28, 0.97
170, 85536.37, 123150.15, 6111.95, 40591.75, 11255.53, 29684.30, 111051.73, 101525.66, 0.00, 0.00, 0.00
171, 85529.02, 123098.79, 6083.47, 40562.69, 11238.43, 29667.34, 111004.10, 101513.88, 0.00, 0.00, 0.00
172, 85521.44, 123011.21, 6081.71, 40552.57, 11226.41, 29660.16, 110970.40, 101501.41, 0.00, 0.00, 0.00
173, 85533.82, 123065.80, 6124.40, 40583.48, 11239.42, 29682.96, 111019.39, 101516.66, 0.00, 0.00, 0.00
174, 85533.84, 123114.61, 6124.38, 40584.80, 11256.74, 29685.51, 111025.60, 101517.20, 0.00, 0.00, 0.00
175, 85531.83, 123083.88, 6117.90, 40578.50, 11247.15, 29662.08, 110989.51, 101516.75, 0.00, 0.00, 0.00
176, 85531.16, 123060.56, 6107.01, 40574.92, 11246.82, 29664.32, 111003.92, 101518.80, 0.00, 0.00, 0.00
177, 85522.91, 123063.63, 6098.00, 40557.69, 11226.86, 29657.14, 110997.62, 101509.41, 0.00, 0.00, 0.00
178, 85521.30, 123079.32, 6134.46, 40582.14, 11241.38, 29665.59, 110967.65, 101505.66, 0.00, 0.00, 0.00
179, 85527.59, 123101.49, 6119.50, 40585.60, 11248.94, 29684.68, 110997.17, 101513.13, 0.07, -0.28, 0.96
180, 85514.59, 123099.34, 6109.13, 40563.77, 11244.54, 29671.04, 111004.48, 101499.36, 0.00, 0.00, 0.00
181, 85527.31, 123115.88, 6122.23, 40575.97, 11244.25, 29675.02, 111022.74, 101508.70, 0.00, 0.00, 0.00
182, 85533.38, 123121.05, 6098.36, 40571.28, 11230.10, 29663.40, 111012.91, 101512.48, 0.00, 0.00, 0.00
183, 85535.25, 123118.73, 6109.89, 40578.65, 11247.00, 29674.80, 111003.43, 101510.60, 0.00, 0.00, 0.00
184, 85530.02, 123058.93, 6117.31, 40576.59, 11244.74, 29666.44, 110991.30, 101505.46, 0.00, 0.00, 0.00
185, 85521.59, 123060.48, 6120.73, 40573.20, 11243.62, 29664.56, 110981.64, 101498.58, 0.00, 0.00, 0.00
186, 85521.02, 123108.13, 6128.98, 40576.37, 11236.27, 29667.49, 110989.15, 101498.93, 0.00, 0.00, 0.00
187, 85510.44, 123087.61, 6132.96, 40577.11, 11218.23, 29665.21, 110965.32, 101486.55, 0.00, 0.00, 0.00
188, 85512.27, 123073.95, 6113.45, 40574.56, 11243.35, 29679.85, 110991.79, 101489.23, 0.00, 0.00, 0.00
189, 85524.99, 123109.80, 6112.71, 40578.54, 11249.16, 29672.21, 111000.28, 101502.40, 0.06, -0.28, 0.96
190, 85528.86, 123140.30, 6154.40, 40600.13, 11262.82, 29683.09, 111003.50, 101506.47, 0.00, 0.00, 0.00
191, 85531.83, 123124.11, 6107.68, 40575.72, 11257.86, 29673.37, 111000.01, 101507.45, 0.00, 0.00, 0.00
192, 85526.51, 123062.02, 6102.65, 40578.45, 11242.32, 29664.88, 111002.16, 101502.71, 0.00, 0.00, 0.00
193, 85523.16, 123066.38, 6124.62, 40593.65, 11252.58, 29679.00, 110981.88, 101498.35, 0.00, 0.00, 0.00
194, 85519.02, 123032.22, 6119.35, 40584.57, 11250.10, 29669.82, 110941.56, 101492.02, 0.00, 0.00, 0.00
195, 85515.29, 123056.09, 6100.53, 40576.55, 11241.16, 29661.97, 110945.54, 101490.06, 0.00, 0.00, 0.00
196, 85516.63, 123087.68, 6111.03, 40578.92, 11236.04, 29665.44, 110961.61, 101491.89, 0.00, 0.00, 0.00
197, 85525.95, 123118.86, 6136.58, 40593.74, 11243.11, 29671.49, 110988.73, 101500.45, 0.00, 0.00, 0.00
198, 85516.30, 123115.39, 6118.83, 40580.29, 11237.21, 29667.11, 110991.31, 101488.92, 0.00, 0.00, 0.00
199, 85519.09, 123076.32, 6149.81, 40588.98, 11244.22, 29712.53, 110960.02, 101486.91, 0.07, -0.28, 0.97
200, 85517.95, 123073.62, 6130.44, 40582.74, 11239.10, 29709.29, 110962.84, 101482.17, 0.00, 0.00, 0.00
201, 85513.39, 123063.18, 6105.11, 40573.85, 11229.27, 29642.97, 111011.14, 101480.18, 0.00, 0.00, 0.00
202, 85518.84, 123054.46, 6095.86, 40582.30, 11228.42, 29630.81, 110989.30, 101488.07, 0.00, 0.00, 0.00
203, 85516.50, 123068.27, 6101.53, 40578.81, 11218.79, 29635.19, 110933.11, 101483.84, 0.00, 0.00, 0.00
204, 85520.21, 123082.98, 6108.91, 40583.82, 11229.70, 29657.37, 110972.79, 101485.81, 0.00, 0.00, 0.00
205, 85517.80, 123097.84, 6120.00, 40586.92, 11233.61, 29664.07, 110971.18, 101482.52, 0.00, 0.00, 0.00
206, 85523.98, 123090.05, 6150.78, 40600.89, 11238.68, 29669.88, 110936.95, 101485.95, 0.00, 0.00, 0.00
207, 85520.41, 123150.42, 6088.26, 40572.57, 11226.41, 29653.30, 110930.34, 101480.72, 0.00, 0.00, 0.00
208, 85524.43, 123178.63, 6104.22, 40576.86, 11237.07, 29662.75, 110939.15, 101482.52, 0.00, 0.00, 0.00
209, 85509.68, 123083.07, 6133.77, 40582.83, 11232.58, 29670.22, 110945.47, 101471.69, 0.07, -0.28, 0.96
210, 85508.12, 122975.88, 6101.60, 40579.12, 11220.08, 29656.81, 110950.50, 101473.07, 0.00, 0.00, 0.00
211, 85510.71, 123016.46, 6084.17, 40564.19, 11208.35, 29644.42, 110964.98, 101470.91, 0.00, 0.00, 0.00
212, 85513.37, 123043.09, 6113.16, 40572.08, 11205.67, 29661.79, 110938.97, 101473.95, 0.00, 0.00, 0.00
213, 85523.60, 123069.48, 6111.41, 40588.26, 11247.49, 29690.00, 110946.75, 101484.00, 0.00, 0.00, 0.00
214, 85523.80, 123069.20, 6118.21, 40589.67, 11255.51, 29676.99, 110955.44, 101485.55, 0.00, 0.00, 0.00
215, 85529.91, 123110.12, 6100.53, 40592.82, 11254.77, 29678.76, 110950.28, 101492.12, 0.00, 0.00, 0.00
216, 85527.88, 123135.04, 6110.10, 40591.84, 11232.85, 29668.43, 110942.77, 101488.25, 0.00, 0.00, 0.00
217, 85524.70, 123114.97, 6117.54, 40593.96, 11231.04, 29666.38, 110983.80, 101487.29, 0.00, 0.00, 0.00
218, 85519.02, 123067.20, 6108.58, 40583.68, 11228.09, 29660.43, 110951.89, 101477.05, 0.00, 0.00, 0.00
219, 85519.25, 123056.66, 6096.95, 40575.99, 11225.76, 29654.57, 110890.53, 101474.30, 0.07, -0.28, 0.96
220, 85511.02, 123054.04, 6091.65, 40569.29, 11214.45, 29641.38, 110864.05, 101466.91, 0.00, 0.00, 0.00
221, 85526.87, 123111.26, 6121.29, 40599.26, 11229.74, 29657.19, 110898.58, 101483.15, 0.00, 0.00, 0.00
222, 85530.76, 123133.59, 6132.04, 40608.00, 11241.59, 29671.94, 110942.03, 101488.47, 0.00, 0.00, 0.00
223, 85523.70, 123116.89, 6121.76, 40597.72, 11240.13, 29673.68, 110944.65, 101482.55, 0.00, 0.00, 0.00
224, 85523.16, 123056.83, 6108.53, 40590.90, 11235.24, 29663.09, 110910.00, 101481.30, 0.00, 0.00, 0.00
225, 85524.50, 123092.46, 6117.69, 40595.15, 11232.15, 29665.55, 110917.38, 101482.03, 0.00, 0.00, 0.00
226, 85523.60, 123097.00, 6124.87, 40594.81, 11229.49, 29661.93, 110961.16, 101483.69, 0.00, 0.00, 0.00
227, 85519.02, 123079.27, 6123.26, 40592.42, 11228.26, 29658.28, 110931.46, 101477.88, 0.00, 0.00, 0.00
228, 85520.86, 123113.78, 6132.51, 40597.72, 11227.86, 29647.11, 110932.66, 101477.66, 0.00, 0.00, 0.00
229, 85518.82, 123064.30, 6093.93, 40580.71, 11221.51, 29650.04, 110917.42, 101472.42, 0.07, -0.29, 0.96
230, 85525.10, 123069.88, 6090.18, 40583.23, 11223.37, 29646.66, 110882.42, 101474.86, 0.00, 0.00, 0.00
231, 85534.47, 123093.53, 6133.05, 40619.55, 11239.46, 29663.22, 110862.30, 101485.61, 0.00, 0.00, 0.00
232, 85522.87, 123085.53, 6132.49, 40607.64, 11230.32, 29661.84, 110890.42, 101478.84, 0.00, 0.00, 0.00
233, 85518.13, 123099.45, 6123.55, 40609.54, 11232.73, 29667.65, 110902.13, 101473.81, 0.00, 0.00, 0.00
234, 85524.39, 123121.32, 6099.79, 40601.74, 11220.06, 29659.00, 110934.30, 101480.96, 0.00, 0.00, 0.00
235, 85524.27, 123156.61, 6124.96, 40608.38, 11239.71, 29667.80, 110933.58, 101481.12, 0.00, 0.00, 0.00
236, 85513.73, 123126.88, 6086.89, 40587.59, 11233.79, 29656.92, 110908.10, 101470.08, 0.00, 0.00, 0.00
237, 85514.55, 123072.92, 6097.31, 40591.79, 11218.92, 29664.99, 110917.96, 101471.04, 0.00, 0.00, 0.00
238, 85532.44, 123067.13, 6131.89, 40614.57, 11245.23, 29693.64, 110911.90, 101489.74, 0.00, 0.00, 0.00
239, 85526.33, 123059.85, 6108.69, 40607.48, 11246.75, 29666.60, 110906.09, 101482.30, 0.07, -0.29, 0.96
240, 85525.04, 123036.38, 6104.84, 40599.15, 11231.62, 29658.21, 110904.05, 101479.64, 0.00, 0.00, 0.00
241, 85535.02, 123070.49, 6107.14, 40605.03, 11243.29, 29680.66, 110938.48, 101488.90, 0.00, 0.00, 0.00
242, 85532.12, 123080.37, 6122.32, 40613.21, 11258.75, 29681.91, 110948.45, 101482.57, 0.00, 0.00, 0.00
243, 85524.99, 123090.70, 6121.92, 40608.83, 11255.67, 29698.72, 110944.71, 101475.77, 0.00, 0.00, 0.00
244, 85511.55, 123056.81, 6125.81, 40596.64, 11237.63, 29675.16, 110892.37, 101465.72, 0.00, 0.00, 0.00
245, 85517.34, 123082.36, 6142.13, 40608.67, 11235.75, 29674.24, 110898.94, 101472.80, 0.00, 0.00, 0.00
246, 85522.71, 123124.52, 6118.63, 40612.65, 11240.49, 29677.55, 110915.70, 101478.66, 0.00, 0.00, 0.00
247, 85527.90, 123130.88, 6085.46, 40603.48, 11238.01, 29657.63, 110920.05, 101484.60, 0.00, 0.00, 0.00
248, 85523.13, 123109.54, 6091.74, 40600.91, 11231.26, 29662.02, 110908.16, 101477.88, 0.00, 0.00, 0.00
249, 85515.85, 123052.67, 6102.70, 40603.91, 11227.30, 29656.14, 110880.32, 101469.07, 0.07, -0.29, 0.96
250, 85520.70, 123051.38, 6104.57, 40602.46, 11230.61, 29662.93, 110876.12, 101471.15, 0.00, 0.00, 0.00
251, 85527.74, 123088.91, 6111.77, 40606.48, 11237.18, 29675.27, 110911.12, 101474.75, 0.00, 0.00, 0.00
252, 85524.56, 123087.70, 6138.41, 40620.81, 11242.21, 29692.53, 110913.35, 101475.13, 0.00, 0.00, 0.00
253, 85520.95, 123088.51, 6124.13, 40620.14, 11241.90, 29678.36, 110926.90, 101473.36, 0.00, 0.00, 0.00
254, 85524.30, 123121.80, 6103.72, 40618.77, 11244.80, 29677.91, 110934.50, 101477.84, 0.00, 0.00, 0.00
255, 85519.23, 123078.16, 6101.94, 40612.38, 11233.54, 29669.06, 110933.41, 101470.63, 0.00, 0.00, 0.00
0, 85502.37, 123104.93, 6099.90, 40600.40, 11216.98, 29660.76, 110904.75, 101457.23, 0.00, 0.00, 0.00
1, 85505.27, 123114.73, 6098.58, 40594.88, 11217.18, 29655.13, 110921.00, 101460.02, 0.00, 0.00, 0.00
2, 85518.69, 123102.48, 6142.04, 40617.39, 11234.25, 29680.05, 110902.38, 101472.18, 0.00, 0.00, 0.00
3, 85511.05, 123035.91, 6115.35, 40619.33, 11238.66, 29674.24, 110879.89, 101464.45, 0.07, -0.28, 0.96
4, 85514.28, 123042.91, 6095.83, 40604.07, 11223.88, 29657.17, 110891.88, 101463.35, 0.00, 0.00, 0.00
5, 85532.84, 123085.71, 6092.10, 40601.41, 11227.12, 29664.54, 110894.09, 101482.98, 0.00, 0.00, 0.00
6, 85531.38, 123117.77, 6116.93, 40622.86, 11247.35, 29684.63, 110905.46, 101485.92, 0.00, 0.00, 0.00
7, 85520.37, 123057.10, 6098.38, 40609.27, 11238.03, 29682.54, 110906.55, 101473.45, 0.00, 0.00, 0.00
8, 85519.56, 123058.48, 6100.01, 40605.45, 11227.39, 29668.88, 110895.36, 101475.73, 0.00, 0.00, 0.00
9, 85518.04, 123042.15, 6109.51, 40613.99, 11234.48, 29677.33, 110914.98, 101478.37, 0.00, 0.00, 0.00
10, 85510.82, 123029.05, 6123.44, 40626.93, 11253.46, 29691.05, 110918.63, 101468.22, 0.00, 0.00, 0.00
11, 85511.27, 123023.77, 6136.31, 40623.24, 11256.18, 29683.63, 110911.79, 101467.17, 0.00, 0.00, 0.00
12, 85507.24, 123036.38, 6118.86, 40616.43, 11229.61, 29678.04, 110897.77, 101462.81, 0.00, 0.00, 0.00
13, 85498.30, 123073.82, 6062.33, 40594.16, 11214.18, 29669.55, 110901.59, 101455.70, 0.07, -0.28, 0.96
14, 85519.07, 123086.72, 6086.29, 40611.13, 11244.18, 29675.96, 110937.11, 101477.14, 0.00, 0.00, 0.00
15, 85510.98, 123077.09, 6085.84, 40605.47, 11232.89, 29668.90, 110894.04, 101468.67, 0.00, 0.00, 0.00
16, 85519.90, 123046.64, 6141.86, 40626.73, 11233.90, 29679.99, 110896.57, 101476.73, 0.00, 0.00, 0.00
17, 85521.66, 123043.42, 6133.63, 40641.26, 11255.38, 29703.52, 110890.89, 101476.31, 0.00, 0.00, 0.00
18, 85525.21, 123094.59, 6078.80, 40617.36, 11252.52, 29689.96, 110896.68, 101475.87, 0.00, 0.00, 0.00
19, 85510.24, 123067.98, 6084.12, 40603.98, 11233.56, 29667.02, 110916.35, 101464.65, 0.00, 0.00, 0.00
20, 85513.30, 123033.23, 6100.55, 40607.44, 11231.84, 29665.19, 110918.02, 101468.49, 0.00, 0.00, 0.00
21, 85520.74, 123050.53, 6110.74, 40618.50, 11233.88, 29674.38, 110877.03, 101474.77, 0.00, 0.00, 0.00
22, 85510.64, 123056.14, 6076.30, 40599.91, 11223.03, 29666.31, 110868.63, 101464.71, 0.00, 0.00, 0.00
23, 85517.75, 123071.02, 6078.69, 40595.97, 11225.13, 29685.08, 110892.70, 101471.40, 0.07, -0.29, 0.97
24, 85517.97, 123048.59, 6084.35, 40598.32, 11225.67, 29693.89, 110881.39, 101468.84, 0.00, 0.00, 0.00
25, 85515.29, 123047.89, 6083.65, 40600.18, 11209.98, 29655.71, 110890.87, 101469.12, 0.00, 0.00, 0.00
26, 85513.48, 123080.57, 6114.30, 40606.82, 11209.24, 29656.94, 110905.06, 101468.45, 0.00, 0.00, 0.00
27, 85508.48, 123115.75, 6089.02, 40597.83, 11217.40, 29663.54, 110901.51, 101462.45, 0.00, 0.00, 0.00
28, 85519.09, 123150.71, 6081.71, 40602.37, 11230.16, 29676.77, 110935.39, 101471.24, 0.00, 0.00, 0.00
29, 85522.22, 123088.10, 6109.67, 40619.29, 11234.75, 29702.29, 110906.23, 101473.02, 0.00, 0.00, 0.00
30, 85509.34, 122985.10, 6104.95, 40615.09, 11227.26, 29687.81, 110858.93, 101460.63, 0.00, 0.00, 0.00
31, 85505.91, 123012.38, 6123.39, 40625.30, 11224.49, 29673.35, 110848.60, 101457.65, 0.00, 0.00, 0.00
32, 85510.93, 123028.58, 6056.29, 40604.47, 11225.09, 29676.61, 110861.72, 101464.24, 0.00, 0.00, 0.00
33, 85516.66, 123048.47, 6052.94, 40594.30, 11221.89, 29654.04, 110888.37, 101467.08, 0.07, -0.29, 0.96
34, 85518.58, 123037.16, 6067.67, 40597.79, 11215.48, 29656.81, 110896.55, 101467.28, 0.00, 0.00, 0.00
35, 85517.52, 123049.27, 6079.32, 40610.39, 11212.60, 29655.56, 110864.88, 101469.23, 0.00, 0.00, 0.00
36, 85517.46, 123062.94, 6088.21, 40613.07, 11217.49, 29663.38, 110869.88, 101467.93, 0.00, 0.00, 0.00
37, 85517.41, 123078.45, 6089.82, 40613.25, 11226.19, 29679.63, 110885.81, 101471.40, 0.00, 0.00, 0.00
38, 85521.19, 123063.98, 6091.50, 40611.64, 11227.26, 29670.78, 110889.41, 101475.98, 0.00, 0.00, 0.00
39, 85525.88, 123059.96, 6081.80, 40611.29, 11222.99, 29659.22, 110914.31, 101480.90, 0.00, 0.00, 0.00
40, 85522.40, 123076.30, 6097.67, 40613.66, 11223.17, 29660.45, 110890.48, 101476.29, 0.00, 0.00, 0.00
41, 85526.29, 123031.80, 6081.26, 40606.88, 11219.66, 29664.29, 110876.88, 101477.05, 0.00, 0.00, 0.00
42, 85529.06, 123050.17, 6097.78, 40610.73, 11215.08, 29666.64, 110898.53, 101477.50, 0.00, 0.00, 0.00
43, 85524.97, 123029.74, 6071.38, 40615.06, 11226.88, 29672.81, 110907.14, 101476.65, 0.08, -0.28, 0.96
44, 85515.16, 123006.59, 6060.79, 40598.46, 11220.58, 29675.25, 110900.32, 101471.35, 0.00, 0.00, 0.00
45, 85508.07, 122979.80, 6062.17, 40594.66, 11209.04, 29651.29, 110879.36, 101464.78, 0.00, 0.00, 0.00
46, 85518.29, 123005.18, 6089.71, 40623.38, 11222.72, 29654.46, 110878.57, 101472.76, 0.00, 0.00, 0.00
47, 85523.65, 123026.05, 6099.08, 40623.76, 11228.26, 29671.22, 110894.33, 101481.88, 0.00, 0.00, 0.00
48, 85518.06, 122997.31, 6109.07, 40617.12, 11225.38, 29673.53, 110889.75, 101475.89, 0.00, 0.00, 0.00
49, 85523.25, 123029.88, 6088.97, 40617.75, 11222.43, 29665.79, 110886.06, 101478.73, 0.00, 0.00, 0.00
50, 85521.57, 123024.76, 6076.28, 40611.91, 11211.79, 29649.07, 110881.16, 101477.05, 0.00, 0.00, 0.00
51, 85518.77, 122975.36, 6064.34, 40600.89, 11194.78, 29642.73, 110868.41, 101471.62, 0.00, 0.00, 0.00
52, 85528.97, 123008.10, 6067.94, 40619.87, 11234.50, 29670.17, 110903.27, 101478.55, 0.00, 0.00, 0.00
53, 85530.27, 123036.91, 6089.20, 40619.51, 11240.63, 29677.15, 110915.86, 101481.27, 0.07, -0.29, 0.97
54, 85526.13, 123030.77, 6095.68, 40614.77, 11228.42, 29674.91, 110893.15, 101480.58, 0.00, 0.00, 0.00
55, 85518.91, 123078.00, 6109.89, 40615.98, 11223.95, 29683.96, 110897.82, 101471.91, 0.00, 0.00, 0.00
56, 85516.95, 123077.28, 6094.56, 40616.38, 11226.86, 29675.25, 110927.84, 101469.38, 0.00, 0.00, 0.00
57, 85509.30, 122972.12, 6072.21, 40607.98, 11206.11, 29653.81, 110921.00, 101462.34, 0.00, 0.00, 0.00
58, 85513.75, 122972.56, 6054.77, 40601.25, 11203.99, 29644.63, 110881.08, 101463.91, 0.00, 0.00, 0.00
59, 85513.44, 123015.39, 6055.49, 40597.85, 11198.98, 29637.96, 110869.97, 101465.27, 0.00, 0.00, 0.00
60, 85508.49, 123012.46, 6067.74, 40609.36, 11224.58, 29653.52, 110871.09, 101462.90, 0.00, 0.00, 0.00
61, 85507.63, 123014.19, 6082.76, 40618.68, 11228.82, 29663.56, 110887.27, 101462.52, 0.00, 0.00, 0.00
62, 85516.34, 123001.20, 6084.23, 40621.41, 11230.66, 29672.21, 110896.63, 101468.67, 0.00, 0.00, 0.00
63, 85520.43, 123001.13, 6082.76, 40620.76, 11230.16, 29677.59, 110860.70, 101468.89, 0.07, -0.28, 0.97
64, 85522.51, 123055.49, 6077.80, 40620.88, 11230.01, 29662.78, 110859.24, 101470.05, 0.00, 0.00, 0.00
65, 85522.02, 123037.70, 6094.83, 40629.84, 11231.80, 29672.03, 110875.73, 101471.28, 0.00, 0.00, 0.00
66, 85518.42, 123028.98, 6103.23, 40628.63, 11226.25, 29673.46, 110879.05, 101470.03, 0.00, 0.00, 0.00
67, 85511.36, 122976.41, 6089.71, 40615.22, 11220.69, 29660.14, 110866.73, 101463.35, 0.00, 0.00, 0.00
68, 85513.14, 123000.04, 6082.98, 40621.12, 11215.52, 29664.14, 110895.09, 101466.05, 0.00, 0.00, 0.00
69, 85521.88, 123023.95, 6073.44, 40617.57, 11221.54, 29673.04, 110891.18, 101473.90, 0.00, 0.00, 0.00
70, 85523.45, 123076.01, 6060.32, 40606.39, 11218.21, 29662.53, 110873.16, 101476.11, 0.00, 0.00, 0.00
71, 85513.95, 122997.16, 6062.71, 40611.64, 11211.03, 29651.96, 110844.48, 101468.96, 0.00, 0.00, 0.00
72, 85509.79, 122959.67, 6060.99, 40608.83, 11203.12, 29627.10, 110862.77, 101462.86, 0.08, -0.29, 0.96
73, 85512.20, 122981.06, 6061.37, 40611.75, 11205.33, 29637.72, 110860.89, 101463.20, 0.00, 0.00, 0.00
74, 85519.20, 123019.26, 6066.82, 40618.84, 11220.96, 29655.29, 110892.95, 101467.84, 0.00, 0.00, 0.00
75, 85520.90, 123022.27, 6075.09, 40623.85, 11221.63, 29660.79, 110899.45, 101472.27, 0.00, 0.00, 0.00
76, 85510.41, 123001.06, 6077.39, 40615.42, 11211.61, 29642.50, 110858.75, 101460.31, 0.00, 0.00, 0.00
77, 85523.16, 123030.44, 6086.76, 40632.45, 11226.19, 29650.93, 110849.90, 101470.84, 0.00, 0.00, 0.00
78, 85520.41, 123068.25, 6077.73, 40620.43, 11209.38, 29645.43, 110869.92, 101467.84, 0.00, 0.00, 0.00
79, 85518.76, 123068.03, 6090.65, 40621.59, 11215.57, 29660.43, 110863.04, 101464.78, 0.00, 0.00, 0.00
80, 85514.38, 122984.73, 6071.14, 40614.37, 11220.78, 29648.67, 110825.35, 101458.16, 0.00, 0.00, 0.00
81, 85526.17, 123000.35, 6062.87, 40612.20, 11226.88, 29649.90, 110875.24, 101474.05, 0.00, 0.00, 0.00
82, 85514.06, 122984.75, 6066.40, 40613.63, 11216.66, 29643.40, 110893.55, 101462.37, 0.08, -0.29, 0.96
83, 85514.11, 123026.12, 6070.24, 40618.39, 11219.52, 29649.54, 110867.24, 101465.47, 0.00, 0.00, 0.00
84, 85508.30, 123018.59, 6075.11, 40612.61, 11213.29, 29642.23, 110856.96, 101460.33, 0.00, 0.00, 0.00
85, 85516.63, 123002.49, 6072.37, 40618.62, 11222.30, 29656.72, 110873.61, 101466.92, 0.00, 0.00, 0.00
86, 85504.05, 123000.64, 6065.88, 40612.18, 11213.00, 29655.64, 110848.80, 101454.70, 0.00, 0.00, 0.00
87, 85511.09, 123001.84, 6064.48, 40610.75, 11205.40, 29647.15, 110833.60, 101463.98, 0.00, 0.00, 0.00
88, 85523.83, 123036.45, 6057.12, 40616.65, 11213.71, 29643.69, 110861.77, 101474.66, 0.00, 0.00, 0.00
89, 85519.49, 123027.95, 6052.18, 40607.02, 11208.04, 29644.42, 110859.62, 101469.43, 0.00, 0.00, 0.00
90, 85524.99, 123010.16, 6063.31, 40608.22, 11212.26, 29651.73, 110857.63, 101476.47, 0.00, 0.00, 0.00
91, 85519.63, 122986.91, 6065.30, 40605.32, 11201.64, 29648.47, 110877.48, 101472.02, 0.00, 0.00, 0.00
92, 85515.65, 123009.83, 6057.61, 40596.29, 11199.32, 29672.03, 110879.20, 101464.17, 0.08, -0.28, 0.96
93, 85509.14, 123027.15, 6063.33, 40607.62, 11191.99, 29633.23, 110862.32, 101458.12, 0.00, 0.00, 0.00
94, 85498.30, 123015.98, 6045.95, 40604.09, 11181.97, 29613.89, 110875.49, 101448.89, 0.00, 0.00, 0.00
95, 85507.87, 123027.57, 6037.85, 40599.42, 11192.88, 29627.26, 110888.19, 101456.27, 0.00, 0.00, 0.00
96, 85511.53, 123020.38, 6050.86, 40612.71, 11209.02, 29640.89, 110821.47, 101458.84, 0.00, 0.00, 0.00
97, 85508.48, 123017.67, 6054.22, 40621.32, 11208.55, 29636.47, 110837.63, 101454.43, 0.00, 0.00, 0.00
98, 85499.09, 122988.63, 6043.75, 40604.36, 11195.54, 29630.28, 110850.08, 101444.77, 0.00, 0.00, 0.00
99, 85494.81, 123011.88, 6056.96, 40609.07, 11189.89, 29631.97, 110828.10, 101442.00, 0.00, 0.00, 0.00
