%OpenBCI Raw EEG Data
%Sample Rate = 250.0 Hz
%First Column = SampleIndex
%Other Columns = EEG data in microvolts followed by Accel Data (in G) interleaved with Aux Data
193, 80904.55, 112861.51, 11607.44, 68262.31, 54338.36, 26632.55, 102100.95, 99707.95, 0.00, 0.00, 0.00
194, 80904.91, 112860.19, 11607.06, 68259.81, 54335.59, 26635.66, 102094.96, 99706.19, 0.00, 0.00, 0.00
195, 80905.16, 112865.71, 11607.46, 68261.17, 54320.75, 26638.21, 102103.84, 99708.70, 0.00, 0.00, 0.00
196, 80904.10, 112885.16, 11612.51, 68274.74, 54325.60, 26631.57, 102127.06, 99709.09, 0.00, 0.00, 0.00
197, 80907.34, 112864.95, 11610.88, 68273.78, 54363.96, 26639.21, 102120.58, 99710.75, 0.00, 0.00, 0.00
198, 80905.84, 112863.03, 11610.23, 68270.79, 54345.76, 26642.70, 102107.41, 99709.09, 0.07, -0.25, 0.98
199, 80903.57, 112876.84, 11615.71, 68265.82, 54333.27, 26635.14, 102124.87, 99705.90, 0.00, 0.00, 0.00
200, 80907.91, 112896.55, 11620.18, 68270.88, 54354.21, 26636.06, 102120.76, 99709.56, 0.00, 0.00, 0.00
201, 80906.88, 112868.75, 11614.61, 68267.27, 54353.90, 26632.68, 102109.56, 99708.42, 0.00, 0.00, 0.00
202, 80910.97, 112867.66, 11615.40, 68278.74, 54350.37, 26639.23, 102129.70, 99713.21, 0.00, 0.00, 0.00
203, 80906.95, 112880.51, 11617.34, 68278.27, 54331.52, 26637.98, 102135.33, 99709.36, 0.00, 0.00, 0.00
204, 80900.20, 112862.47, 11619.84, 68265.78, 54327.99, 26629.11, 102122.41, 99701.98, 0.00, 0.00, 0.00
205, 80906.67, 112875.10, 11618.91, 68268.02, 54336.95, 26633.80, 102124.23, 99709.88, 0.00, 0.00, 0.00
206, 80910.18, 112865.66, 11613.07, 68264.21, 54348.46, 26629.60, 102133.21, 99711.28, 0.00, 0.00, 0.00
207, 80903.73, 112862.78, 11609.70, 68262.54, 54338.61, 26628.71, 102142.64, 99707.42, 0.00, 0.00, 0.00
208, 80897.42, 112857.87, 11601.49, 68258.18, 54341.07, 26632.68, 102118.84, 99705.34, 0.08, -0.24, 0.97
209, 80906.70, 112858.40, 11615.96, 68267.84, 54340.87, 26640.28, 102120.87, 99712.23, 0.00, 0.00, 0.00
210, 80903.95, 112866.85, 11616.16, 68270.16, 54348.58, 26638.34, 102131.11, 99710.59, 0.00, 0.00, 0.00
211, 80897.48, 112875.81, 11609.21, 68263.19, 54343.59, 26636.04, 102111.51, 99706.59, 0.00, 0.00, 0.00
212, 80894.13, 112862.25, 11609.29, 68264.44, 54334.92, 26634.76, 102113.18, 99704.24, 0.00, 0.00, 0.00
213, 80895.79, 112855.79, 11611.82, 68268.35, 54342.03, 26641.56, 102127.71, 99705.43, 0.00, 0.00, 0.00
214, 80892.44, 112866.09, 11617.88, 68268.17, 54343.26, 26643.57, 102112.66, 99702.27, 0.00, 0.00, 0.00
215, 80894.78, 112876.88, 11616.49, 68269.22, 54340.08, 26643.08, 102116.29, 99702.21, 0.00, 0.00, 0.00
216, 80895.30, 112878.12, 11613.36, 68269.67, 54337.40, 26641.67, 102130.48, 99704.52, 0.00, 0.00, 0.00
217, 80890.06, 112883.26, 11609.41, 68267.91, 54319.43, 26635.21, 102117.92, 99698.01, 0.00, 0.00, 0.00
218, 80892.50, 112894.14, 11609.74, 68271.03, 54339.68, 26642.23, 102105.47, 99699.82, 0.07, -0.25, 0.97
219, 80895.16, 112852.68, 11606.90, 68267.50, 54361.86, 26652.09, 102120.58, 99700.04, 0.00, 0.00, 0.00
220, 80895.74, 112820.29, 11600.98, 68268.22, 54364.85, 26649.16, 102127.22, 99700.69, 0.00, 0.00, 0.00
221, 80896.37, 112842.91, 11604.22, 68261.40, 54357.41, 26646.47, 102131.58, 99703.20, 0.00, 0.00, 0.00
222, 80895.09, 112866.38, 11602.28, 68253.77, 54332.13, 26641.67, 102120.80, 99704.18, 0.00, 0.00, 0.00
223, 80898.91, 112858.67, 11602.01, 68252.81, 54321.73, 26641.83, 102138.04, 99709.25, 0.00, 0.00, 0.00
224, 80897.46, 112864.93, 11605.50, 68262.41, 54341.87, 26648.60, 102130.39, 99709.30, 0.00, 0.00, 0.00
225, 80896.73, 112871.03, 11605.85, 68269.09, 54346.79, 26645.40, 102128.34, 99707.09, 0.00, 0.00, 0.00
226, 80894.78, 112862.34, 11600.91, 68261.13, 54339.79, 26638.83, 102105.73, 99700.20, 0.00, 0.00, 0.00
227, 80889.98, 112847.65, 11600.91, 68256.62, 54336.95, 26633.18, 102105.24, 99694.61, 0.00, 0.00, 0.00
228, 80895.12, 112859.66, 11607.48, 68266.88, 54344.02, 26637.82, 102115.93, 99695.98, 0.08, -0.25, 0.97
229, 80898.42, 112885.70, 11619.62, 68277.13, 54349.72, 26639.39, 102102.84, 99698.01, 0.00, 0.00, 0.00
230, 80895.74, 112884.82, 11613.03, 68272.04, 54357.18, 26640.95, 102106.30, 99698.25, 0.00, 0.00, 0.00
231, 80895.70, 112862.88, 11611.37, 68268.62, 54350.52, 26637.09, 102114.97, 99699.28, 0.00, 0.00, 0.00
232, 80895.81, 112847.83, 11615.11, 68268.51, 54340.87, 26632.42, 102103.50, 99698.03, 0.00, 0.00, 0.00
233, 80896.50, 112846.91, 11615.13, 68270.16, 54343.44, 26637.62, 102111.68, 99700.80, 0.00, 0.00, 0.00
234, 80895.30, 112864.19, 11615.37, 68269.55, 54346.45, 26639.23, 102123.62, 99703.30, 0.00, 0.00, 0.00
235, 80895.56, 112870.74, 11617.30, 68270.56, 54347.28, 26637.76, 102102.48, 99702.81, 0.00, 0.00, 0.00
236, 80895.09, 112858.58, 11612.27, 68266.83, 54341.25, 26634.70, 102108.09, 99699.53, 0.00, 0.00, 0.00
237, 80897.58, 112853.57, 11612.09, 68267.01, 54343.14, 26636.71, 102106.25, 99700.29, 0.00, 0.00, 0.00
238, 80897.48, 112865.53, 11610.93, 68264.05, 54348.55, 26639.90, 102105.54, 99698.30, 0.08, -0.25, 0.98
239, 80895.30, 112861.69, 11600.87, 68257.69, 54334.25, 26638.61, 102104.06, 99691.88, 0.00, 0.00, 0.00
240, 80894.54, 112868.68, 11605.05, 68265.11, 54325.15, 26637.36, 102107.77, 99691.55, 0.00, 0.00, 0.00
241, 80894.58, 112879.63, 11613.21, 68266.83, 54343.10, 26640.17, 102116.60, 99697.59, 0.00, 0.00, 0.00
242, 80887.63, 112849.62, 11609.00, 68263.03, 54336.93, 26637.42, 102104.55, 99690.27, 0.00, 0.00, 0.00
243, 80886.02, 112855.54, 11607.57, 68262.85, 54323.86, 26635.43, 102096.93, 99687.80, 0.00, 0.00, 0.00
244, 80890.24, 112872.57, 11616.11, 68277.78, 54327.88, 26641.54, 102113.20, 99692.40, 0.00, 0.00, 0.00
245, 80893.06, 112877.49, 11615.53, 68275.55, 54340.62, 26637.29, 102146.84, 99694.23, 0.00, 0.00, 0.00
246, 80896.46, 112876.93, 11614.21, 68270.85, 54360.27, 26650.68, 102113.13, 99696.04, 0.00, 0.00, 0.00
247, 80890.38, 112858.23, 11608.09, 68267.39, 54351.57, 26646.54, 102089.98, 99692.35, 0.00, 0.00, 0.00
248, 80900.33, 112876.73, 11619.73, 68281.85, 54387.02, 26663.87, 102113.34, 99702.59, 0.07, -0.25, 0.97
249, 80894.05, 112862.85, 11618.84, 68279.84, 54357.90, 26649.60, 102091.45, 99692.84, 0.00, 0.00, 0.00
250, 80888.34, 112884.93, 11617.63, 68272.46, 54343.41, 26634.74, 102089.27, 99687.30, 0.00, 0.00, 0.00
251, 80886.38, 112843.07, 11611.80, 68267.37, 54374.62, 26641.45, 102097.69, 99689.18, 0.00, 0.00, 0.00
252, 80886.91, 112836.32, 11611.57, 68275.77, 54368.61, 26646.34, 102101.47, 99688.38, 0.00, 0.00, 0.00
253, 80893.11, 112854.76, 11615.40, 68277.07, 54362.35, 26651.53, 102111.57, 99692.73, 0.00, 0.00, 0.00
254, 80891.88, 112861.30, 11616.38, 68274.67, 54343.08, 26649.63, 102117.43, 99694.88, 0.00, 0.00, 0.00
255, 80893.17, 112874.77, 11612.33, 68270.96, 54346.79, 26643.72, 102116.53, 99696.47, 0.00, 0.00, 0.00
0, 80895.50, 112883.77, 11613.36, 68273.02, 54364.83, 26642.21, 102109.45, 99696.45, 0.00, 0.00, 0.00
1, 80893.15, 112859.77, 11606.39, 68262.65, 54358.84, 26638.27, 102109.56, 99694.45, 0.00, 0.00, 0.00
2, 80896.55, 112845.51, 11606.86, 68260.39, 54350.79, 26636.57, 102121.59, 99697.59, 0.07, -0.25, 0.98
3, 80898.13, 112850.73, 11609.38, 68259.27, 54337.71, 26633.58, 102085.58, 99698.39, 0.00, 0.00, 0.00
4, 80892.97, 112860.41, 11604.22, 68257.27, 54339.61, 26635.75, 102086.31, 99697.00, 0.00, 0.00, 0.00
5, 80890.05, 112869.22, 11607.44, 68264.86, 54332.93, 26629.60, 102100.84, 99696.11, 0.00, 0.00, 0.00
6, 80887.30, 112866.00, 11613.32, 68267.63, 54344.80, 26636.10, 102110.66, 99693.11, 0.00, 0.00, 0.00
7, 80889.38, 112854.80, 11611.55, 68264.44, 54348.36, 26643.50, 102099.55, 99694.77, 0.00, 0.00, 0.00
8, 80896.23, 112863.97, 11615.53, 68264.51, 54341.98, 26645.36, 102100.06, 99699.73, 0.00, 0.00, 0.00
9, 80893.40, 112865.33, 11608.24, 68259.90, 54340.08, 26639.68, 102106.68, 99697.85, 0.00, 0.00, 0.00
10, 80891.83, 112871.43, 11604.31, 68256.62, 54333.27, 26633.20, 102103.15, 99697.07, 0.00, 0.00, 0.00
11, 80889.42, 112860.30, 11599.39, 68250.76, 54323.34, 26626.58, 102101.16, 99692.98, 0.00, 0.00, 0.00
12, 80894.23, 112854.69, 11602.63, 68251.30, 54327.90, 26630.58, 102112.63, 99695.57, 0.08, -0.25, 0.97
13, 80890.11, 112857.77, 11609.79, 68256.33, 54338.50, 26646.16, 102119.91, 99694.05, 0.00, 0.00, 0.00
14, 80887.27, 112867.07, 11612.80, 68256.84, 54323.50, 26642.63, 102122.63, 99692.15, 0.00, 0.00, 0.00
15, 80894.83, 112898.34, 11616.94, 68262.20, 54338.61, 26648.62, 102099.66, 99701.41, 0.00, 0.00, 0.00
16, 80894.27, 112873.53, 11610.88, 68261.95, 54344.78, 26654.48, 102091.05, 99700.35, 0.00, 0.00, 0.00
17, 80885.04, 112826.80, 11606.41, 68258.29, 54312.41, 26644.22, 102091.01, 99691.02, 0.00, 0.00, 0.00
18, 80887.48, 112842.30, 11605.83, 68251.12, 54361.36, 26658.95, 102101.23, 99695.51, 0.00, 0.00, 0.00
19, 80890.20, 112860.55, 11606.97, 68253.89, 54373.81, 26663.71, 102107.21, 99698.32, 0.00, 0.00, 0.00
20, 80889.69, 112870.25, 11607.84, 68258.70, 54348.51, 26652.51, 102103.75, 99697.47, 0.00, 0.00, 0.00
21, 80889.82, 112863.88, 11608.85, 68257.45, 54342.43, 26653.96, 102105.65, 99698.52, 0.00, 0.00, 0.00
22, 80891.14, 112859.30, 11612.29, 68267.39, 54343.17, 26659.77, 102108.22, 99699.62, 0.08, -0.25, 0.96
23, 80884.43, 112864.86, 11603.44, 68256.91, 54346.72, 26655.55, 102103.13, 99688.73, 0.00, 0.00, 0.00
24, 80899.59, 112913.66, 11624.54, 68274.88, 54378.48, 26674.44, 102134.75, 99702.21, 0.00, 0.00, 0.00
25, 80894.24, 112861.17, 11621.95, 68277.27, 54362.86, 26666.50, 102122.16, 99698.81, 0.00, 0.00, 0.00
26, 80887.41, 112847.96, 11611.17, 68268.48, 54350.37, 26663.37, 102121.61, 99694.37, 0.00, 0.00, 0.00
27, 80887.54, 112857.42, 11614.37, 68266.02, 54350.01, 26664.45, 102121.85, 99693.36, 0.00, 0.00, 0.00
28, 80887.30, 112855.27, 11619.84, 68264.59, 54349.65, 26665.32, 102093.84, 99690.70, 0.00, 0.00, 0.00
29, 80883.31, 112842.69, 11616.96, 68265.33, 54351.42, 26655.68, 102085.53, 99685.45, 0.00, 0.00, 0.00
30, 80886.52, 112869.82, 11618.01, 68267.27, 54352.36, 26651.24, 102090.12, 99689.67, 0.00, 0.00, 0.00
31, 80889.77, 112883.23, 11619.40, 68270.25, 54349.70, 26655.79, 102092.55, 99693.76, 0.00, 0.00, 0.00
32, 80886.42, 112864.98, 11621.30, 68278.03, 54345.09, 26658.59, 102093.71, 99689.58, 0.08, -0.24, 0.97
33, 80884.66, 112849.39, 11620.98, 68277.45, 54342.18, 26656.98, 102106.68, 99689.65, 0.00, 0.00, 0.00
34, 80890.94, 112844.95, 11618.50, 68273.67, 54329.29, 26653.22, 102109.94, 99694.99, 0.00, 0.00, 0.00
35, 80894.00, 112862.36, 11616.63, 68274.66, 54349.29, 26663.13, 102115.98, 99698.05, 0.00, 0.00, 0.00
36, 80893.38, 112876.69, 11618.39, 68278.79, 54359.78, 26668.89, 102118.14, 99695.57, 0.00, 0.00, 0.00
37, 80882.73, 112855.66, 11611.17, 68274.02, 54357.34, 26664.54, 102097.96, 99684.28, 0.00, 0.00, 0.00
38, 80885.57, 112853.77, 11610.64, 68272.10, 54346.34, 26662.68, 102094.59, 99683.44, 0.00, 0.00, 0.00
39, 80883.16, 112866.09, 11615.93, 68277.89, 54348.91, 26658.88, 102091.79, 99681.27, 0.00, 0.00, 0.00
40, 80885.93, 112869.89, 11618.68, 68284.09, 54361.99, 26661.41, 102115.33, 99684.42, 0.00, 0.00, 0.00
41, 80886.73, 112861.60, 11616.63, 68283.99, 54364.00, 26665.90, 102117.52, 99686.74, 0.00, 0.00, 0.00
42, 80884.10, 112866.78, 11621.28, 68287.33, 54355.39, 26668.67, 102109.76, 99685.71, 0.08, -0.24, 0.98
43, 80883.41, 112863.07, 11621.52, 68286.16, 54363.31, 26668.22, 102090.00, 99686.63, 0.00, 0.00, 0.00
44, 80886.83, 112864.13, 11622.64, 68279.55, 54361.25, 26667.96, 102086.27, 99687.77, 0.00, 0.00, 0.00
45, 80885.91, 112864.03, 11628.32, 68280.84, 54361.41, 26664.49, 102098.59, 99685.49, 0.00, 0.00, 0.00
46, 80885.98, 112868.95, 11622.30, 68279.41, 54355.51, 26661.00, 102101.60, 99686.07, 0.00, 0.00, 0.00
47, 80890.24, 112903.71, 11622.53, 68280.40, 54349.29, 26661.83, 102099.10, 99687.66, 0.00, 0.00, 0.00
48, 80886.09, 112881.78, 11619.00, 68277.49, 54342.66, 26658.79, 102100.44, 99685.36, 0.00, 0.00, 0.00
49, 80880.97, 112831.58, 11611.78, 68275.03, 54332.35, 26653.36, 102094.61, 99682.98, 0.00, 0.00, 0.00
50, 80889.38, 112849.93, 11614.26, 68282.52, 54345.54, 26659.26, 102102.54, 99689.09, 0.00, 0.00, 0.00
51, 80891.97, 112870.85, 11616.25, 68281.27, 54347.13, 26668.67, 102113.49, 99691.28, 0.00, 0.00, 0.00
52, 80890.36, 112864.86, 11613.41, 68275.88, 54345.49, 26669.88, 102126.41, 99690.03, 0.07, -0.24, 0.97
53, 80890.13, 112877.38, 11619.46, 68280.91, 54379.63, 26676.52, 102117.83, 99687.66, 0.00, 0.00, 0.00
54, 80886.42, 112881.36, 11624.65, 68280.51, 54375.67, 26674.71, 102102.45, 99682.54, 0.00, 0.00, 0.00
55, 80882.98, 112884.51, 11626.50, 68286.45, 54364.11, 26666.72, 102103.68, 99679.45, 0.00, 0.00, 0.00
56, 80889.04, 112882.52, 11630.26, 68296.83, 54352.64, 26670.88, 102100.59, 99683.63, 0.00, 0.00, 0.00
57, 80882.65, 112856.59, 11621.61, 68289.67, 54348.78, 26666.93, 102094.07, 99678.45, 0.00, 0.00, 0.00
58, 80887.49, 112854.87, 11624.31, 68287.69, 54374.08, 26668.85, 102110.48, 99684.95, 0.00, 0.00, 0.00
59, 80891.88, 112855.63, 11620.98, 68284.78, 54363.48, 26666.03, 102115.80, 99690.14, 0.00, 0.00, 0.00
60, 80886.91, 112864.55, 11614.50, 68281.31, 54343.28, 26658.68, 102107.21, 99687.81, 0.00, 0.00, 0.00
61, 80888.81, 112877.53, 11618.24, 68288.69, 54365.16, 26671.60, 102116.24, 99689.72, 0.00, 0.00, 0.00
62, 80888.95, 112875.27, 11611.60, 68283.46, 54354.16, 26665.38, 102126.16, 99685.24, 0.08, -0.24, 0.98
63, 80882.00, 112877.05, 11618.15, 68281.16, 54341.31, 26661.36, 102111.21, 99676.33, 0.00, 0.00, 0.00
64, 80883.80, 112875.52, 11622.44, 68282.86, 54353.23, 26661.03, 102081.64, 99674.13, 0.00, 0.00, 0.00
65, 80886.69, 112886.92, 11620.67, 68282.38, 54364.11, 26669.56, 102098.59, 99679.52, 0.00, 0.00, 0.00
66, 80882.94, 112894.74, 11618.19, 68281.09, 54363.78, 26666.77, 102105.54, 99677.18, 0.00, 0.00, 0.00
67, 80887.92, 112880.58, 11618.64, 68287.17, 54365.52, 26672.87, 102107.82, 99682.74, 0.00, 0.00, 0.00
68, 80885.22, 112865.94, 11614.14, 68286.21, 54347.62, 26671.06, 102109.74, 99682.20, 0.00, 0.00, 0.00
69, 80883.49, 112869.00, 11612.80, 68281.58, 54356.18, 26674.35, 102114.23, 99681.84, 0.00, 0.00, 0.00
70, 80887.01, 112882.72, 11609.92, 68276.04, 54356.89, 26667.40, 102112.40, 99684.24, 0.00, 0.00, 0.00
71, 80890.13, 112891.86, 11611.51, 68276.42, 54348.64, 26666.61, 102115.70, 99687.01, 0.00, 0.00, 0.00
72, 80883.90, 112869.78, 11612.20, 68282.38, 54330.83, 26657.99, 102119.71, 99679.68, 0.07, -0.24, 0.96
73, 80882.16, 112846.04, 11605.43, 68271.34, 54329.94, 26645.02, 102080.55, 99672.95, 0.00, 0.00, 0.00
74, 80893.15, 112860.28, 11604.06, 68261.64, 54364.83, 26648.15, 102087.74, 99679.01, 0.00, 0.00, 0.00
75, 80891.61, 112882.27, 11607.80, 68276.44, 54362.10, 26658.21, 102099.39, 99682.49, 0.00, 0.00, 0.00
76, 80892.39, 112891.02, 11615.73, 68295.87, 54367.84, 26669.14, 102106.48, 99685.87, 0.00, 0.00, 0.00
77, 80899.63, 112872.84, 11609.88, 68294.81, 54367.06, 26673.21, 102113.52, 99690.84, 0.00, 0.00, 0.00
78, 80898.29, 112867.07, 11614.21, 68287.51, 54348.45, 26666.01, 102103.52, 99691.21, 0.00, 0.00, 0.00
79, 80894.31, 112877.11, 11618.62, 68283.84, 54356.89, 26664.20, 102102.84, 99690.77, 0.00, 0.00, 0.00
80, 80894.67, 112882.99, 11611.57, 68276.30, 54337.56, 26652.49, 102099.81, 99687.15, 0.00, 0.00, 0.00
81, 80901.00, 112881.13, 11616.04, 68275.99, 54355.35, 26658.99, 102112.35, 99692.27, 0.00, 0.00, 0.00
82, 80907.75, 112893.41, 11621.43, 68283.88, 54366.17, 26669.23, 102106.09, 99699.91, 0.08, -0.24, 0.97
83, 80906.63, 112884.11, 11618.39, 68280.33, 54354.57, 26665.61, 102106.56, 99698.25, 0.00, 0.00, 0.00
84, 80907.66, 112879.84, 11612.87, 68277.76, 54355.44, 26660.40, 102092.10, 99699.26, 0.00, 0.00, 0.00
85, 80906.56, 112874.16, 11616.36, 68282.21, 54361.63, 26666.86, 102090.72, 99700.94, 0.00, 0.00, 0.00
86, 80910.52, 112874.59, 11616.63, 68284.06, 54357.88, 26667.40, 102099.66, 99700.98, 0.00, 0.00, 0.00
87, 80908.53, 112883.41, 11619.20, 68283.93, 54353.65, 26665.27, 102105.85, 99698.86, 0.00, 0.00, 0.00
88, 80905.76, 112875.10, 11616.85, 68288.96, 54354.81, 26669.97, 102111.80, 99698.01, 0.00, 0.00, 0.00
89, 80907.03, 112876.95, 11613.27, 68287.46, 54355.93, 26669.12, 102117.72, 99700.29, 0.00, 0.00, 0.00
90, 80904.73, 112867.16, 11611.69, 68285.31, 54361.03, 26669.09, 102106.01, 99699.98, 0.00, 0.00, 0.00
91, 80905.47, 112886.23, 11618.24, 68286.05, 54367.00, 26672.51, 102113.72, 99702.63, 0.00, 0.00, 0.00
92, 80904.57, 112880.06, 11617.63, 68282.54, 54365.72, 26672.36, 102112.91, 99701.65, 0.08, -0.24, 0.97
93, 80901.31, 112871.48, 11614.70, 68280.91, 54361.39, 26671.73, 102120.89, 99698.70, 0.00, 0.00, 0.00
94, 80895.50, 112894.63, 11610.84, 68275.55, 54352.91, 26667.71, 102123.13, 99693.54, 0.00, 0.00, 0.00
95, 80894.65, 112880.46, 11599.84, 68269.24, 54349.20, 26659.69, 102099.23, 99692.87, 0.00, 0.00, 0.00
96, 80919.66, 112862.13, 11610.12, 68282.45, 54362.26, 26671.93, 102105.73, 99725.39, 0.00, 0.00, 0.00
97, 80918.48, 112849.73, 11608.45, 68280.24, 54360.74, 26673.28, 102108.87, 99727.42, 0.00, 0.00, 0.00
98, 80899.63, 112873.38, 11615.22, 68285.78, 54360.54, 26678.28, 102113.16, 99695.57, 0.00, 0.00, 0.00
99, 80903.77, 112879.73, 11612.92, 68285.27, 54359.95, 26676.67, 102102.81, 99696.89, 0.00, 0.00, 0.00
100, 80914.67, 112875.34, 11610.70, 68280.73, 54351.68, 26670.82, 102109.88, 99709.01, 0.00, 0.00, 0.00
101, 80914.66, 112873.20, 11610.81, 68278.66, 54333.25, 26657.18, 102101.63, 99709.88, 0.00, 0.00, 0.00
102, 80924.33, 112881.63, 11621.99, 68288.63, 54335.43, 26665.36, 102099.57, 99710.63, 0.07, -0.24, 0.97
103, 80921.74, 112882.14, 11620.67, 68286.27, 54374.19, 26673.52, 102099.77, 99704.31, 0.00, 0.00, 0.00
104, 80929.47, 112889.49, 11623.78, 68288.17, 54378.48, 26676.00, 102102.12, 99715.63, 0.00, 0.00, 0.00
105, 80934.61, 112892.17, 11625.28, 68290.34, 54363.75, 26675.15, 102121.38, 99721.90, 0.00, 0.00, 0.00
106, 80939.64, 112892.89, 11625.01, 68292.27, 54355.04, 26670.73, 102116.58, 99723.66, 0.00, 0.00, 0.00
107, 80938.55, 112895.82, 11626.21, 68295.59, 54369.41, 26677.72, 102104.13, 99724.05, 0.00, 0.00, 0.00
108, 80941.95, 112896.40, 11622.39, 68291.41, 54394.40, 26687.07, 102116.98, 99725.59, 0.00, 0.00, 0.00
109, 80941.68, 112877.02, 11623.09, 68294.81, 54404.21, 26691.25, 102122.39, 99723.45, 0.00, 0.00, 0.00
110, 80939.40, 112889.00, 11625.48, 68300.00, 54387.00, 26687.29, 102125.45, 99722.28, 0.00, 0.00, 0.00
111, 80939.76, 112907.66, 11627.96, 68297.36, 54382.60, 26687.22, 102120.29, 99723.84, 0.00, 0.00, 0.00
112, 80938.46, 112888.89, 11625.72, 68294.79, 54387.58, 26683.09, 102116.00, 99722.44, 0.07, -0.24, 0.97
113, 80936.58, 112890.79, 11628.81, 68290.21, 54386.17, 26683.31, 102119.28, 99719.94, 0.00, 0.00, 0.00
114, 80936.70, 112890.79, 11629.66, 68289.94, 54377.88, 26680.90, 102123.69, 99720.29, 0.00, 0.00, 0.00
115, 80937.30, 112869.40, 11631.15, 68291.04, 54373.32, 26676.09, 102109.13, 99721.14, 0.00, 0.00, 0.00
116, 80939.24, 112881.91, 11632.92, 68290.27, 54374.59, 26672.85, 102111.35, 99721.88, 0.00, 0.00, 0.00
117, 80940.98, 112900.34, 11634.15, 68292.13, 54371.98, 26674.82, 102094.70, 99721.01, 0.00, 0.00, 0.00
118, 80937.99, 112879.62, 11627.94, 68290.63, 54368.74, 26678.68, 102098.79, 99719.11, 0.00, 0.00, 0.00
119, 80939.27, 112879.23, 11624.65, 68293.65, 54372.92, 26680.61, 102104.98, 99721.16, 0.00, 0.00, 0.00
120, 80941.07, 112885.05, 11626.13, 68302.08, 54380.94, 26680.36, 102107.50, 99721.27, 0.00, 0.00, 0.00
121, 80941.97, 112885.73, 11627.22, 68300.34, 54378.93, 26682.53, 102114.55, 99723.60, 0.00, 0.00, 0.00
122, 80941.79, 112894.70, 11633.28, 68299.89, 54379.85, 26683.94, 102115.44, 99725.48, 0.07, -0.25, 0.97
123, 80939.91, 112902.59, 11635.56, 68296.20, 54377.52, 26684.36, 102128.41, 99723.89, 0.00, 0.00, 0.00
124, 80934.70, 112908.52, 11638.75, 68289.31, 54371.46, 26679.78, 102132.96, 99719.13, 0.00, 0.00, 0.00
125, 80934.34, 112905.88, 11632.70, 68283.82, 54365.25, 26677.50, 102104.09, 99718.02, 0.00, 0.00, 0.00
126, 80930.16, 112875.99, 11628.11, 68282.97, 54359.22, 26674.01, 102097.04, 99715.55, 0.00, 0.00, 0.00
127, 80933.43, 112874.72, 11628.05, 68288.84, 54372.61, 26672.04, 102102.66, 99719.55, 0.00, 0.00, 0.00
128, 80939.76, 112892.16, 11633.17, 68300.98, 54372.14, 26678.42, 102109.59, 99725.61, 0.00, 0.00, 0.00
129, 80944.41, 112933.82, 11633.55, 68300.38, 54355.82, 26675.29, 102114.68, 99728.02, 0.00, 0.00, 0.00
130, 80944.38, 112880.17, 11628.79, 68295.06, 54346.70, 26667.46, 102120.73, 99726.23, 0.00, 0.00, 0.00
131, 80942.62, 112871.68, 11627.13, 68284.04, 54362.79, 26670.99, 102119.10, 99726.46, 0.00, 0.00, 0.00
132, 80942.46, 112894.03, 11629.41, 68285.34, 54378.68, 26670.08, 102113.98, 99725.75, 0.07, -0.25, 0.98
133, 80938.30, 112884.71, 11629.21, 68292.22, 54370.24, 26674.08, 102112.58, 99721.41, 0.00, 0.00, 0.00
134, 80936.87, 112890.30, 11632.81, 68294.16, 54378.33, 26675.42, 102116.27, 99720.83, 0.00, 0.00, 0.00
135, 80936.52, 112892.24, 11634.93, 68295.15, 54381.61, 26683.87, 102130.05, 99723.71, 0.00, 0.00, 0.00
136, 80938.50, 112902.41, 11638.71, 68298.28, 54383.20, 26688.74, 102119.64, 99725.12, 0.00, 0.00, 0.00
137, 80938.99, 112904.98, 11636.16, 68301.14, 54359.46, 26684.54, 102124.09, 99725.34, 0.00, 0.00, 0.00
138, 80939.73, 112897.61, 11638.93, 68304.60, 54392.27, 26692.43, 102122.39, 99729.57, 0.00, 0.00, 0.00
139, 80942.46, 112902.39, 11635.63, 68299.64, 54400.48, 26693.75, 102115.17, 99732.45, 0.00, 0.00, 0.00
140, 80959.67, 112920.47, 11631.47, 68296.27, 54384.32, 26693.44, 102124.20, 99753.38, 0.00, 0.00, 0.00
141, 80963.02, 112912.31, 11636.00, 68307.24, 54393.80, 26687.83, 102149.84, 99755.25, 0.07, -0.25, 0.97
142, 80942.39, 112890.72, 11640.41, 68310.17, 54393.50, 26690.75, 102134.98, 99722.95, 0.00, 0.00, 0.00
143, 80943.66, 112893.12, 11641.95, 68309.81, 54389.57, 26690.75, 102119.17, 99725.16, 0.00, 0.00, 0.00
144, 80952.02, 112907.77, 11644.07, 68309.92, 54391.05, 26691.11, 102120.22, 99731.00, 0.00, 0.00, 0.00
145, 80959.60, 112923.94, 11644.05, 68303.45, 54384.47, 26688.36, 102108.66, 99736.48, 0.00, 0.00, 0.00
146, 80960.61, 112904.47, 11638.64, 68298.50, 54378.15, 26678.91, 102118.52, 99736.84, 0.00, 0.00, 0.00
147, 80965.52, 112898.41, 11638.33, 68300.91, 54379.80, 26681.39, 102127.77, 99742.02, 0.00, 0.00, 0.00
148, 80966.20, 112899.53, 11642.91, 68307.02, 54366.86, 26680.43, 102115.08, 99742.71, 0.00, 0.00, 0.00
149, 80961.46, 112900.00, 11644.12, 68314.48, 54366.57, 26678.39, 102115.15, 99740.50, 0.00, 0.00, 0.00
150, 80962.77, 112906.64, 11636.25, 68301.03, 54386.15, 26679.78, 102108.38, 99738.62, 0.00, 0.00, 0.00
151, 80962.80, 112900.31, 11642.55, 68308.52, 54380.92, 26681.41, 102113.88, 99737.99, 0.08, -0.24, 0.97
152, 80960.41, 112911.69, 11645.10, 68316.34, 54396.70, 26689.95, 102115.30, 99737.64, 0.00, 0.00, 0.00
153, 80959.55, 112912.56, 11643.47, 68310.20, 54396.45, 26695.54, 102122.68, 99737.23, 0.00, 0.00, 0.00
154, 80957.66, 112901.52, 11645.46, 68305.45, 54388.77, 26689.52, 102126.39, 99733.32, 0.00, 0.00, 0.00
155, 80954.51, 112910.91, 11646.17, 68308.43, 54390.20, 26681.30, 102097.45, 99727.42, 0.00, 0.00, 0.00
156, 80958.22, 112925.95, 11644.90, 68311.76, 54381.03, 26682.37, 102111.75, 99731.49, 0.00, 0.00, 0.00
157, 80958.59, 112906.95, 11644.16, 68309.23, 54388.45, 26685.99, 102122.23, 99733.73, 0.00, 0.00, 0.00
158, 80956.74, 112903.51, 11646.58, 68304.67, 54392.99, 26693.41, 102112.11, 99733.50, 0.00, 0.00, 0.00
159, 80951.22, 112903.10, 11642.71, 68303.45, 54372.49, 26685.28, 102105.73, 99726.71, 0.00, 0.00, 0.00
160, 80947.64, 112899.75, 11639.18, 68305.16, 54372.94, 26677.10, 102099.86, 99723.84, 0.00, 0.00, 0.00
161, 80947.63, 112921.99, 11638.58, 68302.26, 54394.40, 26683.47, 102104.71, 99726.44, 0.08, -0.25, 0.97
162, 80951.66, 112925.88, 11638.69, 68304.20, 54387.83, 26691.96, 102113.23, 99731.45, 0.00, 0.00, 0.00
163, 80954.95, 112907.71, 11645.37, 68307.89, 54395.16, 26695.58, 102124.29, 99738.76, 0.00, 0.00, 0.00
164, 80957.70, 112901.12, 11645.62, 68303.73, 54401.33, 26691.80, 102134.70, 99739.00, 0.00, 0.00, 0.00
165, 80955.40, 112910.99, 11637.48, 68293.72, 54408.37, 26689.41, 102113.80, 99733.73, 0.00, 0.00, 0.00
166, 80955.34, 112912.45, 11638.73, 68296.29, 54399.43, 26687.76, 102119.38, 99731.78, 0.00, 0.00, 0.00
167, 80957.23, 112912.41, 11643.94, 68304.23, 54392.63, 26688.07, 102123.30, 99733.34, 0.00, 0.00, 0.00
168, 80954.62, 112902.30, 11637.59, 68294.37, 54397.39, 26688.68, 102108.73, 99731.87, 0.00, 0.00, 0.00
169, 80951.91, 112906.91, 11637.17, 68293.65, 54403.34, 26689.84, 102119.66, 99729.81, 0.00, 0.00, 0.00
170, 80951.76, 112913.66, 11636.70, 68306.64, 54404.57, 26685.05, 102123.46, 99727.36, 0.00, 0.00, 0.00
171, 80954.62, 112917.30, 11629.84, 68298.13, 54397.19, 26681.72, 102112.69, 99730.59, 0.08, -0.24, 0.97
172, 80954.46, 112914.66, 11630.77, 68299.58, 54395.96, 26684.43, 102119.28, 99733.55, 0.00, 0.00, 0.00
173, 80953.12, 112929.93, 11638.93, 68307.80, 54400.34, 26689.88, 102125.83, 99732.97, 0.00, 0.00, 0.00
174, 80941.61, 112916.72, 11642.06, 68306.55, 54394.33, 26685.54, 102103.19, 99722.39, 0.00, 0.00, 0.00
175, 80936.87, 112900.29, 11640.43, 68297.18, 54386.80, 26679.13, 102111.73, 99719.69, 0.00, 0.00, 0.00
176, 80935.77, 112905.79, 11638.35, 68285.74, 54399.56, 26682.26, 102118.50, 99718.57, 0.00, 0.00, 0.00
177, 80934.13, 112904.65, 11636.97, 68298.73, 54388.48, 26679.94, 102108.82, 99715.33, 0.00, 0.00, 0.00
178, 80942.17, 112911.13, 11642.98, 68318.28, 54422.65, 26696.50, 102118.34, 99728.41, 0.00, 0.00, 0.00
179, 80942.46, 112913.37, 11643.31, 68315.87, 54407.92, 26694.40, 102121.14, 99730.20, 0.00, 0.00, 0.00
180, 80938.97, 112906.46, 11632.65, 68296.73, 54376.36, 26676.45, 102107.50, 99719.64, 0.00, 0.00, 0.00
181, 80943.87, 112919.76, 11632.05, 68297.77, 54401.51, 26678.19, 102115.70, 99724.56, 0.08, -0.25, 0.97
182, 80951.38, 112932.48, 11637.28, 68304.72, 54402.04, 26679.85, 102120.84, 99733.97, 0.00, 0.00, 0.00
183, 80949.79, 112913.55, 11632.99, 68295.82, 54426.47, 26690.31, 102120.67, 99732.27, 0.00, 0.00, 0.00
184, 80950.82, 112906.16, 11630.30, 68307.73, 54424.21, 26692.25, 102131.22, 99730.62, 0.00, 0.00, 0.00
185, 80955.60, 112913.32, 11635.18, 68315.73, 54425.11, 26694.71, 102125.97, 99737.57, 0.00, 0.00, 0.00
186, 80951.82, 112921.73, 11633.01, 68316.77, 54429.51, 26696.45, 102134.52, 99736.41, 0.00, 0.00, 0.00
187, 80956.30, 112920.65, 11632.00, 68314.04, 54417.20, 26695.02, 102123.75, 99738.33, 0.00, 0.00, 0.00
188, 80957.63, 112928.48, 11638.55, 68295.04, 54448.87, 26702.20, 102123.55, 99737.88, 0.00, 0.00, 0.00
189, 80957.26, 112919.40, 11640.86, 68310.51, 54444.96, 26702.42, 102126.86, 99737.19, 0.00, 0.00, 0.00
190, 80963.85, 112913.66, 11640.50, 68332.37, 54434.21, 26700.25, 102134.51, 99743.18, 0.00, 0.00, 0.00
191, 80966.66, 112915.24, 11635.83, 68332.37, 54434.99, 26702.18, 102135.29, 99749.53, 0.08, -0.25, 0.98
192, 80957.39, 112913.59, 11632.58, 68316.45, 54421.04, 26692.77, 102130.17, 99740.39, 0.00, 0.00, 0.00
193, 80945.56, 112922.55, 11639.09, 68299.09, 54407.16, 26687.13, 102115.30, 99728.14, 0.00, 0.00, 0.00
194, 80938.99, 112925.95, 11643.94, 68292.47, 54408.50, 26683.15, 102122.97, 99722.62, 0.00, 0.00, 0.00
195, 80939.22, 112906.80, 11643.02, 68297.77, 54413.13, 26679.22, 102118.03, 99721.43, 0.00, 0.00, 0.00
196, 80945.52, 112910.75, 11641.57, 68308.91, 54404.34, 26685.28, 102121.32, 99729.19, 0.00, 0.00, 0.00
197, 80950.02, 112918.53, 11641.55, 68310.75, 54402.60, 26686.89, 102107.66, 99733.84, 0.00, 0.00, 0.00
198, 80951.89, 112916.23, 11642.53, 68308.07, 54425.96, 26697.44, 102124.34, 99737.39, 0.00, 0.00, 0.00
199, 80955.29, 112917.01, 11637.70, 68303.60, 54434.05, 26700.37, 102126.26, 99742.84, 0.00, 0.00, 0.00
200, 80960.52, 112919.69, 11632.47, 68296.22, 54416.13, 26691.60, 102126.70, 99745.95, 0.00, 0.00, 0.00
201, 80954.39, 112913.88, 11626.28, 68287.66, 54387.89, 26680.00, 102119.26, 99738.98, 0.08, -0.25, 0.97
202, 80950.10, 112918.13, 11632.18, 68293.54, 54392.72, 26677.95, 102117.80, 99737.13, 0.00, 0.00, 0.00
203, 80955.45, 112929.95, 11636.54, 68294.48, 54429.69, 26693.30, 102125.83, 99744.95, 0.00, 0.00, 0.00
204, 80952.36, 112926.28, 11632.61, 68290.19, 54404.86, 26689.50, 102133.01, 99743.27, 0.00, 0.00, 0.00
205, 80951.31, 112918.95, 11638.08, 68309.39, 54408.21, 26690.20, 102134.39, 99743.78, 0.00, 0.00, 0.00
206, 80950.86, 112910.15, 11632.09, 68310.86, 54402.51, 26686.71, 102116.47, 99741.41, 0.00, 0.00, 0.00
207, 80956.74, 112909.59, 11631.33, 68310.15, 54406.29, 26688.52, 102117.61, 99744.86, 0.00, 0.00, 0.00
208, 80962.77, 112920.59, 11637.39, 68308.54, 54448.60, 26708.41, 102131.04, 99753.80, 0.00, 0.00, 0.00
209, 80964.01, 112927.11, 11639.63, 68317.73, 54454.17, 26711.59, 102129.88, 99755.25, 0.00, 0.00, 0.00
210, 80962.64, 112923.45, 11640.48, 68319.60, 54447.71, 26708.59, 102126.05, 99748.92, 0.00, 0.00, 0.00
211, 80961.28, 112932.27, 11639.54, 68310.20, 54443.73, 26707.83, 102130.50, 99749.87, 0.07, -0.25, 0.97
212, 80958.22, 112929.30, 11636.16, 68301.56, 54440.62, 26704.21, 102137.73, 99748.52, 0.00, 0.00, 0.00
213, 80960.34, 112924.25, 11636.47, 68313.01, 54441.38, 26708.39, 102134.80, 99746.18, 0.00, 0.00, 0.00
214, 80959.42, 112920.88, 11632.14, 68318.33, 54437.52, 26708.46, 102130.46, 99744.39, 0.00, 0.00, 0.00
215, 80958.02, 112916.98, 11635.27, 68327.36, 54434.23, 26700.41, 102131.55, 99744.52, 0.00, 0.00, 0.00
216, 80953.95, 112920.07, 11635.92, 68323.58, 54436.78, 26701.37, 102143.73, 99744.79, 0.00, 0.00, 0.00
217, 80951.16, 112922.57, 11646.78, 68313.74, 54431.41, 26700.92, 102130.73, 99739.23, 0.00, 0.00, 0.00
218, 80950.51, 112930.58, 11651.61, 68308.13, 54430.36, 26697.55, 102120.13, 99735.02, 0.00, 0.00, 0.00
219, 80951.73, 112932.19, 11655.12, 68319.18, 54423.10, 26693.19, 102119.40, 99738.22, 0.00, 0.00, 0.00
220, 80948.38, 112932.95, 11650.33, 68318.48, 54418.47, 26689.50, 102118.81, 99733.95, 0.00, 0.00, 0.00
221, 80950.80, 112928.41, 11643.83, 68320.97, 54427.21, 26695.96, 102119.88, 99735.70, 0.07, -0.25, 0.97
222, 80950.53, 112932.09, 11641.37, 68313.16, 54421.69, 26692.14, 102114.81, 99736.34, 0.00, 0.00, 0.00
223, 80949.39, 112946.91, 11644.34, 68307.40, 54428.06, 26693.21, 102114.27, 99737.80, 0.00, 0.00, 0.00
224, 80954.88, 112936.56, 11643.78, 68313.52, 54431.55, 26701.59, 102126.81, 99744.41, 0.00, 0.00, 0.00
225, 80950.80, 112908.91, 11639.71, 68319.67, 54429.31, 26697.39, 102127.91, 99741.68, 0.00, 0.00, 0.00
226, 80949.81, 112915.80, 11638.13, 68316.72, 54409.91, 26690.31, 102117.18, 99742.11, 0.00, 0.00, 0.00
227, 80956.85, 112927.71, 11640.63, 68313.81, 54431.32, 26698.29, 102129.09, 99744.63, 0.00, 0.00, 0.00
228, 80955.27, 112931.24, 11640.79, 68318.15, 54441.74, 26696.01, 102135.63, 99738.91, 0.00, 0.00, 0.00
229, 80952.96, 112934.22, 11642.91, 68319.13, 54433.34, 26697.46, 102114.97, 99740.45, 0.00, 0.00, 0.00
230, 80946.44, 112932.32, 11638.26, 68307.94, 54422.90, 26690.57, 102122.08, 99737.62, 0.00, 0.00, 0.00
231, 80948.05, 112940.86, 11637.48, 68308.96, 54408.17, 26689.90, 102124.16, 99737.70, 0.07, -0.25, 0.97
232, 80951.35, 112947.23, 11640.68, 68317.01, 54406.96, 26692.70, 102123.69, 99739.83, 0.00, 0.00, 0.00
233, 80952.92, 112936.86, 11640.61, 68311.82, 54427.64, 26694.40, 102123.33, 99740.43, 0.00, 0.00, 0.00
234, 80958.26, 112927.83, 11641.19, 68309.48, 54451.17, 26706.36, 102128.83, 99747.23, 0.00, 0.00, 0.00
235, 80957.93, 112936.70, 11646.24, 68316.65, 54463.73, 26706.89, 102135.09, 99747.23, 0.00, 0.00, 0.00
236, 80957.10, 112945.62, 11647.18, 68315.91, 54464.29, 26704.16, 102136.92, 99748.32, 0.00, 0.00, 0.00
237, 80949.81, 112950.54, 11647.76, 68325.32, 54439.71, 26695.71, 102126.52, 99739.83, 0.00, 0.00, 0.00
238, 80947.80, 112939.52, 11647.09, 68322.93, 54425.73, 26690.13, 102130.68, 99736.81, 0.00, 0.00, 0.00
239, 80948.56, 112939.31, 11647.76, 68313.73, 54441.23, 26701.04, 102136.70, 99740.61, 0.00, 0.00, 0.00
240, 80952.02, 112937.57, 11644.43, 68311.76, 54436.75, 26705.17, 102133.52, 99744.01, 0.00, 0.00, 0.00
241, 80950.10, 112937.59, 11644.07, 68315.51, 54417.60, 26693.66, 102120.27, 99743.12, 0.08, -0.24, 0.96
242, 80946.64, 112939.92, 11641.32, 68304.27, 54427.19, 26690.13, 102111.26, 99739.96, 0.00, 0.00, 0.00
243, 80950.95, 112940.79, 11641.75, 68312.47, 54443.13, 26703.81, 102121.83, 99742.29, 0.00, 0.00, 0.00
244, 80951.69, 112950.83, 11647.47, 68319.89, 54436.04, 26696.28, 102124.29, 99742.78, 0.00, 0.00, 0.00
245, 80945.90, 112940.97, 11642.20, 68308.52, 54431.61, 26694.62, 102120.53, 99737.93, 0.00, 0.00, 0.00
246, 80942.77, 112934.60, 11639.96, 68310.59, 54431.10, 26695.49, 102111.62, 99731.78, 0.00, 0.00, 0.00
247, 80945.59, 112939.92, 11641.37, 68312.13, 54430.86, 26699.22, 102130.62, 99733.80, 0.00, 0.00, 0.00
248, 80950.04, 112947.74, 11646.62, 68310.51, 54427.19, 26705.17, 102127.66, 99738.95, 0.00, 0.00, 0.00
249, 80949.84, 112943.54, 11648.21, 68302.80, 54429.89, 26703.25, 102117.80, 99736.97, 0.00, 0.00, 0.00
250, 80951.04, 112941.53, 11641.75, 68302.34, 54431.01, 26696.41, 102121.05, 99732.43, 0.00, 0.00, 0.00
251, 80951.47, 112943.20, 11639.40, 68301.43, 54428.22, 26693.86, 102121.05, 99733.19, 0.08, -0.25, 0.97
252, 80949.66, 112950.67, 11638.96, 68300.88, 54425.85, 26693.84, 102115.64, 99731.87, 0.00, 0.00, 0.00
253, 80948.02, 112957.42, 11641.88, 68305.05, 54429.29, 26698.46, 102121.52, 99732.16, 0.00, 0.00, 0.00
254, 80944.91, 112940.63, 11640.63, 68302.55, 54426.74, 26695.16, 102125.61, 99730.95, 0.00, 0.00, 0.00
255, 80947.27, 112930.76, 11638.31, 68297.25, 54429.98, 26695.74, 102121.52, 99731.65, 0.00, 0.00, 0.00
0, 80943.62, 112931.20, 11631.49, 68293.45, 54429.27, 26695.78, 102129.54, 99723.83, 0.00, 0.00, 0.00
1, 80943.69, 112934.84, 11634.51, 68303.09, 54424.68, 26697.17, 102133.41, 99725.45, 0.00, 0.00, 0.00
2, 80951.24, 112940.99, 11639.69, 68312.30, 54427.99, 26704.95, 102135.38, 99730.09, 0.00, 0.00, 0.00
3, 80942.91, 112938.29, 11628.34, 68293.25, 54392.43, 26688.90, 102114.55, 99722.13, 0.00, 0.00, 0.00
4, 80944.25, 112934.76, 11624.29, 68282.95, 54394.02, 26681.03, 102107.73, 99728.70, 0.00, 0.00, 0.00
5, 80947.13, 112929.30, 11620.60, 68290.74, 54435.28, 26696.34, 102120.67, 99732.59, 0.07, -0.25, 0.97
6, 80948.29, 112950.38, 11633.59, 68309.19, 54426.00, 26698.35, 102128.60, 99733.50, 0.00, 0.00, 0.00
7, 80945.48, 112950.49, 11635.56, 68314.66, 54444.36, 26699.49, 102137.41, 99730.38, 0.00, 0.00, 0.00
8, 80946.51, 112935.63, 11626.68, 68287.95, 54458.59, 26704.50, 102143.78, 99731.80, 0.00, 0.00, 0.00
9, 80944.47, 112923.65, 11620.81, 68280.64, 54436.55, 26696.05, 102137.25, 99730.02, 0.00, 0.00, 0.00
10, 80947.31, 112932.56, 11639.40, 68306.91, 54436.93, 26695.54, 102135.98, 99729.99, 0.00, 0.00, 0.00
11, 80953.34, 112942.42, 11644.34, 68314.93, 54437.76, 26697.41, 102143.27, 99732.72, 0.00, 0.00, 0.00
12, 80953.03, 112944.37, 11642.67, 68306.57, 54436.29, 26700.46, 102149.19, 99737.26, 0.00, 0.00, 0.00
13, 80946.82, 112938.33, 11644.77, 68299.51, 54430.72, 26696.12, 102146.77, 99731.36, 0.00, 0.00, 0.00
14, 80948.36, 112935.23, 11638.73, 68303.04, 54427.30, 26690.35, 102146.77, 99731.78, 0.00, 0.00, 0.00
15, 80947.13, 112936.03, 11637.73, 68307.33, 54427.84, 26692.61, 102128.49, 99733.44, 0.08, -0.25, 0.97
16, 80944.00, 112937.15, 11635.56, 68305.27, 54422.23, 26691.51, 102136.47, 99733.57, 0.00, 0.00, 0.00
17, 80945.34, 112938.06, 11635.13, 68301.50, 54405.86, 26691.18, 102138.04, 99733.88, 0.00, 0.00, 0.00
18, 80946.80, 112939.52, 11638.58, 68303.64, 54421.54, 26695.09, 102140.31, 99736.34, 0.00, 0.00, 0.00
19, 80944.27, 112940.66, 11637.08, 68308.18, 54428.53, 26694.91, 102147.20, 99734.77, 0.00, 0.00, 0.00
20, 80949.66, 112950.87, 11638.37, 68305.38, 54447.93, 26705.04, 102156.61, 99741.86, 0.00, 0.00, 0.00
21, 80945.97, 112946.16, 11636.79, 68309.23, 54425.24, 26696.88, 102144.70, 99735.38, 0.00, 0.00, 0.00
22, 80939.58, 112931.49, 11635.51, 68301.03, 54414.43, 26691.63, 102133.45, 99729.97, 0.00, 0.00, 0.00
23, 80938.93, 112934.27, 11632.07, 68271.26, 54429.58, 26695.22, 102137.01, 99729.81, 0.00, 0.00, 0.00
24, 80943.15, 112937.73, 11628.92, 68268.13, 54424.68, 26691.87, 102152.41, 99732.50, 0.00, 0.00, 0.00
25, 80945.63, 112931.36, 11633.19, 68311.09, 54429.80, 26693.99, 102166.20, 99736.66, 0.08, -0.24, 0.97
26, 80949.95, 112941.88, 11644.77, 68338.13, 54452.91, 26704.61, 102144.59, 99738.98, 0.00, 0.00, 0.00
27, 80946.82, 112941.62, 11642.60, 68313.88, 54459.82, 26705.93, 102139.34, 99734.71, 0.00, 0.00, 0.00
28, 80941.12, 112937.30, 11634.22, 68277.85, 54448.13, 26700.61, 102138.04, 99728.18, 0.00, 0.00, 0.00
29, 80943.78, 112941.46, 11636.41, 68310.93, 54433.02, 26696.34, 102144.45, 99732.83, 0.00, 0.00, 0.00
30, 80942.55, 112944.99, 11638.40, 68322.53, 54422.94, 26691.92, 102144.38, 99731.60, 0.00, 0.00, 0.00
31, 80941.12, 112936.30, 11626.33, 68266.74, 54425.56, 26690.87, 102141.84, 99729.63, 0.00, 0.00, 0.00
32, 80944.80, 112937.95, 11625.12, 68279.28, 54436.82, 26694.75, 102139.58, 99730.55, 0.00, 0.00, 0.00
33, 80952.41, 112961.16, 11646.62, 68343.79, 54439.08, 26708.23, 102153.10, 99740.92, 0.00, 0.00, 0.00
34, 80948.85, 112954.13, 11643.00, 68338.63, 54436.96, 26702.35, 102156.37, 99742.24, 0.00, 0.00, 0.00
35, 80951.63, 112946.47, 11638.20, 68331.02, 54418.61, 26695.25, 102163.70, 99747.70, 0.08, -0.25, 0.97
36, 80961.57, 112946.09, 11638.67, 68325.55, 54443.95, 26696.01, 102151.98, 99750.80, 0.00, 0.00, 0.00
37, 80953.79, 112937.88, 11639.29, 68319.22, 54448.76, 26701.46, 102141.03, 99740.52, 0.00, 0.00, 0.00
38, 80932.94, 112939.52, 11638.75, 68316.20, 54447.93, 26703.20, 102148.12, 99722.88, 0.00, 0.00, 0.00
39, 80921.90, 112939.85, 11634.44, 68308.02, 54430.36, 26695.83, 102140.63, 99707.58, 0.00, 0.00, 0.00
40, 80917.76, 112941.41, 11631.42, 68304.73, 54433.56, 26689.19, 102137.59, 99699.23, 0.00, 0.00, 0.00
41, 80912.06, 112942.42, 11635.94, 68310.20, 54445.43, 26698.44, 102140.52, 99694.77, 0.00, 0.00, 0.00
42, 80901.94, 112947.45, 11639.07, 68310.59, 54440.78, 26702.15, 102144.02, 99687.46, 0.00, 0.00, 0.00
43, 80892.86, 112945.30, 11631.42, 68301.66, 54427.55, 26688.81, 102138.38, 99679.57, 0.00, 0.00, 0.00
44, 80887.90, 112941.04, 11624.99, 68295.82, 54416.48, 26678.62, 102138.59, 99675.25, 0.00, 0.00, 0.00
45, 80890.63, 112947.07, 11628.14, 68297.27, 54414.05, 26689.90, 102145.13, 99677.89, 0.08, -0.25, 0.97
46, 80888.10, 112929.05, 11629.41, 68296.02, 54421.29, 26683.49, 102151.54, 99672.68, 0.00, 0.00, 0.00
47, 80888.91, 112926.84, 11629.70, 68291.15, 54425.69, 26680.90, 102128.09, 99672.30, 0.00, 0.00, 0.00
48, 80892.28, 112937.26, 11632.25, 68291.23, 54430.86, 26685.84, 102124.70, 99674.20, 0.00, 0.00, 0.00
49, 80894.02, 112943.16, 11629.52, 68291.46, 54428.98, 26685.37, 102127.77, 99675.27, 0.00, 0.00, 0.00
50, 80894.36, 112947.67, 11628.23, 68289.80, 54425.73, 26683.09, 102124.23, 99678.05, 0.00, 0.00, 0.00
51, 80893.80, 112928.52, 11626.91, 68285.25, 54421.33, 26684.94, 102130.84, 99680.02, 0.00, 0.00, 0.00
52, 80894.27, 112922.59, 11629.46, 68285.85, 54415.30, 26688.27, 102132.90, 99681.20, 0.00, 0.00, 0.00
53, 80891.95, 112920.27, 11635.45, 68290.30, 54427.79, 26690.51, 102139.94, 99682.59, 0.00, 0.00, 0.00
54, 80895.41, 112927.29, 11631.89, 68283.30, 54424.77, 26685.43, 102133.39, 99682.83, 0.00, 0.00, 0.00
55, 80895.77, 112931.13, 11630.28, 68282.14, 54406.11, 26676.02, 102130.70, 99680.57, 0.08, -0.25, 0.97
56, 80900.05, 112930.58, 11632.03, 68285.85, 54407.79, 26679.24, 102132.90, 99683.21, 0.00, 0.00, 0.00
57, 80902.38, 112932.07, 11633.03, 68289.34, 54425.58, 26686.87, 102153.64, 99688.71, 0.00, 0.00, 0.00
58, 80910.14, 112935.54, 11635.60, 68289.83, 54434.41, 26696.41, 102157.88, 99701.07, 0.00, 0.00, 0.00
59, 80907.66, 112930.38, 11624.94, 68278.77, 54428.64, 26685.10, 102130.73, 99696.60, 0.00, 0.00, 0.00
60, 80904.77, 112937.82, 11617.05, 68271.81, 54429.38, 26680.18, 102133.27, 99694.79, 0.00, 0.00, 0.00
61, 80907.01, 112938.45, 11616.56, 68276.80, 54415.63, 26683.45, 102146.62, 99696.58, 0.00, 0.00, 0.00
62, 80911.23, 112935.52, 11619.73, 68283.15, 54407.79, 26687.67, 102146.95, 99698.57, 0.00, 0.00, 0.00
63, 80911.93, 112940.14, 11626.73, 68274.66, 54430.21, 26689.72, 102140.09, 99700.73, 0.00, 0.00, 0.00
64, 80911.86, 112937.13, 11631.74, 68276.48, 54411.88, 26678.44, 102137.05, 99699.98, 0.00, 0.00, 0.00
65, 80911.79, 112948.93, 11645.06, 68280.64, 54400.48, 26674.82, 102136.67, 99699.75, 0.08, -0.24, 0.98
66, 80913.52, 112925.45, 11635.36, 68275.37, 54401.86, 26671.13, 102138.04, 99699.02, 0.00, 0.00, 0.00
67, 80920.06, 112923.71, 11633.88, 68271.16, 54417.53, 26680.81, 102150.62, 99705.36, 0.00, 0.00, 0.00
68, 80924.69, 112937.80, 11633.77, 68276.17, 54413.33, 26689.12, 102163.88, 99710.86, 0.00, 0.00, 0.00
69, 80925.29, 112935.07, 11635.36, 68290.01, 54410.69, 26685.28, 102139.42, 99708.80, 0.00, 0.00, 0.00
70, 80917.76, 112930.27, 11629.12, 68278.41, 54435.57, 26685.26, 102140.45, 99700.02, 0.00, 0.00, 0.00
71, 80912.06, 112940.14, 11626.28, 68269.58, 54426.00, 26680.67, 102140.63, 99697.78, 0.00, 0.00, 0.00
72, 80915.23, 112933.98, 11635.00, 68288.96, 54443.39, 26692.70, 102157.41, 99708.70, 0.00, 0.00, 0.00
73, 80917.80, 112935.45, 11633.77, 68291.23, 54436.84, 26695.29, 102151.23, 99710.44, 0.00, 0.00, 0.00
74, 80920.40, 112948.16, 11628.07, 68271.30, 54419.21, 26687.02, 102151.29, 99710.75, 0.00, 0.00, 0.00
75, 80918.97, 112936.05, 11633.10, 68290.86, 54436.51, 26691.74, 102159.27, 99709.45, 0.08, -0.25, 0.98
76, 80921.60, 112933.73, 11639.51, 68299.84, 54440.04, 26697.48, 102159.61, 99709.99, 0.00, 0.00, 0.00
77, 80917.98, 112941.26, 11641.32, 68301.84, 54434.97, 26701.55, 102167.79, 99706.68, 0.00, 0.00, 0.00
78, 80914.77, 112940.77, 11641.53, 68301.12, 54437.11, 26697.95, 102152.48, 99702.44, 0.00, 0.00, 0.00
79, 80914.54, 112934.27, 11635.16, 68294.16, 54428.39, 26694.53, 102155.42, 99701.90, 0.00, 0.00, 0.00
80, 80916.80, 112938.22, 11638.22, 68301.09, 54435.55, 26694.67, 102153.13, 99704.20, 0.00, 0.00, 0.00
81, 80914.92, 112945.84, 11635.69, 68297.52, 54451.11, 26696.72, 102149.99, 99703.15, 0.00, 0.00, 0.00
82, 80915.66, 112937.59, 11639.92, 68301.92, 54448.45, 26704.92, 102153.91, 99702.97, 0.00, 0.00, 0.00
83, 80908.95, 112924.95, 11631.80, 68291.04, 54430.99, 26695.09, 102147.96, 99694.55, 0.00, 0.00, 0.00
84, 80909.02, 112933.28, 11630.04, 68289.02, 54439.30, 26692.88, 102149.05, 99695.80, 0.00, 0.00, 0.00
85, 80911.44, 112933.73, 11628.74, 68287.62, 54437.63, 26692.97, 102159.52, 99698.19, 0.08, -0.25, 0.98
86, 80913.67, 112926.93, 11625.16, 68280.62, 54431.93, 26688.56, 102145.81, 99695.17, 0.00, 0.00, 0.00
87, 80929.25, 112933.46, 11627.40, 68280.53, 54433.07, 26688.41, 102136.47, 99702.05, 0.00, 0.00, 0.00
88, 80922.27, 112941.88, 11636.03, 68285.52, 54427.21, 26694.64, 102147.89, 99706.86, 0.00, 0.00, 0.00
89, 80904.23, 112946.94, 11645.73, 68297.79, 54433.09, 26698.89, 102160.74, 99699.64, 0.00, 0.00, 0.00
90, 80909.60, 112946.29, 11637.23, 68280.51, 54437.94, 26696.34, 102163.74, 99703.48, 0.00, 0.00, 0.00
91, 80920.11, 112951.14, 11640.30, 68294.48, 54436.98, 26699.18, 102147.54, 99716.90, 0.00, 0.00, 0.00
92, 80921.90, 112956.66, 11645.46, 68292.84, 54462.32, 26713.89, 102160.45, 99720.77, 0.00, 0.00, 0.00
93, 80922.39, 112953.17, 11641.77, 68289.47, 54446.28, 26710.54, 102161.39, 99721.08, 0.00, 0.00, 0.00
94, 80923.88, 112948.26, 11638.06, 68291.93, 54442.95, 26704.34, 102165.15, 99726.35, 0.00, 0.00, 0.00
95, 80921.72, 112946.31, 11636.34, 68288.00, 54467.13, 26708.30, 102165.62, 99723.00, 0.08, -0.24, 0.97
96, 80927.57, 112945.23, 11636.47, 68284.60, 54459.89, 26711.99, 102171.90, 99724.38, 0.00, 0.00, 0.00
97, 80929.31, 112947.01, 11636.12, 68291.02, 54456.74, 26713.66, 102178.00, 99727.76, 0.00, 0.00, 0.00
98, 80926.09, 112958.67, 11636.29, 68295.73, 54451.73, 26714.49, 102179.86, 99726.41, 0.00, 0.00, 0.00
99, 80921.98, 112963.88, 11632.56, 68288.33, 54447.62, 26706.47, 102182.20, 99721.25, 0.00, 0.00, 0.00
100, 80922.56, 112955.70, 11630.89, 68294.52, 54447.04, 26704.52, 102161.46, 99723.18, 0.00, 0.00, 0.00
101, 80921.23, 112950.94, 11632.05, 68291.41, 54448.42, 26710.24, 102167.01, 99726.73, 0.00, 0.00, 0.00
102, 80917.47, 112939.09, 11633.66, 68285.31, 54442.10, 26706.91, 102156.66, 99721.99, 0.00, 0.00, 0.00
103, 80919.88, 112945.06, 11640.45, 68288.11, 54441.27, 26710.60, 102162.73, 99723.49, 0.00, 0.00, 0.00
104, 80921.23, 112946.69, 11639.78, 68283.33, 54426.77, 26706.18, 102167.30, 99725.91, 0.00, 0.00, 0.00
105, 80920.78, 112947.67, 11633.66, 68280.42, 54426.77, 26706.87, 102174.76, 99726.80, 0.08, -0.24, 0.97
106, 80919.75, 112951.48, 11634.66, 68279.28, 54454.75, 26717.42, 102179.63, 99726.35, 0.00, 0.00, 0.00
107, 80915.57, 112947.02, 11632.09, 68279.86, 54439.73, 26708.79, 102175.37, 99718.37, 0.00, 0.00, 0.00
108, 80920.13, 112954.83, 11635.96, 68288.69, 54451.15, 26716.70, 102183.52, 99722.80, 0.00, 0.00, 0.00
109, 80919.30, 112960.10, 11632.32, 68282.63, 54441.81, 26713.20, 102184.64, 99721.43, 0.00, 0.00, 0.00
110, 80920.89, 112968.44, 11628.63, 68278.77, 54436.53, 26706.51, 102159.00, 99719.71, 0.00, 0.00, 0.00
111, 80921.85, 112956.50, 11627.89, 68273.71, 54442.32, 26702.58, 102165.82, 99716.91, 0.00, 0.00, 0.00
112, 80921.11, 112950.16, 11626.01, 68270.12, 54452.42, 26707.67, 102167.72, 99716.59, 0.00, 0.00, 0.00
113, 80921.78, 112955.45, 11629.86, 68279.70, 54429.49, 26705.33, 102172.41, 99719.06, 0.00, 0.00, 0.00
114, 80918.54, 112958.49, 11630.08, 68277.78, 54437.94, 26702.24, 102180.05, 99719.80, 0.00, 0.00, 0.00
115, 80920.13, 112971.10, 11636.94, 68281.96, 54449.70, 26710.69, 102177.62, 99721.66, 0.08, -0.25, 0.97
116, 80922.52, 112970.32, 11638.89, 68283.03, 54439.86, 26714.65, 102178.00, 99725.97, 0.00, 0.00, 0.00
117, 80921.11, 112968.55, 11635.04, 68272.30, 54433.49, 26710.98, 102182.38, 99724.79, 0.00, 0.00, 0.00
118, 80919.41, 112968.35, 11632.52, 68268.22, 54462.10, 26714.76, 102182.77, 99724.00, 0.00, 0.00, 0.00
119, 80918.37, 112959.56, 11629.39, 68275.97, 54456.94, 26710.20, 102187.19, 99723.66, 0.00, 0.00, 0.00
120, 80924.89, 112969.63, 11627.44, 68286.97, 54451.06, 26710.42, 102196.40, 99726.80, 0.00, 0.00, 0.00
121, 80925.02, 112970.48, 11622.12, 68277.34, 54444.96, 26711.00, 102171.77, 99724.12, 0.00, 0.00, 0.00
122, 80922.39, 112958.38, 11627.35, 68285.76, 54451.20, 26713.08, 102171.63, 99723.42, 0.00, 0.00, 0.00
123, 80922.45, 112964.28, 11628.14, 68278.97, 54439.04, 26711.50, 102178.16, 99726.73, 0.00, 0.00, 0.00
124, 80922.77, 112956.86, 11622.64, 68278.97, 54445.52, 26710.87, 102182.12, 99728.63, 0.00, 0.00, 0.00
125, 80920.66, 112955.05, 11624.36, 68276.77, 54444.02, 26709.80, 102180.68, 99727.20, 0.08, -0.24, 0.98
126, 80923.46, 112962.31, 11629.34, 68276.51, 54432.64, 26704.14, 102180.51, 99726.17, 0.00, 0.00, 0.00
127, 80921.29, 112962.80, 11628.88, 68272.28, 54442.90, 26707.65, 102180.52, 99724.23, 0.00, 0.00, 0.00
128, 80916.73, 112962.56, 11629.54, 68273.87, 54443.26, 26709.71, 102182.77, 99724.70, 0.00, 0.00, 0.00
129, 80916.35, 112963.23, 11627.31, 68274.16, 54440.44, 26703.58, 102181.87, 99723.91, 0.00, 0.00, 0.00
130, 80913.00, 112961.33, 11622.95, 68269.58, 54428.64, 26699.25, 102178.67, 99722.70, 0.00, 0.00, 0.00
131, 80916.04, 112961.76, 11625.77, 68276.46, 54438.77, 26709.13, 102182.90, 99725.99, 0.00, 0.00, 0.00
132, 80916.58, 112965.13, 11630.93, 68287.62, 54440.69, 26710.04, 102194.27, 99726.84, 0.00, 0.00, 0.00
133, 80915.73, 112967.08, 11630.86, 68284.13, 54449.41, 26709.02, 102185.87, 99724.63, 0.00, 0.00, 0.00
134, 80915.52, 112967.23, 11630.69, 68280.69, 54451.38, 26706.38, 102176.19, 99723.02, 0.00, 0.00, 0.00
135, 80916.62, 112975.13, 11632.36, 68283.03, 54455.02, 26711.25, 102177.78, 99723.40, 0.07, -0.25, 0.97
136, 80921.76, 112973.47, 11632.36, 68286.88, 54431.12, 26712.17, 102169.02, 99726.28, 0.00, 0.00, 0.00
137, 80918.99, 112976.38, 11633.61, 68286.77, 54451.48, 26713.84, 102180.20, 99725.50, 0.00, 0.00, 0.00
138, 80918.37, 112972.59, 11632.14, 68281.63, 54446.23, 26711.00, 102180.48, 99724.36, 0.00, 0.00, 0.00
139, 80917.49, 112963.09, 11631.74, 68289.02, 54469.59, 26712.86, 102183.63, 99722.70, 0.00, 0.00, 0.00
140, 80915.73, 112958.07, 11627.62, 68275.70, 54459.44, 26706.33, 102185.69, 99720.72, 0.00, 0.00, 0.00
141, 80914.56, 112960.59, 11624.16, 68271.57, 54451.98, 26704.97, 102184.59, 99718.55, 0.00, 0.00, 0.00
142, 80913.65, 112973.71, 11632.94, 68280.40, 54450.01, 26709.62, 102190.20, 99719.87, 0.00, 0.00, 0.00
143, 80915.08, 112973.49, 11636.41, 68287.80, 54472.72, 26718.78, 102187.75, 99723.71, 0.00, 0.00, 0.00
144, 80915.97, 112975.70, 11636.59, 68313.41, 54459.64, 26713.26, 102181.84, 99723.51, 0.00, 0.00, 0.00
145, 80914.88, 112982.88, 11634.60, 68305.99, 54472.99, 26710.83, 102163.77, 99720.92, 0.07, -0.24, 0.97
146, 80913.83, 112973.40, 11630.53, 68292.16, 54460.83, 26707.74, 102168.91, 99718.77, 0.00, 0.00, 0.00
147, 80916.17, 112969.80, 11629.97, 68293.36, 54444.04, 26704.10, 102170.71, 99719.48, 0.00, 0.00, 0.00
148, 80913.40, 112962.45, 11632.96, 68295.15, 54472.74, 26715.99, 102179.68, 99717.30, 0.00, 0.00, 0.00
149, 80912.33, 112958.00, 11633.48, 68286.21, 54464.47, 26710.58, 102176.46, 99718.98, 0.00, 0.00, 0.00
150, 80915.52, 112963.25, 11633.66, 68285.25, 54455.17, 26707.47, 102181.76, 99721.12, 0.00, 0.00, 0.00
151, 80915.73, 112970.02, 11634.93, 68290.01, 54456.45, 26712.77, 102184.82, 99722.28, 0.00, 0.00, 0.00
152, 80914.95, 112976.17, 11636.29, 68292.71, 54463.44, 26717.46, 102190.65, 99724.59, 0.00, 0.00, 0.00
153, 80915.62, 112986.03, 11634.40, 68289.85, 54454.50, 26712.01, 102187.99, 99724.34, 0.00, 0.00, 0.00
154, 80921.67, 112976.35, 11625.03, 68283.82, 54455.40, 26707.65, 102189.49, 99729.75, 0.00, 0.00, 0.00
155, 80929.23, 112967.30, 11627.69, 68278.63, 54461.34, 26708.08, 102198.68, 99740.01, 0.08, -0.24, 0.97
156, 80921.52, 112970.49, 11639.92, 68287.91, 54461.88, 26709.30, 102204.64, 99727.06, 0.00, 0.00, 0.00
157, 80920.78, 112980.55, 11646.17, 68300.20, 54470.13, 26717.13, 102180.23, 99721.41, 0.00, 0.00, 0.00
158, 80933.65, 112985.00, 11642.75, 68293.20, 54469.59, 26721.87, 102190.74, 99737.82, 0.00, 0.00, 0.00
159, 80943.30, 112975.21, 11635.54, 68286.09, 54452.67, 26716.77, 102197.67, 99748.79, 0.00, 0.00, 0.00
160, 80945.37, 112977.36, 11632.61, 68282.37, 54460.00, 26715.32, 102205.60, 99750.22, 0.00, 0.00, 0.00
161, 80946.59, 112983.10, 11631.56, 68278.97, 54467.06, 26722.65, 102204.20, 99752.26, 0.00, 0.00, 0.00
162, 80941.68, 112988.27, 11629.81, 68273.20, 54450.41, 26718.25, 102192.75, 99749.59, 0.00, 0.00, 0.00
163, 80936.06, 112983.39, 11625.95, 68271.52, 54431.50, 26697.91, 102187.59, 99744.48, 0.00, 0.00, 0.00
164, 80936.45, 112986.61, 11631.20, 68277.27, 54440.87, 26695.31, 102178.76, 99745.08, 0.00, 0.00, 0.00
165, 80934.19, 112979.08, 11629.99, 68263.66, 54441.27, 26694.71, 102182.05, 99745.04, 0.07, -0.24, 0.98
166, 80933.79, 112975.10, 11630.75, 68273.38, 54428.78, 26696.61, 102186.59, 99743.49, 0.00, 0.00, 0.00
167, 80935.24, 112990.03, 11638.62, 68297.23, 54462.59, 26712.19, 102199.13, 99745.53, 0.00, 0.00, 0.00
168, 80936.63, 112987.38, 11637.95, 68291.57, 54476.39, 26716.79, 102208.00, 99748.43, 0.00, 0.00, 0.00
169, 80938.10, 112985.74, 11637.23, 68293.79, 54468.92, 26714.20, 102201.65, 99750.27, 0.00, 0.00, 0.00
170, 80946.30, 112986.92, 11637.30, 68293.49, 54479.38, 26716.90, 102194.36, 99756.13, 0.00, 0.00, 0.00
171, 80946.86, 112989.65, 11635.85, 68285.38, 54468.83, 26712.48, 102203.19, 99755.25, 0.00, 0.00, 0.00
172, 80948.60, 113000.18, 11641.12, 68287.75, 54462.44, 26717.31, 102214.61, 99755.34, 0.00, 0.00, 0.00
173, 80946.46, 112989.83, 11637.06, 68284.27, 54450.57, 26709.15, 102209.09, 99753.44, 0.00, 0.00, 0.00
174, 80946.26, 112980.30, 11632.25, 68280.24, 54460.63, 26705.93, 102204.40, 99752.44, 0.00, 0.00, 0.00
175, 80946.66, 112979.86, 11630.35, 68275.41, 54453.16, 26702.67, 102208.22, 99752.52, 0.07, -0.25, 0.97
176, 80947.42, 112984.60, 11630.44, 68272.75, 54463.58, 26703.94, 102210.75, 99754.58, 0.00, 0.00, 0.00
177, 80950.13, 112993.05, 11634.15, 68279.01, 54461.72, 26706.82, 102211.28, 99756.59, 0.00, 0.00, 0.00
178, 80950.33, 112990.81, 11633.61, 68274.95, 54455.53, 26709.60, 102212.04, 99758.60, 0.00, 0.00, 0.00
179, 80951.16, 112988.09, 11632.54, 68277.45, 54452.04, 26707.47, 102232.23, 99759.92, 0.00, 0.00, 0.00
180, 80951.29, 112985.38, 11632.27, 68285.88, 54444.11, 26698.89, 102204.45, 99755.61, 0.00, 0.00, 0.00
181, 80954.23, 112990.03, 11633.48, 68289.20, 54463.36, 26706.40, 102208.45, 99758.02, 0.00, 0.00, 0.00
182, 80951.49, 112994.95, 11629.68, 68281.73, 54452.00, 26705.04, 102209.80, 99756.86, 0.00, 0.00, 0.00
183, 80947.09, 112993.27, 11634.40, 68274.05, 54432.22, 26695.78, 102213.12, 99754.27, 0.00, 0.00, 0.00
184, 80945.34, 112978.37, 11631.62, 68273.65, 54454.68, 26695.87, 102217.95, 99752.23, 0.00, 0.00, 0.00
185, 80949.73, 112980.09, 11629.68, 68271.41, 54454.91, 26697.91, 102207.28, 99756.19, 0.08, -0.25, 0.98
186, 80945.25, 112977.52, 11631.69, 68269.09, 54439.35, 26693.82, 102194.54, 99752.05, 0.00, 0.00, 0.00
187, 80946.66, 112983.13, 11629.19, 68262.96, 54435.05, 26694.22, 102195.26, 99754.02, 0.00, 0.00, 0.00
188, 80950.80, 112986.37, 11631.04, 68283.37, 54449.41, 26699.43, 102202.95, 99754.63, 0.00, 0.00, 0.00
189, 80947.29, 112978.07, 11625.88, 68281.73, 54443.13, 26697.88, 102203.03, 99748.81, 0.00, 0.00, 0.00
190, 80947.27, 112986.32, 11627.94, 68294.03, 54460.56, 26700.37, 102207.23, 99751.20, 0.00, 0.00, 0.00
191, 80945.70, 113000.16, 11636.56, 68296.02, 54466.15, 26703.76, 102215.89, 99750.84, 0.00, 0.00, 0.00
192, 80941.38, 112980.94, 11634.91, 68289.12, 54454.95, 26700.23, 102198.79, 99746.02, 0.00, 0.00, 0.00
193, 80942.26, 112990.70, 11639.58, 68286.72, 54439.37, 26700.74, 102197.67, 99748.41, 0.00, 0.00, 0.00
194, 80934.68, 112979.08, 11638.91, 68278.16, 54440.64, 26697.21, 102201.11, 99740.77, 0.00, 0.00, 0.00
195, 80932.42, 112971.59, 11636.43, 68279.16, 54462.80, 26698.67, 102197.18, 99736.84, 0.08, -0.24, 0.97
196, 80933.14, 112975.41, 11633.43, 68277.60, 54473.19, 26707.12, 102194.54, 99739.70, 0.00, 0.00, 0.00
197, 80935.44, 112974.97, 11631.96, 68273.31, 54437.36, 26699.61, 102202.07, 99744.37, 0.00, 0.00, 0.00
198, 80936.06, 112976.98, 11630.48, 68281.70, 54453.52, 26699.69, 102196.62, 99744.16, 0.00, 0.00, 0.00
199, 80936.76, 112970.12, 11628.85, 68277.23, 54477.39, 26707.14, 102193.47, 99741.86, 0.00, 0.00, 0.00
200, 80934.52, 112965.80, 11621.07, 68265.31, 54455.40, 26704.25, 102193.36, 99741.28, 0.00, 0.00, 0.00
201, 80938.39, 112971.86, 11619.44, 68264.57, 54442.88, 26693.37, 102205.45, 99747.05, 0.00, 0.00, 0.00
202, 80955.73, 112979.93, 11621.14, 68261.31, 54463.24, 26705.37, 102223.04, 99761.66, 0.00, 0.00, 0.00
203, 80950.84, 112979.17, 11623.13, 68268.44, 54455.51, 26707.05, 102194.25, 99755.97, 0.00, 0.00, 0.00
204, 80922.84, 112977.56, 11625.68, 68269.67, 54440.15, 26704.43, 102191.14, 99734.55, 0.00, 0.00, 0.00
205, 80916.58, 112978.03, 11625.34, 68272.69, 54455.40, 26704.84, 102200.82, 99726.35, 0.08, -0.24, 0.98
206, 80916.24, 112982.23, 11626.13, 68270.52, 54459.55, 26708.12, 102204.42, 99721.57, 0.00, 0.00, 0.00
207, 80907.95, 112985.13, 11627.24, 68277.72, 54461.97, 26709.78, 102199.05, 99714.23, 0.00, 0.00, 0.00
208, 80902.49, 112979.64, 11619.80, 68266.43, 54449.43, 26703.36, 102196.59, 99709.92, 0.00, 0.00, 0.00
209, 80893.22, 112975.57, 11619.04, 68255.03, 54450.30, 26700.86, 102194.66, 99701.47, 0.00, 0.00, 0.00
210, 80894.76, 112989.49, 11624.38, 68269.91, 54453.45, 26702.40, 102198.34, 99702.68, 0.00, 0.00, 0.00
211, 80898.78, 112989.67, 11633.52, 68287.62, 54444.51, 26704.59, 102195.73, 99705.07, 0.00, 0.00, 0.00
212, 80900.64, 112983.68, 11633.01, 68274.18, 54418.25, 26693.82, 102189.52, 99703.22, 0.00, 0.00, 0.00
213, 80904.73, 112992.09, 11632.70, 68266.05, 54467.22, 26698.17, 102202.21, 99706.28, 0.00, 0.00, 0.00
214, 80902.23, 112973.18, 11628.58, 68262.54, 54450.28, 26693.73, 102179.88, 99703.51, 0.00, 0.00, 0.00
215, 80906.14, 112962.12, 11627.42, 68267.70, 54441.05, 26695.67, 102183.37, 99703.51, 0.07, -0.25, 0.97
216, 80905.04, 112968.57, 11625.34, 68268.23, 54434.68, 26693.03, 102188.15, 99702.86, 0.00, 0.00, 0.00
217, 80908.91, 112980.22, 11627.40, 68265.63, 54444.69, 26701.71, 102186.20, 99709.14, 0.00, 0.00, 0.00
218, 80907.86, 112978.27, 11624.61, 68264.64, 54449.21, 26699.36, 102185.53, 99709.97, 0.00, 0.00, 0.00
219, 80909.71, 112979.64, 11624.56, 68267.52, 54447.08, 26694.20, 102192.59, 99715.91, 0.00, 0.00, 0.00
220, 80908.98, 112982.50, 11625.28, 68267.16, 54437.29, 26695.20, 102195.77, 99714.55, 0.00, 0.00, 0.00
221, 80911.21, 112978.59, 11625.86, 68262.70, 54433.71, 26695.18, 102202.25, 99714.44, 0.00, 0.00, 0.00
222, 80912.53, 112979.81, 11624.09, 68251.30, 54413.26, 26693.30, 102194.92, 99716.96, 0.00, 0.00, 0.00
223, 80911.01, 112979.73, 11628.58, 68264.04, 54433.69, 26695.20, 102185.82, 99712.83, 0.00, 0.00, 0.00
224, 80917.88, 112987.38, 11632.92, 68282.68, 54471.16, 26708.52, 102206.90, 99719.24, 0.00, 0.00, 0.00
225, 80923.15, 113005.81, 11634.73, 68271.88, 54465.70, 26709.51, 102195.59, 99724.36, 0.07, -0.25, 0.98
226, 80918.09, 112998.59, 11630.66, 68267.91, 54456.49, 26708.08, 102197.16, 99721.66, 0.00, 0.00, 0.00
227, 80914.48, 112975.05, 11627.76, 68277.31, 54445.96, 26705.88, 102200.04, 99720.83, 0.00, 0.00, 0.00
228, 80911.45, 112973.73, 11633.21, 68280.24, 54442.72, 26703.34, 102198.23, 99716.05, 0.00, 0.00, 0.00
229, 80908.04, 112980.80, 11628.90, 68267.12, 54450.39, 26698.44, 102186.52, 99710.59, 0.00, 0.00, 0.00
230, 80900.80, 112964.30, 11615.91, 68258.16, 54442.43, 26694.64, 102185.04, 99707.58, 0.00, 0.00, 0.00
231, 80909.02, 112969.53, 11621.25, 68290.68, 54449.18, 26703.54, 102193.73, 99715.40, 0.00, 0.00, 0.00
232, 80922.84, 112979.93, 11632.47, 68295.17, 54463.55, 26707.56, 102202.50, 99732.16, 0.00, 0.00, 0.00
233, 80922.30, 112975.19, 11626.30, 68280.98, 54448.60, 26698.51, 102197.42, 99726.59, 0.00, 0.00, 0.00
234, 80888.88, 112983.51, 11626.64, 68273.40, 54429.16, 26689.79, 102195.15, 99687.34, 0.00, 0.00, 0.00
235, 80875.67, 112987.46, 11627.40, 68272.82, 54408.28, 26687.15, 102181.78, 99675.68, 0.07, -0.25, 0.98
236, 80860.09, 112969.02, 11625.34, 68274.98, 54432.66, 26689.35, 102170.70, 99666.49, 0.00, 0.00, 0.00
237, 80844.85, 112964.13, 11624.09, 68274.07, 54454.46, 26695.36, 102172.30, 99650.06, 0.00, 0.00, 0.00
238, 80827.28, 112970.72, 11628.25, 68279.77, 54470.95, 26701.04, 102182.80, 99627.13, 0.00, 0.00, 0.00
239, 80803.03, 112974.30, 11621.07, 68272.41, 54445.92, 26687.49, 102172.75, 99604.02, 0.00, 0.00, 0.00
240, 80790.89, 112969.27, 11615.42, 68269.00, 54449.47, 26682.13, 102162.82, 99595.59, 0.00, 0.00, 0.00
241, 80770.53, 112966.72, 11615.58, 68268.93, 54449.43, 26688.74, 102164.75, 99577.82, 0.00, 0.00, 0.00
242, 80746.03, 112980.58, 11623.96, 68286.39, 54423.52, 26686.53, 102162.91, 99551.49, 0.00, 0.00, 0.00
243, 80729.98, 112965.49, 11621.61, 68279.95, 54465.57, 26687.38, 102154.53, 99532.60, 0.00, 0.00, 0.00
244, 80713.24, 112946.13, 11611.02, 68254.02, 54482.31, 26699.07, 102168.57, 99516.38, 0.00, 0.00, 0.00
245, 80697.95, 112949.82, 11610.64, 68264.88, 54455.13, 26694.55, 102156.23, 99500.40, 0.07, -0.25, 0.97
246, 80684.92, 112962.09, 11615.80, 68282.30, 54447.46, 26694.98, 102156.19, 99486.20, 0.00, 0.00, 0.00
247, 80666.82, 112982.88, 11614.93, 68276.33, 54445.85, 26694.44, 102152.12, 99464.56, 0.00, 0.00, 0.00
248, 80656.09, 112977.02, 11607.57, 68259.63, 54439.86, 26686.84, 102134.21, 99450.24, 0.00, 0.00, 0.00
249, 80643.59, 112952.81, 11605.76, 68259.37, 54453.56, 26683.36, 102134.03, 99435.33, 0.00, 0.00, 0.00
250, 80624.88, 112939.74, 11615.49, 68284.64, 54446.90, 26671.62, 102129.38, 99415.93, 0.00, 0.00, 0.00
251, 80612.26, 112947.41, 11619.29, 68281.42, 54454.08, 26678.86, 102131.06, 99406.50, 0.00, 0.00, 0.00
252, 80609.15, 112956.08, 11617.94, 68276.98, 54448.04, 26687.22, 102144.59, 99401.24, 0.00, 0.00, 0.00
253, 80605.57, 112964.66, 11616.25, 68271.91, 54433.07, 26677.10, 102132.34, 99396.38, 0.00, 0.00, 0.00
254, 80597.28, 112975.01, 11614.84, 68265.09, 54442.32, 26675.17, 102119.41, 99389.22, 0.00, 0.00, 0.00
255, 80598.55, 112963.66, 11611.71, 68262.78, 54451.82, 26673.28, 102134.28, 99381.06, 0.07, -0.25, 0.98
0, 80593.19, 112957.64, 11606.46, 68258.09, 54441.72, 26669.61, 102128.89, 99365.39, 0.00, 0.00, 0.00
1, 80596.88, 112952.62, 11606.17, 68258.11, 54434.39, 26669.56, 102112.98, 99366.64, 0.00, 0.00, 0.00
2, 80602.09, 112946.09, 11605.88, 68261.02, 54441.45, 26674.95, 102119.64, 99373.33, 0.00, 0.00, 0.00
3, 80599.92, 112963.77, 11607.44, 68262.02, 54418.58, 26673.16, 102110.88, 99366.30, 0.00, 0.00, 0.00
4, 80604.26, 112964.80, 11603.28, 68254.47, 54409.57, 26655.13, 102113.90, 99364.34, 0.00, 0.00, 0.00
5, 80611.09, 112948.91, 11604.65, 68248.16, 54419.81, 26661.83, 102119.40, 99371.47, 0.00, 0.00, 0.00
6, 80613.48, 112954.85, 11604.87, 68243.43, 54427.59, 26668.51, 102118.97, 99373.88, 0.00, 0.00, 0.00
7, 80619.34, 112959.34, 11609.85, 68261.48, 54439.93, 26668.29, 102122.41, 99380.63, 0.00, 0.00, 0.00
8, 80622.85, 112963.23, 11612.89, 68265.42, 54454.59, 26668.38, 102123.59, 99387.45, 0.07, -0.24, 0.98
9, 80623.63, 112971.88, 11612.16, 68253.55, 54453.39, 26667.71, 102130.39, 99384.84, 0.00, 0.00, 0.00
10, 80631.10, 112970.14, 11606.28, 68250.63, 54421.73, 26657.31, 102115.20, 99386.34, 0.00, 0.00, 0.00
11, 80642.05, 112978.23, 11611.60, 68264.28, 54420.93, 26664.76, 102107.08, 99395.63, 0.00, 0.00, 0.00
12, 80651.69, 112967.14, 11616.47, 68267.08, 54438.34, 26668.69, 102122.57, 99407.63, 0.00, 0.00, 0.00
13, 80655.69, 112964.98, 11612.07, 68265.49, 54455.13, 26668.40, 102116.09, 99407.44, 0.00, 0.00, 0.00
14, 80666.08, 112972.44, 11607.44, 68262.70, 54440.20, 26663.06, 102134.23, 99411.93, 0.00, 0.00, 0.00
15, 80682.09, 112979.99, 11604.24, 68250.29, 54417.84, 26658.88, 102130.13, 99431.58, 0.00, 0.00, 0.00
16, 80677.75, 112977.02, 11606.05, 68226.75, 54432.17, 26667.89, 102128.38, 99443.49, 0.00, 0.00, 0.00
17, 80679.02, 112982.81, 11612.25, 68235.54, 54437.16, 26674.24, 102138.66, 99460.48, 0.00, 0.00, 0.00
18, 80688.03, 112993.85, 11623.00, 68284.48, 54403.50, 26667.91, 102145.52, 99468.68, 0.08, -0.25, 0.97
19, 80690.33, 112982.56, 11617.14, 68278.63, 54401.75, 26657.74, 102147.00, 99451.16, 0.00, 0.00, 0.00
20, 80703.36, 112973.05, 11613.21, 68261.53, 54420.21, 26669.05, 102147.49, 99456.74, 0.00, 0.00, 0.00
21, 80712.41, 112992.16, 11615.82, 68257.30, 54437.47, 26674.59, 102118.66, 99469.93, 0.00, 0.00, 0.00
22, 80711.25, 112980.24, 11616.71, 68260.80, 54456.00, 26676.94, 102149.63, 99468.70, 0.00, 0.00, 0.00
23, 80722.27, 112963.90, 11611.08, 68250.67, 54444.58, 26672.54, 102166.60, 99480.33, 0.00, 0.00, 0.00
24, 80735.13, 112974.83, 11616.65, 68265.29, 54467.67, 26672.54, 102154.17, 99492.98, 0.00, 0.00, 0.00
25, 80733.58, 112984.22, 11623.40, 68280.64, 54477.08, 26662.86, 102155.23, 99496.04, 0.00, 0.00, 0.00
26, 80740.16, 112976.17, 11621.10, 68273.87, 54470.33, 26689.72, 102156.77, 99512.89, 0.00, 0.00, 0.00
27, 80746.34, 112978.99, 11620.02, 68273.96, 54435.64, 26681.92, 102137.25, 99526.23, 0.00, 0.00, 0.00
28, 80746.75, 112991.53, 11620.38, 68270.80, 54456.09, 26680.09, 102184.38, 99524.05, 0.07, -0.24, 0.97
29, 80750.50, 112977.98, 11616.76, 68267.39, 54451.93, 26673.88, 102171.66, 99518.19, 0.00, 0.00, 0.00
30, 80756.80, 112962.61, 11612.98, 68262.16, 54433.22, 26652.91, 102161.30, 99520.06, 0.00, 0.00, 0.00
31, 80764.61, 112971.37, 11619.82, 68264.77, 54455.96, 26678.15, 102188.04, 99540.41, 0.00, 0.00, 0.00
32, 80762.84, 112970.83, 11616.25, 68259.01, 54429.94, 26679.44, 102162.78, 99544.70, 0.00, 0.00, 0.00
33, 80773.13, 112970.92, 11617.52, 68260.59, 54419.59, 26682.57, 102173.24, 99549.99, 0.00, 0.00, 0.00
34, 80780.41, 112970.81, 11619.49, 68261.80, 54408.19, 26676.92, 102183.52, 99563.05, 0.00, 0.00, 0.00
35, 80776.77, 112985.27, 11620.09, 68260.48, 54424.15, 26675.11, 102171.36, 99570.58, 0.00, 0.00, 0.00
36, 80779.47, 112985.29, 11626.06, 68263.34, 54509.89, 26693.21, 102186.83, 99560.43, 0.00, 0.00, 0.00
37, 80777.44, 112970.98, 11623.15, 68260.73, 54494.67, 26697.84, 102181.60, 99540.67, 0.00, 0.00, 0.00
38, 80780.50, 112966.74, 11621.66, 68260.62, 54467.04, 26685.14, 102177.40, 99537.14, 0.07, -0.25, 0.98
39, 80788.21, 112985.59, 11621.41, 68264.33, 54465.07, 26678.01, 102181.40, 99541.55, 0.00, 0.00, 0.00
40, 80794.05, 112968.93, 11608.45, 68231.36, 54446.77, 26666.88, 102173.89, 99546.71, 0.00, 0.00, 0.00
41, 80795.38, 112962.96, 11611.60, 68220.27, 54448.36, 26681.97, 102195.97, 99568.37, 0.00, 0.00, 0.00
42, 80784.09, 112979.64, 11628.61, 68260.13, 54455.73, 26691.51, 102191.86, 99560.97, 0.00, 0.00, 0.00
43, 80794.31, 112974.52, 11625.08, 68294.68, 54462.80, 26686.80, 102184.02, 99561.02, 0.00, 0.00, 0.00
44, 80804.66, 112953.64, 11622.71, 68291.73, 54448.38, 26681.86, 102196.06, 99578.88, 0.00, 0.00, 0.00
45, 80785.26, 112953.17, 11625.10, 68285.34, 54405.91, 26680.40, 102196.59, 99575.74, 0.00, 0.00, 0.00
46, 80788.90, 112967.86, 11636.83, 68288.27, 54455.20, 26697.64, 102208.78, 99570.23, 0.00, 0.00, 0.00
47, 80798.94, 112974.07, 11642.04, 68278.27, 54476.43, 26702.40, 102206.12, 99567.27, 0.00, 0.00, 0.00
48, 80784.16, 112964.05, 11636.94, 68271.34, 54422.27, 26678.44, 102200.30, 99566.42, 0.08, -0.24, 0.97
49, 80747.80, 112959.70, 11636.12, 68273.60, 54463.76, 26688.90, 102209.98, 99555.25, 0.00, 0.00, 0.00
50, 80739.10, 112964.23, 11638.24, 68277.45, 54503.05, 26707.83, 102211.46, 99578.85, 0.00, 0.00, 0.00
51, 80749.61, 112950.55, 11634.26, 68271.01, 54473.95, 26699.13, 102220.70, 99563.36, 0.00, 0.00, 0.00
52, 80752.40, 112961.76, 11630.86, 68269.31, 54470.80, 26697.44, 102226.41, 99533.30, 0.00, 0.00, 0.00
53, 80739.15, 112968.77, 11627.27, 68267.27, 54479.74, 26697.41, 102239.85, 99542.48, 0.00, 0.00, 0.00
54, 80741.80, 112953.87, 11625.81, 68268.39, 54478.38, 26694.71, 102215.93, 99552.90, 0.00, 0.00, 0.00
55, 80744.78, 112947.41, 11623.71, 68265.20, 54459.46, 26685.99, 102227.58, 99548.95, 0.00, 0.00, 0.00
56, 80731.48, 112961.94, 11623.64, 68265.87, 54455.60, 26704.88, 102244.03, 99556.59, 0.00, 0.00, 0.00
57, 80728.77, 112956.17, 11630.37, 68274.25, 54408.26, 26691.85, 102227.69, 99571.63, 0.00, 0.00, 0.00
58, 80738.25, 112948.34, 11628.83, 68269.42, 54402.91, 26677.39, 102236.00, 99575.12, 0.07, -0.25, 0.97
59, 80751.93, 112947.34, 11629.48, 68272.38, 54491.05, 26694.44, 102237.01, 99569.55, 0.00, 0.00, 0.00
60, 80761.55, 112945.87, 11633.46, 68276.42, 54506.70, 26711.96, 102239.24, 99578.90, 0.00, 0.00, 0.00
61, 80767.98, 112946.52, 11632.70, 68275.19, 54495.56, 26713.89, 102247.36, 99582.00, 0.00, 0.00, 0.00
62, 80768.14, 112952.23, 11632.81, 68276.28, 54476.14, 26713.78, 102283.73, 99590.59, 0.00, 0.00, 0.00
63, 80766.48, 112964.20, 11636.36, 68283.66, 54466.86, 26713.80, 102266.38, 99586.49, 0.00, 0.00, 0.00
64, 80767.76, 112957.64, 11628.81, 68269.34, 54479.89, 26704.32, 102241.26, 99577.87, 0.00, 0.00, 0.00
65, 80768.07, 112938.53, 11627.80, 68271.48, 54464.34, 26701.26, 102251.65, 99575.97, 0.00, 0.00, 0.00
66, 80771.91, 112940.48, 11634.89, 68284.33, 54470.64, 26709.55, 102257.20, 99583.37, 0.00, 0.00, 0.00
67, 80770.73, 112948.93, 11633.37, 68282.21, 54490.49, 26710.24, 102257.57, 99586.56, 0.00, 0.00, 0.00
68, 80775.42, 112955.16, 11630.15, 68277.80, 54473.17, 26700.07, 102258.89, 99593.29, 0.08, -0.24, 0.97
69, 80778.58, 112962.94, 11632.09, 68278.19, 54469.66, 26704.46, 102265.73, 99597.47, 0.00, 0.00, 0.00
70, 80780.59, 112961.00, 11629.14, 68276.48, 54452.04, 26709.08, 102270.20, 99604.13, 0.00, 0.00, 0.00
71, 80784.43, 112951.85, 11630.17, 68273.71, 54427.41, 26701.26, 102296.76, 99609.90, 0.00, 0.00, 0.00
72, 80792.81, 112953.93, 11635.83, 68277.40, 54472.38, 26715.16, 102291.81, 99613.43, 0.00, 0.00, 0.00
73, 80801.02, 112955.37, 11643.05, 68288.24, 54488.50, 26724.84, 102292.76, 99619.20, 0.00, 0.00, 0.00
74, 80801.62, 112942.60, 11637.26, 68281.13, 54463.36, 26705.17, 102304.69, 99621.61, 0.00, 0.00, 0.00
75, 80799.88, 112938.31, 11631.24, 68273.27, 54470.98, 26704.61, 102288.75, 99614.63, 0.00, 0.00, 0.00
76, 80800.39, 112949.30, 11631.98, 68275.34, 54465.12, 26716.73, 102295.28, 99611.40, 0.00, 0.00, 0.00
77, 80804.50, 112955.68, 11633.95, 68279.16, 54461.16, 26718.98, 102303.06, 99623.40, 0.00, 0.00, 0.00
78, 80811.01, 112956.68, 11636.05, 68278.72, 54480.32, 26726.52, 102311.77, 99626.93, 0.07, -0.24, 0.97
79, 80810.47, 112960.86, 11634.62, 68275.73, 54478.02, 26722.05, 102312.29, 99626.77, 0.00, 0.00, 0.00
80, 80800.80, 112965.73, 11631.13, 68262.16, 54467.60, 26715.23, 102304.78, 99618.68, 0.00, 0.00, 0.00
81, 80803.37, 112965.38, 11634.10, 68266.20, 54469.72, 26718.02, 102311.22, 99623.63, 0.00, 0.00, 0.00
82, 80810.05, 112971.37, 11639.25, 68280.64, 54464.38, 26719.70, 102318.82, 99631.76, 0.00, 0.00, 0.00
83, 80807.21, 112965.35, 11632.54, 68275.26, 54440.78, 26708.84, 102295.84, 99626.33, 0.00, 0.00, 0.00
84, 80809.55, 112966.67, 11630.04, 68267.68, 54446.41, 26707.83, 102316.73, 99622.80, 0.00, 0.00, 0.00
85, 80814.59, 112976.87, 11631.07, 68269.55, 54467.20, 26714.76, 102303.23, 99626.30, 0.00, 0.00, 0.00
86, 80821.73, 112985.88, 11636.79, 68286.95, 54469.95, 26719.39, 102310.75, 99632.77, 0.00, 0.00, 0.00
87, 80818.88, 112966.18, 11639.87, 68289.52, 54478.00, 26721.64, 102318.05, 99635.31, 0.00, 0.00, 0.00
88, 80806.05, 112969.02, 11638.13, 68283.10, 54457.99, 26716.55, 102323.13, 99633.92, 0.07, -0.24, 0.97
89, 80807.27, 112967.48, 11636.27, 68276.84, 54438.41, 26714.54, 102309.70, 99627.16, 0.00, 0.00, 0.00
90, 80813.71, 112960.62, 11634.89, 68279.84, 54466.17, 26723.99, 102315.58, 99627.65, 0.00, 0.00, 0.00
91, 80822.54, 112975.05, 11641.08, 68283.03, 54490.60, 26733.11, 102324.02, 99638.87, 0.00, 0.00, 0.00
92, 80822.72, 112969.76, 11644.01, 68270.14, 54496.84, 26745.65, 102343.41, 99646.84, 0.00, 0.00, 0.00
93, 80823.08, 112977.02, 11646.26, 68277.94, 54487.92, 26743.82, 102351.72, 99649.57, 0.00, 0.00, 0.00
94, 80830.84, 112988.16, 11648.75, 68290.63, 54482.96, 26741.56, 102360.73, 99647.98, 0.00, 0.00, 0.00
95, 80830.90, 112988.60, 11649.93, 68293.09, 54492.68, 26743.66, 102330.48, 99648.43, 0.00, 0.00, 0.00
96, 80829.98, 112988.24, 11649.75, 68289.30, 54478.48, 26740.42, 102328.41, 99645.13, 0.00, 0.00, 0.00
97, 80835.66, 112976.20, 11647.74, 68287.66, 54475.18, 26739.64, 102324.78, 99648.72, 0.00, 0.00, 0.00
98, 80834.12, 112974.66, 11645.21, 68286.84, 54481.23, 26741.36, 102332.38, 99648.05, 0.07, -0.24, 0.97
99, 80837.77, 112979.48, 11644.39, 68285.94, 54471.91, 26738.41, 102332.79, 99652.95, 0.00, 0.00, 0.00
100, 80840.22, 112986.50, 11643.11, 68280.42, 54473.39, 26737.63, 102333.32, 99653.53, 0.00, 0.00, 0.00
101, 80838.61, 112989.20, 11646.24, 68283.23, 54477.30, 26746.45, 102340.56, 99653.33, 0.00, 0.00, 0.00
102, 80837.61, 112996.60, 11650.31, 68297.48, 54473.14, 26748.24, 102342.11, 99657.73, 0.00, 0.00, 0.00
103, 80826.32, 113000.52, 11643.31, 68283.93, 54459.22, 26734.65, 102330.59, 99656.59, 0.00, 0.00, 0.00
104, 80819.68, 112983.88, 11638.62, 68276.38, 54438.25, 26725.78, 102329.59, 99644.27, 0.00, 0.00, 0.00
105, 80826.32, 112977.91, 11639.07, 68279.30, 54428.84, 26728.37, 102335.70, 99637.32, 0.00, 0.00, 0.00
106, 80833.18, 112992.18, 11644.39, 68283.59, 54456.49, 26742.32, 102333.10, 99644.41, 0.00, 0.00, 0.00
107, 80833.85, 112997.90, 11644.23, 68279.32, 54457.70, 26740.58, 102348.52, 99649.82, 0.00, 0.00, 0.00
108, 80834.70, 113008.98, 11644.19, 68280.76, 54502.22, 26746.12, 102375.86, 99647.59, 0.07, -0.25, 0.97
109, 80831.57, 113010.21, 11640.56, 68279.15, 54485.53, 26743.66, 102325.91, 99645.59, 0.00, 0.00, 0.00
110, 80837.74, 112999.13, 11632.27, 68262.25, 54450.28, 26728.68, 102321.12, 99644.77, 0.00, 0.00, 0.00
111, 80850.59, 112990.19, 11635.60, 68271.41, 54462.55, 26730.43, 102331.00, 99658.38, 0.00, 0.00, 0.00
112, 80841.88, 112986.45, 11646.53, 68275.84, 54474.42, 26756.24, 102352.77, 99667.45, 0.00, 0.00, 0.00
113, 80829.00, 112978.48, 11643.07, 68277.88, 54467.09, 26755.06, 102359.07, 99660.23, 0.00, 0.00, 0.00
114, 80837.05, 112981.90, 11641.77, 68280.76, 54455.29, 26746.50, 102352.05, 99657.91, 0.00, 0.00, 0.00
115, 80844.36, 112990.95, 11644.95, 68284.38, 54455.64, 26749.47, 102357.11, 99666.56, 0.00, 0.00, 0.00
116, 80841.63, 112998.10, 11652.12, 68295.04, 54466.64, 26757.25, 102375.23, 99668.30, 0.00, 0.00, 0.00
117, 80836.84, 113002.21, 11651.94, 68293.38, 54475.65, 26768.02, 102371.05, 99668.52, 0.00, 0.00, 0.00
118, 80835.70, 113010.05, 11649.71, 68279.66, 54483.79, 26772.92, 102363.23, 99661.04, 0.07, -0.25, 0.98
119, 80840.29, 113018.10, 11654.33, 68284.60, 54468.59, 26775.42, 102381.40, 99664.48, 0.00, 0.00, 0.00
120, 80832.87, 113014.35, 11660.21, 68307.40, 54476.21, 26781.43, 102376.69, 99668.84, 0.00, 0.00, 0.00
121, 80831.80, 113006.77, 11665.06, 68300.18, 54493.13, 26794.71, 102392.76, 99683.81, 0.00, 0.00, 0.00
122, 80836.31, 112999.82, 11665.62, 68297.45, 54482.42, 26788.92, 102381.94, 99682.83, 0.00, 0.00, 0.00
123, 80840.13, 112995.66, 11661.89, 68292.71, 54484.59, 26786.40, 102384.64, 99681.38, 0.00, 0.00, 0.00
124, 80843.87, 112996.34, 11661.71, 68291.82, 54484.05, 26787.85, 102389.94, 99679.86, 0.00, 0.00, 0.00
125, 80837.49, 112996.24, 11659.61, 68288.89, 54480.45, 26792.77, 102395.26, 99677.58, 0.00, 0.00, 0.00
126, 80842.55, 112998.70, 11659.21, 68286.72, 54487.41, 26802.36, 102408.27, 99688.20, 0.00, 0.00, 0.00
127, 80850.84, 113003.48, 11656.75, 68285.43, 54475.63, 26800.86, 102397.43, 99690.01, 0.00, 0.00, 0.00
128, 80855.91, 113020.23, 11661.69, 68286.63, 54471.60, 26802.00, 102392.87, 99692.11, 0.08, -0.25, 0.98
129, 80853.86, 113019.11, 11659.45, 68280.84, 54459.20, 26787.69, 102388.45, 99694.39, 0.00, 0.00, 0.00
130, 80852.91, 113012.38, 11658.63, 68278.52, 54466.68, 26787.94, 102395.91, 99702.57, 0.00, 0.00, 0.00
131, 80854.93, 113013.73, 11664.57, 68284.73, 54500.39, 26822.67, 102422.59, 99702.70, 0.00, 0.00, 0.00
132, 80852.80, 113005.79, 11665.00, 68288.63, 54476.86, 26816.91, 102405.09, 99695.15, 0.00, 0.00, 0.00
133, 80854.51, 113012.90, 11663.90, 68289.02, 54455.31, 26804.63, 102390.79, 99697.90, 0.00, 0.00, 0.00
134, 80856.83, 113011.66, 11660.48, 68285.07, 54494.87, 26804.52, 102398.10, 99699.93, 0.00, 0.00, 0.00
135, 80854.21, 113000.78, 11657.84, 68287.66, 54507.36, 26812.10, 102400.53, 99700.89, 0.00, 0.00, 0.00
136, 80858.38, 113001.25, 11661.53, 68296.53, 54501.80, 26820.88, 102407.60, 99707.33, 0.00, 0.00, 0.00
137, 80858.57, 113012.09, 11663.99, 68293.54, 54493.39, 26821.78, 102402.95, 99698.81, 0.00, 0.00, 0.00
138, 80859.98, 113032.05, 11664.19, 68294.66, 54468.07, 26814.11, 102402.03, 99699.75, 0.08, -0.24, 0.98
139, 80855.94, 113011.63, 11662.38, 68295.53, 54461.27, 26802.33, 102397.59, 99697.07, 0.00, 0.00, 0.00
140, 80851.98, 112988.84, 11667.43, 68298.30, 54509.91, 26814.45, 102403.98, 99694.56, 0.00, 0.00, 0.00
141, 80849.07, 112998.08, 11671.01, 68300.13, 54515.41, 26824.69, 102415.66, 99702.66, 0.00, 0.00, 0.00
142, 80858.41, 113019.67, 11672.13, 68304.05, 54504.35, 26827.17, 102415.47, 99705.88, 0.00, 0.00, 0.00
143, 80865.03, 113014.98, 11668.04, 68295.04, 54492.63, 26823.46, 102414.37, 99712.31, 0.00, 0.00, 0.00
144, 80859.42, 112989.96, 11659.43, 68287.95, 54481.77, 26810.89, 102415.60, 99711.11, 0.00, 0.00, 0.00
145, 80859.73, 113003.95, 11660.28, 68291.64, 54486.04, 26814.52, 102433.37, 99711.66, 0.00, 0.00, 0.00
146, 80858.28, 113010.17, 11664.12, 68296.42, 54499.92, 26820.73, 102406.88, 99709.97, 0.00, 0.00, 0.00
147, 80852.49, 113004.05, 11665.00, 68287.05, 54494.29, 26818.31, 102409.14, 99704.52, 0.00, 0.00, 0.00
148, 80860.02, 113006.21, 11666.34, 68292.80, 54490.22, 26817.53, 102416.29, 99712.56, 0.08, -0.24, 0.98
149, 80867.47, 113023.49, 11670.54, 68299.75, 54489.50, 26813.00, 102419.96, 99720.88, 0.00, 0.00, 0.00
150, 80869.73, 113031.43, 11669.44, 68297.41, 54490.20, 26813.78, 102431.41, 99720.38, 0.00, 0.00, 0.00
151, 80872.84, 113026.30, 11665.42, 68294.12, 54488.10, 26819.50, 102435.38, 99718.91, 0.00, 0.00, 0.00
152, 80868.30, 113012.05, 11661.96, 68288.45, 54481.55, 26815.81, 102416.34, 99709.14, 0.00, 0.00, 0.00
153, 80863.69, 113005.25, 11661.26, 68289.18, 54476.36, 26813.69, 102414.88, 99711.69, 0.00, 0.00, 0.00
154, 80858.38, 113006.68, 11661.93, 68289.61, 54483.85, 26815.81, 102423.20, 99709.85, 0.00, 0.00, 0.00
155, 80864.79, 113010.26, 11664.75, 68288.16, 54464.36, 26814.92, 102427.60, 99708.80, 0.00, 0.00, 0.00
156, 80865.01, 113013.73, 11666.85, 68292.67, 54444.54, 26812.75, 102425.41, 99711.09, 0.00, 0.00, 0.00
157, 80862.53, 113026.24, 11669.80, 68287.62, 54513.27, 26829.96, 102430.42, 99714.55, 0.00, 0.00, 0.00
158, 80860.02, 113036.70, 11668.53, 68282.63, 54513.38, 26832.29, 102421.32, 99713.45, 0.08, -0.25, 0.98
159, 80861.23, 113014.75, 11667.90, 68289.59, 54509.98, 26831.50, 102434.30, 99711.22, 0.00, 0.00, 0.00
160, 80866.24, 113009.59, 11667.01, 68290.30, 54490.58, 26826.72, 102420.45, 99709.32, 0.00, 0.00, 0.00
161, 80862.17, 113016.92, 11669.58, 68298.34, 54468.99, 26826.63, 102412.47, 99710.77, 0.00, 0.00, 0.00
162, 80859.47, 113025.81, 11672.66, 68297.05, 54471.87, 26821.80, 102416.56, 99712.76, 0.00, 0.00, 0.00
163, 80862.04, 113024.48, 11668.77, 68287.51, 54535.10, 26831.77, 102429.46, 99709.48, 0.00, 0.00, 0.00
164, 80858.59, 113013.19, 11669.55, 68301.38, 54524.15, 26823.28, 102420.30, 99701.59, 0.00, 0.00, 0.00
165, 80857.03, 113012.27, 11671.28, 68306.23, 54514.70, 26817.71, 102418.13, 99703.26, 0.00, 0.00, 0.00
166, 80858.13, 113021.08, 11673.15, 68302.95, 54517.73, 26822.61, 102426.33, 99705.01, 0.00, 0.00, 0.00
167, 80855.96, 113021.62, 11673.51, 68299.98, 54513.31, 26820.97, 102426.77, 99704.06, 0.00, 0.00, 0.00
168, 80859.09, 113019.87, 11677.40, 68289.88, 54510.49, 26817.78, 102430.20, 99710.05, 0.08, -0.25, 0.98
169, 80854.04, 113020.41, 11676.04, 68283.77, 54501.06, 26809.26, 102431.25, 99701.98, 0.00, 0.00, 0.00
170, 80853.81, 113024.30, 11673.76, 68283.99, 54497.82, 26805.35, 102420.92, 99698.48, 0.00, 0.00, 0.00
171, 80854.95, 113033.55, 11674.36, 68279.46, 54496.61, 26805.80, 102409.70, 99702.26, 0.00, 0.00, 0.00
172, 80855.29, 113026.53, 11674.94, 68274.30, 54489.39, 26803.12, 102417.61, 99698.52, 0.00, 0.00, 0.00
173, 80854.04, 113021.23, 11672.64, 68276.82, 54492.61, 26799.45, 102416.41, 99699.04, 0.00, 0.00, 0.00
174, 80848.78, 113018.80, 11669.85, 68277.45, 54492.12, 26794.96, 102405.25, 99701.12, 0.00, 0.00, 0.00
175, 80856.74, 113028.84, 11670.69, 68278.05, 54488.43, 26795.47, 102413.37, 99701.54, 0.00, 0.00, 0.00
176, 80853.48, 113033.69, 11671.14, 68277.94, 54468.05, 26790.93, 102407.84, 99691.33, 0.00, 0.00, 0.00
177, 80846.73, 113014.46, 11664.19, 68268.84, 54478.93, 26791.81, 102402.68, 99684.93, 0.00, 0.00, 0.00
178, 80851.63, 113012.07, 11662.76, 68268.15, 54496.43, 26796.48, 102408.78, 99690.23, 0.07, -0.25, 0.98
179, 80856.07, 113013.10, 11663.43, 68272.46, 54496.90, 26793.48, 102416.27, 99692.76, 0.00, 0.00, 0.00
180, 80853.99, 113018.30, 11667.07, 68267.34, 54495.68, 26789.97, 102405.77, 99690.92, 0.00, 0.00, 0.00
181, 80852.02, 113028.90, 11674.07, 68274.61, 54495.03, 26791.49, 102406.21, 99690.77, 0.00, 0.00, 0.00
182, 80860.14, 113036.88, 11676.10, 68280.66, 54497.38, 26795.03, 102407.62, 99701.41, 0.00, 0.00, 0.00
183, 80855.84, 113030.71, 11675.63, 68283.23, 54478.71, 26783.47, 102411.33, 99698.39, 0.00, 0.00, 0.00
184, 80850.33, 113025.23, 11675.17, 68275.44, 54457.36, 26769.92, 102412.09, 99680.22, 0.00, 0.00, 0.00
185, 80845.59, 112996.63, 11671.86, 68274.36, 54476.43, 26779.91, 102411.47, 99670.07, 0.00, 0.00, 0.00
186, 80840.42, 113000.85, 11672.50, 68278.07, 54517.51, 26787.18, 102419.34, 99671.63, 0.00, 0.00, 0.00
187, 80845.95, 113023.00, 11677.80, 68288.33, 54530.27, 26794.55, 102403.66, 99681.65, 0.00, 0.00, 0.00
188, 80850.08, 113033.13, 11675.79, 68284.15, 54510.38, 26789.50, 102422.46, 99693.23, 0.07, -0.25, 0.98
189, 80853.05, 113010.23, 11667.45, 68273.06, 54492.10, 26778.19, 102406.84, 99696.58, 0.00, 0.00, 0.00
190, 80858.17, 113016.32, 11666.89, 68271.86, 54491.45, 26776.25, 102398.44, 99693.60, 0.00, 0.00, 0.00
191, 80862.46, 113025.03, 11669.31, 68285.52, 54501.33, 26783.20, 102401.85, 99691.10, 0.00, 0.00, 0.00
192, 80853.19, 113025.28, 11673.82, 68287.17, 54504.26, 26786.46, 102405.79, 99690.38, 0.00, 0.00, 0.00
193, 80844.27, 113029.10, 11672.64, 68277.11, 54492.95, 26779.54, 102406.80, 99677.13, 0.00, 0.00, 0.00
194, 80844.18, 113025.55, 11670.36, 68278.50, 54487.49, 26773.75, 102405.32, 99669.24, 0.00, 0.00, 0.00
195, 80843.30, 113020.34, 11677.85, 68279.08, 54501.51, 26775.18, 102398.70, 99665.89, 0.00, 0.00, 0.00
196, 80845.79, 113025.93, 11684.84, 68279.97, 54497.26, 26776.05, 102398.70, 99675.45, 0.00, 0.00, 0.00
197, 80845.74, 113028.90, 11688.11, 68280.60, 54469.68, 26771.85, 102399.33, 99682.20, 0.00, 0.00, 0.00
198, 80847.55, 113020.34, 11685.83, 68269.22, 54463.33, 26758.90, 102399.91, 99683.14, 0.07, -0.24, 0.98
199, 80862.62, 113025.57, 11690.88, 68278.34, 54524.48, 26785.39, 102419.00, 99701.25, 0.00, 0.00, 0.00
200, 80867.18, 113036.43, 11684.96, 68284.84, 54509.49, 26779.20, 102411.30, 99709.81, 0.00, 0.00, 0.00
201, 80847.38, 113038.31, 11687.17, 68283.33, 54501.89, 26775.78, 102406.62, 99679.86, 0.00, 0.00, 0.00
202, 80836.04, 113025.08, 11687.59, 68276.46, 54483.22, 26768.11, 102385.09, 99658.67, 0.00, 0.00, 0.00
203, 80842.79, 113022.38, 11687.44, 68274.95, 54491.94, 26764.16, 102396.47, 99666.80, 0.00, 0.00, 0.00
204, 80846.16, 113017.97, 11691.06, 68281.73, 54512.57, 26769.32, 102399.44, 99674.16, 0.00, 0.00, 0.00
205, 80845.14, 113020.74, 11691.77, 68281.65, 54497.38, 26769.79, 102389.96, 99664.10, 0.00, 0.00, 0.00
206, 80842.95, 113022.89, 11694.28, 68282.07, 54502.29, 26774.35, 102392.87, 99664.88, 0.00, 0.00, 0.00
207, 80838.77, 113023.91, 11693.63, 68280.71, 54505.51, 26774.35, 102393.09, 99663.77, 0.00, 0.00, 0.00
208, 80843.82, 113029.64, 11697.14, 68288.69, 54508.10, 26773.88, 102397.67, 99665.93, 0.08, -0.24, 0.98
209, 80843.87, 113035.20, 11699.24, 68289.67, 54504.32, 26769.88, 102397.00, 99663.95, 0.00, 0.00, 0.00
210, 80846.44, 113052.52, 11699.30, 68286.09, 54495.94, 26770.21, 102394.21, 99664.95, 0.00, 0.00, 0.00
211, 80846.23, 113035.20, 11699.95, 68289.74, 54499.00, 26775.69, 102397.77, 99666.65, 0.00, 0.00, 0.00
212, 80842.63, 113023.72, 11704.18, 68290.70, 54514.43, 26779.20, 102401.36, 99667.07, 0.00, 0.00, 0.00
213, 80843.55, 113025.93, 11699.73, 68284.15, 54503.90, 26771.80, 102400.11, 99660.13, 0.00, 0.00, 0.00
214, 80843.71, 113042.24, 11696.22, 68283.95, 54497.71, 26768.02, 102396.53, 99662.38, 0.00, 0.00, 0.00
215, 80845.90, 113031.74, 11693.49, 68281.20, 54496.43, 26768.67, 102418.06, 99665.20, 0.00, 0.00, 0.00
216, 80850.91, 113025.50, 11692.33, 68282.90, 54487.96, 26771.44, 102394.34, 99670.20, 0.00, 0.00, 0.00
217, 80850.99, 113033.20, 11688.46, 68278.36, 54511.63, 26775.98, 102389.76, 99666.56, 0.00, 0.00, 0.00
218, 80853.37, 113030.11, 11685.54, 68279.30, 54507.12, 26770.93, 102392.13, 99668.98, 0.07, -0.24, 0.97
219, 80852.98, 113029.15, 11687.06, 68290.41, 54512.89, 26766.91, 102389.60, 99670.78, 0.00, 0.00, 0.00
220, 80852.80, 113027.02, 11688.04, 68285.78, 54501.91, 26765.45, 102391.37, 99670.70, 0.00, 0.00, 0.00
221, 80852.18, 113032.39, 11686.59, 68291.71, 54490.49, 26760.83, 102397.98, 99665.60, 0.00, 0.00, 0.00
222, 80856.56, 113035.34, 11685.96, 68289.05, 54507.21, 26771.44, 102407.29, 99661.69, 0.00, 0.00, 0.00
223, 80858.84, 113033.46, 11683.68, 68282.37, 54489.17, 26764.94, 102403.91, 99658.40, 0.00, 0.00, 0.00
224, 80854.17, 113030.06, 11681.60, 68280.45, 54486.93, 26758.86, 102389.25, 99659.12, 0.00, 0.00, 0.00
225, 80850.84, 113038.00, 11683.79, 68286.88, 54508.77, 26769.34, 102393.30, 99660.63, 0.00, 0.00, 0.00
226, 80850.13, 113043.27, 11686.16, 68291.04, 54511.21, 26768.63, 102397.95, 99665.77, 0.00, 0.00, 0.00
227, 80854.77, 113045.38, 11690.23, 68295.48, 54530.52, 26778.46, 102404.96, 99671.81, 0.00, 0.00, 0.00
228, 80852.98, 113056.64, 11688.31, 68290.08, 54512.48, 26769.63, 102390.12, 99670.43, 0.07, -0.24, 0.97
229, 80845.50, 113054.80, 11681.71, 68283.64, 54494.36, 26756.56, 102388.40, 99666.49, 0.00, 0.00, 0.00
230, 80853.92, 113044.10, 11681.29, 68282.68, 54495.43, 26757.67, 102389.94, 99673.42, 0.00, 0.00, 0.00
231, 80853.43, 113036.10, 11683.14, 68282.14, 54484.59, 26760.71, 102392.84, 99667.81, 0.00, 0.00, 0.00
232, 80855.58, 113034.65, 11684.37, 68281.38, 54484.99, 26764.04, 102395.88, 99667.97, 0.00, 0.00, 0.00
233, 80865.23, 113036.37, 11684.11, 68288.53, 54523.50, 26776.54, 102404.58, 99678.00, 0.00, 0.00, 0.00
234, 80864.45, 113044.19, 11686.30, 68288.02, 54512.30, 26770.42, 102406.05, 99678.36, 0.00, 0.00, 0.00
235, 80856.63, 113050.63, 11682.88, 68281.25, 54496.48, 26763.58, 102400.49, 99670.78, 0.00, 0.00, 0.00
236, 80855.09, 113058.77, 11683.30, 68284.64, 54498.98, 26766.62, 102400.45, 99671.59, 0.00, 0.00, 0.00
237, 80856.90, 113058.88, 11686.45, 68282.52, 54504.30, 26773.19, 102406.88, 99675.57, 0.00, 0.00, 0.00
238, 80858.95, 113044.52, 11681.67, 68282.84, 54489.80, 26772.99, 102414.91, 99680.73, 0.08, -0.24, 0.97
239, 80864.01, 113038.94, 11680.06, 68281.58, 54505.69, 26773.23, 102407.87, 99682.48, 0.00, 0.00, 0.00
240, 80865.99, 113042.06, 11679.97, 68281.52, 54514.43, 26770.44, 102397.49, 99684.77, 0.00, 0.00, 0.00
241, 80862.41, 113053.94, 11681.33, 68295.93, 54506.25, 26774.17, 102402.14, 99684.22, 0.00, 0.00, 0.00
242, 80865.91, 113055.97, 11683.12, 68298.10, 54491.72, 26768.78, 102396.71, 99685.63, 0.00, 0.00, 0.00
243, 80866.77, 113039.85, 11683.90, 68296.53, 54509.76, 26771.11, 102392.91, 99685.29, 0.00, 0.00, 0.00
244, 80863.73, 113032.84, 11680.87, 68285.16, 54495.29, 26765.83, 102389.31, 99679.68, 0.00, 0.00, 0.00
245, 80857.34, 113039.83, 11684.17, 68298.79, 54477.75, 26755.93, 102380.77, 99670.52, 0.00, 0.00, 0.00
246, 80857.63, 113051.74, 11688.00, 68302.10, 54539.64, 26771.15, 102384.64, 99669.76, 0.00, 0.00, 0.00
247, 80851.84, 113064.30, 11687.64, 68298.79, 54534.41, 26779.98, 102388.29, 99667.03, 0.00, 0.00, 0.00
248, 80844.34, 113051.81, 11687.30, 68302.81, 54512.28, 26771.24, 102387.26, 99662.06, 0.08, -0.24, 0.97
249, 80848.78, 113050.78, 11688.22, 68301.07, 54529.83, 26773.79, 102390.79, 99664.75, 0.00, 0.00, 0.00
250, 80852.20, 113049.06, 11682.74, 68293.80, 54518.99, 26771.33, 102389.98, 99671.41, 0.00, 0.00, 0.00
251, 80851.35, 113039.85, 11678.05, 68286.59, 54512.64, 26766.97, 102400.34, 99671.68, 0.00, 0.00, 0.00
252, 80865.23, 113046.98, 11684.78, 68303.55, 54511.16, 26773.92, 102379.73, 99694.16, 0.00, 0.00, 0.00
253, 80852.63, 113047.48, 11684.04, 68303.13, 54484.86, 26764.49, 102372.95, 99667.85, 0.00, 0.00, 0.00
254, 80844.89, 113057.06, 11684.82, 68297.30, 54517.60, 26770.13, 102380.55, 99653.93, 0.00, 0.00, 0.00
255, 80866.89, 113070.37, 11689.16, 68309.81, 54525.89, 26775.49, 102388.04, 99677.24, 0.00, 0.00, 0.00
0, 80852.00, 113056.33, 11689.65, 68310.64, 54518.03, 26770.04, 102381.80, 99667.85, 0.00, 0.00, 0.00
1, 80832.58, 113043.14, 11683.97, 68297.50, 54506.27, 26762.64, 102372.20, 99648.01, 0.00, 0.00, 0.00
2, 80831.75, 113050.09, 11681.00, 68294.63, 54511.01, 26765.63, 102380.73, 99642.30, 0.07, -0.24, 0.97
3, 80832.13, 113048.15, 11678.76, 68290.92, 54507.95, 26760.76, 102374.12, 99647.70, 0.00, 0.00, 0.00
4, 80832.94, 113049.89, 11678.92, 68294.61, 54503.14, 26753.99, 102362.91, 99644.52, 0.00, 0.00, 0.00
5, 80842.44, 113061.00, 11681.36, 68296.94, 54506.27, 26757.65, 102360.59, 99651.29, 0.00, 0.00, 0.00
6, 80844.38, 113061.40, 11690.30, 68304.49, 54519.68, 26772.83, 102368.88, 99653.48, 0.00, 0.00, 0.00
7, 80826.03, 113047.20, 11678.74, 68294.66, 54494.22, 26756.60, 102355.61, 99638.13, 0.00, 0.00, 0.00
8, 80814.95, 113043.81, 11678.70, 68292.91, 54476.12, 26748.42, 102356.66, 99628.70, 0.00, 0.00, 0.00
9, 80819.32, 113056.59, 11678.81, 68284.33, 54488.25, 26751.71, 102358.76, 99631.80, 0.00, 0.00, 0.00
10, 80833.20, 113068.55, 11681.60, 68292.09, 54479.45, 26751.82, 102354.38, 99642.80, 0.00, 0.00, 0.00
11, 80836.02, 113048.57, 11687.66, 68311.84, 54522.12, 26765.86, 102359.72, 99657.84, 0.00, 0.00, 0.00
12, 80835.64, 113046.98, 11688.67, 68314.88, 54547.13, 26778.60, 102369.49, 99653.53, 0.07, -0.25, 0.97
13, 80842.26, 113060.41, 11690.03, 68311.47, 54528.38, 26775.67, 102370.02, 99643.20, 0.00, 0.00, 0.00
14, 80835.15, 113065.55, 11685.58, 68304.98, 54519.90, 26766.71, 102361.38, 99639.70, 0.00, 0.00, 0.00
15, 80826.32, 113056.48, 11685.54, 68302.44, 54512.80, 26764.27, 102362.73, 99638.77, 0.00, 0.00, 0.00
16, 80819.41, 113038.60, 11680.33, 68293.61, 54484.70, 26754.50, 102355.56, 99632.65, 0.00, 0.00, 0.00
17, 80822.07, 113044.50, 11684.80, 68298.86, 54499.12, 26758.61, 102350.55, 99631.13, 0.00, 0.00, 0.00
18, 80826.88, 113048.44, 11681.22, 68300.29, 54512.35, 26755.93, 102345.70, 99637.93, 0.00, 0.00, 0.00
19, 80835.15, 113053.84, 11679.99, 68290.73, 54505.35, 26758.10, 102363.32, 99647.83, 0.00, 0.00, 0.00
20, 80841.36, 113060.22, 11681.71, 68301.27, 54512.98, 26767.84, 102359.41, 99644.61, 0.00, 0.00, 0.00
21, 80839.41, 113067.73, 11688.89, 68314.17, 54533.38, 26773.79, 102352.99, 99637.95, 0.00, 0.00, 0.00
22, 80835.04, 113054.20, 11685.92, 68304.56, 54522.30, 26762.95, 102353.46, 99634.75, 0.08, -0.25, 0.97
23, 80825.89, 113045.15, 11676.42, 68289.63, 54503.57, 26750.81, 102351.38, 99633.26, 0.00, 0.00, 0.00
24, 80823.59, 113046.54, 11678.07, 68296.47, 54508.10, 26751.42, 102349.57, 99635.89, 0.00, 0.00, 0.00
25, 80827.86, 113052.48, 11687.37, 68312.56, 54513.60, 26760.58, 102347.80, 99642.24, 0.00, 0.00, 0.00
26, 80829.36, 113056.66, 11685.74, 68308.25, 54496.61, 26759.04, 102350.04, 99638.46, 0.00, 0.00, 0.00
27, 80835.75, 113063.08, 11686.25, 68307.11, 54505.71, 26764.00, 102360.62, 99637.34, 0.00, 0.00, 0.00
28, 80830.66, 113048.68, 11681.20, 68300.18, 54495.38, 26753.54, 102342.78, 99632.25, 0.00, 0.00, 0.00
29, 80830.90, 113056.77, 11684.06, 68304.78, 54517.42, 26757.74, 102342.29, 99632.74, 0.00, 0.00, 0.00
30, 80836.40, 113064.10, 11684.67, 68304.11, 54518.29, 26757.70, 102336.16, 99635.55, 0.00, 0.00, 0.00
31, 80832.29, 113045.58, 11680.80, 68299.73, 54506.76, 26755.91, 102339.88, 99631.65, 0.00, 0.00, 0.00
32, 80820.95, 113044.57, 11676.30, 68297.05, 54487.25, 26751.44, 102356.30, 99623.84, 0.07, -0.24, 0.97
33, 80824.28, 113063.68, 11678.63, 68298.84, 54496.41, 26747.75, 102349.13, 99622.13, 0.00, 0.00, 0.00
34, 80831.48, 113068.46, 11678.81, 68296.71, 54490.38, 26748.78, 102335.40, 99626.77, 0.00, 0.00, 0.00
35, 80837.38, 113042.78, 11682.23, 68304.18, 54523.68, 26765.03, 102328.38, 99632.59, 0.00, 0.00, 0.00
36, 80839.80, 113044.37, 11685.76, 68314.22, 54525.52, 26771.33, 102331.34, 99635.96, 0.00, 0.00, 0.00
37, 80834.77, 113054.74, 11684.62, 68308.67, 54505.75, 26759.91, 102327.80, 99634.80, 0.00, 0.00, 0.00
38, 80838.91, 113058.83, 11684.35, 68302.21, 54541.38, 26764.13, 102331.71, 99642.82, 0.00, 0.00, 0.00
39, 80829.11, 113055.37, 11674.49, 68282.59, 54525.83, 26760.74, 102327.84, 99630.98, 0.00, 0.00, 0.00
40, 80825.80, 113056.20, 11687.86, 68313.63, 54518.61, 26760.22, 102330.89, 99626.98, 0.00, 0.00, 0.00
41, 80824.64, 113056.10, 11692.15, 68317.86, 54520.75, 26762.35, 102331.89, 99626.15, 0.00, 0.00, 0.00
42, 80826.70, 113061.73, 11681.31, 68297.05, 54499.77, 26747.73, 102328.54, 99621.92, 0.07, -0.25, 0.97
43, 80838.27, 113061.22, 11679.77, 68296.80, 54499.32, 26747.59, 102329.70, 99637.84, 0.00, 0.00, 0.00
44, 80819.23, 113070.09, 11692.06, 68319.98, 54524.89, 26766.35, 102339.54, 99628.16, 0.00, 0.00, 0.00
45, 80817.06, 113057.94, 11691.33, 68321.81, 54533.58, 26764.74, 102329.66, 99615.13, 0.00, 0.00, 0.00
46, 80829.76, 113054.45, 11687.48, 68317.73, 54538.99, 26765.12, 102328.36, 99623.78, 0.00, 0.00, 0.00
47, 80826.84, 113064.26, 11691.50, 68315.16, 54546.95, 26767.17, 102335.36, 99624.80, 0.00, 0.00, 0.00
48, 80821.24, 113062.98, 11691.95, 68314.38, 54538.25, 26765.68, 102344.55, 99631.31, 0.00, 0.00, 0.00
49, 80813.31, 113051.90, 11687.10, 68317.66, 54518.18, 26754.77, 102334.51, 99628.78, 0.00, 0.00, 0.00
50, 80827.66, 113056.77, 11691.68, 68318.35, 54515.50, 26753.72, 102326.41, 99635.09, 0.00, 0.00, 0.00
51, 80829.56, 113066.63, 11695.24, 68318.84, 54535.33, 26767.67, 102327.91, 99640.36, 0.00, 0.00, 0.00
52, 80820.53, 113064.73, 11697.43, 68332.95, 54526.74, 26761.92, 102343.12, 99624.52, 0.08, -0.25, 0.97
53, 80815.14, 113061.13, 11693.36, 68322.89, 54526.50, 26756.15, 102340.84, 99627.09, 0.00, 0.00, 0.00
54, 80811.34, 113063.57, 11693.11, 68321.97, 54521.94, 26750.28, 102324.52, 99626.33, 0.00, 0.00, 0.00
55, 80812.93, 113070.70, 11696.71, 68326.73, 54551.66, 26768.45, 102335.63, 99634.10, 0.00, 0.00, 0.00
56, 80817.58, 113071.64, 11697.70, 68328.59, 54551.46, 26773.84, 102351.88, 99639.91, 0.00, 0.00, 0.00
57, 80816.26, 113068.48, 11693.34, 68323.45, 54539.84, 26766.26, 102327.00, 99636.81, 0.00, 0.00, 0.00
58, 80821.16, 113062.05, 11689.20, 68317.68, 54536.29, 26761.74, 102328.54, 99640.30, 0.00, 0.00, 0.00
59, 80819.41, 113065.45, 11686.86, 68317.39, 54529.74, 26760.13, 102336.05, 99639.02, 0.00, 0.00, 0.00
60, 80828.35, 113078.12, 11691.42, 68326.62, 54527.88, 26765.43, 102336.05, 99647.47, 0.00, 0.00, 0.00
61, 80837.16, 113089.09, 11692.02, 68319.98, 54534.88, 26769.10, 102340.43, 99650.91, 0.00, 0.00, 0.00
62, 80841.97, 113077.98, 11690.54, 68315.18, 54523.30, 26767.35, 102345.21, 99652.79, 0.07, -0.24, 0.97
63, 80836.89, 113068.58, 11684.33, 68307.42, 54514.74, 26758.05, 102348.63, 99646.73, 0.00, 0.00, 0.00
64, 80841.98, 113058.34, 11685.85, 68304.42, 54524.26, 26758.08, 102345.80, 99649.30, 0.00, 0.00, 0.00
65, 80846.23, 113064.09, 11684.15, 68306.91, 54511.14, 26756.54, 102344.16, 99651.80, 0.00, 0.00, 0.00
66, 80844.76, 113074.84, 11687.39, 68314.66, 54499.59, 26761.16, 102320.98, 99652.32, 0.00, 0.00, 0.00
67, 80841.25, 113064.44, 11685.69, 68305.90, 54506.96, 26762.64, 102326.33, 99648.59, 0.00, 0.00, 0.00
68, 80841.36, 113062.90, 11682.05, 68305.09, 54530.34, 26760.31, 102326.69, 99646.91, 0.00, 0.00, 0.00
69, 80838.39, 113070.41, 11683.99, 68306.48, 54548.71, 26769.68, 102323.69, 99649.86, 0.00, 0.00, 0.00
70, 80838.30, 113079.73, 11686.81, 68304.88, 54535.35, 26765.05, 102321.55, 99657.17, 0.00, 0.00, 0.00
71, 80840.24, 113074.45, 11688.15, 68320.79, 54531.79, 26758.90, 102329.13, 99651.80, 0.00, 0.00, 0.00
72, 80839.93, 113078.08, 11689.98, 68323.67, 54512.44, 26751.80, 102329.95, 99643.02, 0.07, -0.25, 0.97
73, 80826.50, 113077.90, 11688.42, 68317.91, 54498.71, 26743.84, 102332.85, 99637.03, 0.00, 0.00, 0.00
74, 80825.02, 113074.07, 11688.80, 68314.88, 54492.95, 26742.39, 102345.69, 99644.27, 0.00, 0.00, 0.00
75, 80833.16, 113085.56, 11693.83, 68323.67, 54534.95, 26758.61, 102323.29, 99650.96, 0.00, 0.00, 0.00
76, 80839.08, 113108.12, 11694.30, 68321.68, 54563.27, 26767.80, 102341.21, 99655.27, 0.00, 0.00, 0.00
77, 80837.63, 113080.69, 11688.87, 68319.13, 54542.23, 26758.41, 102337.70, 99651.12, 0.00, 0.00, 0.00
78, 80833.52, 113057.22, 11684.89, 68309.95, 54514.65, 26744.02, 102324.45, 99645.66, 0.00, 0.00, 0.00
79, 80836.22, 113065.36, 11683.28, 68303.33, 54496.37, 26737.36, 102326.71, 99649.41, 0.00, 0.00, 0.00
80, 80841.43, 113073.07, 11687.84, 68314.95, 54532.18, 26755.39, 102335.00, 99649.77, 0.00, 0.00, 0.00
81, 80841.56, 113083.28, 11686.43, 68311.98, 54524.48, 26755.84, 102339.36, 99648.84, 0.00, 0.00, 0.00
82, 80837.96, 113092.63, 11688.35, 68310.35, 54520.66, 26751.86, 102343.76, 99643.05, 0.07, -0.24, 0.97
83, 80831.30, 113084.71, 11687.93, 68314.51, 54531.93, 26754.66, 102338.33, 99646.22, 0.00, 0.00, 0.00
84, 80829.96, 113068.73, 11684.91, 68308.41, 54523.91, 26749.27, 102333.63, 99647.85, 0.00, 0.00, 0.00
85, 80837.16, 113071.16, 11685.20, 68307.30, 54521.67, 26753.88, 102356.99, 99651.80, 0.00, 0.00, 0.00
86, 80840.87, 113083.62, 11692.04, 68318.06, 54533.23, 26763.55, 102354.13, 99658.71, 0.00, 0.00, 0.00
87, 80832.35, 113092.11, 11687.97, 68316.61, 54521.87, 26754.75, 102330.64, 99650.40, 0.00, 0.00, 0.00
88, 80828.33, 113060.17, 11671.23, 68301.14, 54505.33, 26741.71, 102331.22, 99649.98, 0.00, 0.00, 0.00
89, 80852.88, 113065.05, 11686.74, 68312.54, 54520.75, 26754.93, 102347.92, 99668.68, 0.00, 0.00, 0.00
90, 80840.27, 113082.81, 11690.36, 68317.63, 54530.54, 26757.61, 102335.58, 99643.20, 0.00, 0.00, 0.00
91, 80831.33, 113088.85, 11690.48, 68314.77, 54524.75, 26757.07, 102327.47, 99641.95, 0.00, 0.00, 0.00
92, 80834.27, 113084.69, 11686.14, 68310.93, 54514.54, 26747.86, 102331.89, 99652.08, 0.08, -0.24, 0.98
93, 80830.32, 113073.70, 11678.63, 68302.37, 54501.40, 26736.35, 102330.95, 99649.05, 0.00, 0.00, 0.00
94, 80825.73, 113094.05, 11683.75, 68304.94, 54499.54, 26740.75, 102336.66, 99639.91, 0.00, 0.00, 0.00
95, 80826.01, 113105.21, 11692.17, 68314.75, 54512.19, 26742.03, 102346.51, 99638.28, 0.00, 0.00, 0.00
96, 80831.66, 113072.53, 11691.08, 68309.61, 54526.61, 26748.22, 102323.94, 99640.32, 0.00, 0.00, 0.00
97, 80821.89, 113057.80, 11683.77, 68304.11, 54537.32, 26746.97, 102326.48, 99628.83, 0.00, 0.00, 0.00
98, 80833.13, 113066.14, 11697.36, 68323.73, 54533.67, 26747.50, 102340.41, 99633.63, 0.00, 0.00, 0.00
99, 80838.45, 113062.05, 11690.43, 68312.96, 54528.96, 26744.38, 102334.80, 99637.57, 0.00, 0.00, 0.00
100, 80834.01, 113078.23, 11695.42, 68324.92, 54540.04, 26750.21, 102334.91, 99638.22, 0.00, 0.00, 0.00
101, 80836.11, 113082.97, 11697.72, 68316.38, 54539.37, 26753.45, 102319.31, 99633.30, 0.00, 0.00, 0.00
102, 80828.69, 113074.63, 11690.86, 68308.07, 54517.71, 26742.05, 102315.40, 99628.54, 0.08, -0.24, 0.98
103, 80822.50, 113068.53, 11686.09, 68314.04, 54513.29, 26734.34, 102316.72, 99620.67, 0.00, 0.00, 0.00
104, 80818.16, 113071.26, 11677.09, 68307.48, 54493.84, 26724.88, 102327.13, 99612.96, 0.00, 0.00, 0.00
105, 80842.75, 113117.64, 11700.91, 68327.00, 54515.99, 26749.58, 102353.40, 99635.16, 0.00, 0.00, 0.00
106, 80837.96, 113076.76, 11695.01, 68316.74, 54537.38, 26758.39, 102329.66, 99634.38, 0.00, 0.00, 0.00
107, 80827.68, 113045.71, 11690.43, 68307.82, 54533.52, 26752.71, 102326.20, 99630.39, 0.00, 0.00, 0.00
108, 80833.29, 113067.21, 11694.07, 68317.45, 54533.85, 26753.14, 102326.20, 99634.10, 0.00, 0.00, 0.00
109, 80837.96, 113077.09, 11691.17, 68312.88, 54521.07, 26747.68, 102312.16, 99627.73, 0.00, 0.00, 0.00
110, 80828.78, 113076.58, 11687.82, 68306.82, 54515.16, 26744.24, 102319.17, 99623.98, 0.00, 0.00, 0.00
111, 80821.09, 113072.42, 11678.07, 68301.34, 54512.53, 26743.28, 102316.52, 99619.53, 0.07, -0.24, 0.97
112, 80837.23, 113078.21, 11688.15, 68311.76, 54515.43, 26750.97, 102319.89, 99635.94, 0.00, 0.00, 0.00
113, 80832.31, 113076.02, 11684.98, 68305.66, 54487.96, 26736.11, 102327.94, 99633.39, 0.00, 0.00, 0.00
114, 80833.94, 113086.16, 11689.05, 68309.43, 54509.89, 26745.40, 102316.41, 99630.84, 0.00, 0.00, 0.00
115, 80832.02, 113089.72, 11686.70, 68306.30, 54509.22, 26741.76, 102317.61, 99631.24, 0.00, 0.00, 0.00
116, 80834.55, 113081.52, 11686.88, 68307.78, 54533.54, 26751.75, 102327.42, 99626.20, 0.00, 0.00, 0.00
117, 80844.16, 113077.25, 11694.79, 68316.12, 54545.50, 26756.94, 102323.40, 99626.04, 0.00, 0.00, 0.00
118, 80837.43, 113070.05, 11686.47, 68308.43, 54533.27, 26743.66, 102312.94, 99617.77, 0.00, 0.00, 0.00
119, 80832.27, 113063.13, 11682.09, 68302.44, 54514.61, 26741.92, 102315.46, 99615.35, 0.00, 0.00, 0.00
120, 80820.09, 113068.15, 11681.78, 68311.06, 54515.23, 26739.55, 102319.98, 99611.62, 0.00, 0.00, 0.00
121, 80824.45, 113090.93, 11685.58, 68312.67, 54518.68, 26743.37, 102312.85, 99617.01, 0.08, -0.24, 0.97
122, 80832.29, 113090.84, 11689.40, 68315.94, 54515.32, 26743.91, 102320.16, 99624.63, 0.00, 0.00, 0.00
123, 80831.30, 113074.19, 11684.22, 68302.32, 54505.71, 26736.82, 102332.70, 99628.07, 0.00, 0.00, 0.00
124, 80819.75, 113077.16, 11670.20, 68286.99, 54498.91, 26723.05, 102312.83, 99618.39, 0.00, 0.00, 0.00
125, 80836.11, 113079.15, 11685.18, 68308.00, 54521.18, 26747.68, 102346.94, 99625.99, 0.00, 0.00, 0.00
126, 80838.16, 113080.94, 11695.26, 68320.45, 54511.90, 26754.66, 102326.28, 99629.97, 0.00, 0.00, 0.00
127, 80827.50, 113072.46, 11686.70, 68309.08, 54526.03, 26752.71, 102321.12, 99624.16, 0.00, 0.00, 0.00
128, 80832.48, 113071.52, 11675.68, 68295.28, 54523.73, 26744.00, 102319.76, 99615.04, 0.00, 0.00, 0.00
129, 80826.54, 113073.34, 11670.81, 68282.97, 54514.88, 26739.46, 102338.02, 99607.57, 0.00, 0.00, 0.00
130, 80828.51, 113088.76, 11688.38, 68307.69, 54521.02, 26754.03, 102346.04, 99622.93, 0.00, 0.00, 0.00
131, 80825.72, 113072.30, 11690.27, 68330.55, 54534.81, 26759.57, 102342.04, 99618.23, 0.08, -0.25, 0.97
132, 80828.76, 113059.73, 11685.00, 68319.38, 54528.20, 26754.17, 102357.09, 99616.49, 0.00, 0.00, 0.00
133, 80825.49, 113065.73, 11680.80, 68313.37, 54516.77, 26743.15, 102325.91, 99616.11, 0.00, 0.00, 0.00
134, 80816.30, 113088.78, 11687.26, 68314.98, 54527.59, 26745.81, 102320.41, 99618.81, 0.00, 0.00, 0.00
135, 80816.82, 113102.91, 11690.43, 68316.63, 54523.61, 26748.71, 102313.97, 99617.25, 0.00, 0.00, 0.00
136, 80819.68, 113078.45, 11684.55, 68312.07, 54522.12, 26749.70, 102323.49, 99614.59, 0.00, 0.00, 0.00
137, 80822.03, 113060.51, 11683.19, 68310.80, 54515.59, 26744.44, 102344.61, 99618.44, 0.00, 0.00, 0.00
138, 80823.28, 113066.38, 11678.83, 68302.88, 54523.39, 26739.57, 102334.64, 99615.59, 0.00, 0.00, 0.00
139, 80830.68, 113067.66, 11681.31, 68310.08, 54521.91, 26737.58, 102324.02, 99613.88, 0.00, 0.00, 0.00
140, 80830.97, 113073.85, 11678.43, 68306.77, 54508.62, 26734.03, 102331.52, 99614.79, 0.00, 0.00, 0.00
141, 80822.30, 113080.45, 11674.56, 68298.84, 54479.85, 26727.79, 102329.55, 99618.66, 0.08, -0.25, 0.97
142, 80819.48, 113096.94, 11679.81, 68300.73, 54501.62, 26735.84, 102346.47, 99631.34, 0.00, 0.00, 0.00
143, 80827.99, 113082.03, 11681.29, 68309.74, 54511.63, 26741.04, 102367.70, 99637.95, 0.00, 0.00, 0.00
144, 80832.35, 113064.41, 11674.23, 68309.01, 54520.66, 26737.80, 102357.75, 99635.47, 0.00, 0.00, 0.00
145, 80829.13, 113087.84, 11680.71, 68314.33, 54539.44, 26746.25, 102318.77, 99620.98, 0.00, 0.00, 0.00
146, 80822.72, 113103.58, 11682.79, 68316.38, 54542.75, 26748.29, 102344.43, 99611.71, 0.00, 0.00, 0.00
147, 80827.75, 113080.06, 11677.24, 68309.23, 54533.76, 26745.25, 102336.59, 99617.38, 0.00, 0.00, 0.00
148, 80832.27, 113070.99, 11676.57, 68308.76, 54527.46, 26740.04, 102320.56, 99620.13, 0.00, 0.00, 0.00
149, 80834.21, 113074.12, 11670.54, 68297.32, 54525.78, 26736.69, 102321.79, 99617.20, 0.00, 0.00, 0.00
150, 80831.93, 113078.25, 11670.11, 68292.71, 54509.27, 26737.54, 102326.87, 99612.76, 0.00, 0.00, 0.00
151, 80837.96, 113106.10, 11682.54, 68299.58, 54528.66, 26751.53, 102339.83, 99624.74, 0.08, -0.25, 0.97
152, 80836.06, 113110.46, 11686.05, 68318.15, 54540.40, 26753.16, 102343.78, 99625.37, 0.00, 0.00, 0.00
153, 80837.90, 113090.03, 11685.80, 68327.56, 54533.94, 26748.40, 102369.16, 99622.68, 0.00, 0.00, 0.00
154, 80837.09, 113064.38, 11678.79, 68317.70, 54517.78, 26741.29, 102371.91, 99619.58, 0.00, 0.00, 0.00
155, 80841.81, 113077.18, 11677.83, 68311.98, 54525.38, 26743.08, 102321.56, 99621.05, 0.00, 0.00, 0.00
156, 80843.53, 113092.29, 11678.96, 68309.39, 54516.68, 26739.59, 102323.47, 99620.70, 0.00, 0.00, 0.00
157, 80842.10, 113100.63, 11678.65, 68304.34, 54512.01, 26735.95, 102326.26, 99618.77, 0.00, 0.00, 0.00
158, 80838.88, 113096.58, 11681.92, 68306.64, 54528.33, 26743.88, 102350.27, 99625.43, 0.00, 0.00, 0.00
159, 80834.37, 113090.16, 11680.48, 68310.55, 54522.56, 26739.70, 102355.63, 99622.34, 0.00, 0.00, 0.00
160, 80837.38, 113081.61, 11677.13, 68303.09, 54519.52, 26736.93, 102325.86, 99616.02, 0.00, 0.00, 0.00
161, 80838.45, 113083.87, 11675.95, 68301.54, 54510.40, 26733.09, 102322.23, 99618.80, 0.07, -0.25, 0.98
162, 80840.40, 113086.66, 11675.86, 68304.94, 54509.84, 26734.16, 102333.50, 99620.89, 0.00, 0.00, 0.00
163, 80845.95, 113097.68, 11667.77, 68298.99, 54508.04, 26725.62, 102337.81, 99620.60, 0.00, 0.00, 0.00
164, 80840.20, 113094.52, 11666.87, 68304.31, 54500.61, 26720.62, 102334.15, 99619.30, 0.00, 0.00, 0.00
165, 80833.67, 113083.35, 11670.31, 68300.09, 54496.57, 26721.15, 102342.60, 99620.96, 0.00, 0.00, 0.00
166, 80830.12, 113081.47, 11671.48, 68299.06, 54505.96, 26723.43, 102344.14, 99613.77, 0.00, 0.00, 0.00
167, 80838.01, 113082.34, 11672.37, 68305.23, 54503.41, 26722.94, 102320.74, 99620.29, 0.00, 0.00, 0.00
168, 80845.74, 113090.26, 11670.49, 68302.39, 54524.35, 26724.35, 102327.52, 99626.44, 0.00, 0.00, 0.00
169, 80847.22, 113100.92, 11672.97, 68307.53, 54541.05, 26736.96, 102356.10, 99631.51, 0.00, 0.00, 0.00
170, 80841.59, 113087.59, 11674.85, 68308.25, 54520.73, 26730.18, 102345.02, 99622.34, 0.00, 0.00, 0.00
171, 80838.39, 113098.80, 11674.36, 68303.98, 54509.29, 26723.54, 102329.01, 99622.88, 0.07, -0.25, 0.98
172, 80844.06, 113117.66, 11672.88, 68302.30, 54514.38, 26725.04, 102332.01, 99625.48, 0.00, 0.00, 0.00
173, 80837.61, 113081.61, 11662.87, 68292.65, 54493.30, 26713.66, 102319.45, 99615.75, 0.00, 0.00, 0.00
174, 80839.41, 113080.58, 11663.56, 68287.37, 54509.55, 26716.39, 102320.25, 99617.72, 0.00, 0.00, 0.00
175, 80849.92, 113092.02, 11669.33, 68296.58, 54520.30, 26726.74, 102329.03, 99623.98, 0.00, 0.00, 0.00
176, 80858.41, 113088.40, 11672.50, 68301.25, 54523.95, 26730.36, 102337.08, 99631.63, 0.00, 0.00, 0.00
177, 80861.73, 113089.16, 11675.50, 68310.02, 54516.04, 26729.02, 102343.07, 99640.67, 0.00, 0.00, 0.00
178, 80850.95, 113090.99, 11673.49, 68313.12, 54508.75, 26727.41, 102343.98, 99632.85, 0.00, 0.00, 0.00
179, 80844.78, 113099.35, 11679.43, 68315.49, 54523.21, 26735.17, 102349.82, 99634.04, 0.00, 0.00, 0.00
180, 80837.61, 113110.98, 11676.53, 68306.66, 54502.76, 26727.48, 102362.23, 99628.77, 0.00, 0.00, 0.00
181, 80833.38, 113096.42, 11669.85, 68299.30, 54502.18, 26719.79, 102336.52, 99624.59, 0.07, -0.25, 0.97
182, 80840.13, 113085.14, 11670.20, 68299.42, 54510.96, 26725.00, 102330.15, 99631.51, 0.00, 0.00, 0.00
183, 80847.33, 113108.02, 11677.31, 68314.93, 54503.00, 26733.87, 102342.17, 99636.01, 0.00, 0.00, 0.00
184, 80852.54, 113108.00, 11677.31, 68313.34, 54527.10, 26742.50, 102343.83, 99637.93, 0.00, 0.00, 0.00
185, 80856.83, 113078.74, 11673.96, 68308.20, 54530.32, 26743.88, 102344.88, 99631.65, 0.00, 0.00, 0.00
186, 80859.83, 113089.16, 11674.92, 68308.11, 54525.02, 26751.93, 102347.52, 99637.23, 0.00, 0.00, 0.00
187, 80856.05, 113100.25, 11671.99, 68307.98, 54524.15, 26756.49, 102338.66, 99651.70, 0.00, 0.00, 0.00
188, 80843.22, 113106.51, 11668.37, 68304.31, 54518.74, 26754.12, 102344.37, 99643.42, 0.00, 0.00, 0.00
189, 80841.14, 113097.32, 11670.92, 68308.67, 54505.87, 26749.34, 102341.64, 99618.64, 0.00, 0.00, 0.00
190, 80843.89, 113087.46, 11677.18, 68308.02, 54509.51, 26750.19, 102340.88, 99613.92, 0.00, 0.00, 0.00
191, 80846.91, 113095.91, 11680.37, 68307.84, 54527.19, 26760.45, 102353.89, 99624.20, 0.07, -0.25, 0.97
192, 80847.28, 113090.68, 11681.22, 68309.08, 54525.54, 26762.95, 102343.09, 99624.67, 0.00, 0.00, 0.00
193, 80840.20, 113095.38, 11675.61, 68301.70, 54522.92, 26752.00, 102337.75, 99616.83, 0.00, 0.00, 0.00
194, 80839.73, 113115.52, 11675.88, 68295.40, 54516.15, 26750.99, 102356.10, 99621.61, 0.00, 0.00, 0.00
195, 80846.73, 113100.67, 11680.55, 68301.52, 54537.16, 26766.88, 102345.46, 99628.52, 0.00, 0.00, 0.00
196, 80847.11, 113094.66, 11678.88, 68301.23, 54529.05, 26767.87, 102344.19, 99628.70, 0.00, 0.00, 0.00
197, 80849.09, 113104.92, 11680.89, 68300.65, 54521.89, 26767.20, 102343.65, 99635.47, 0.00, 0.00, 0.00
198, 80840.31, 113096.23, 11676.26, 68295.15, 54511.66, 26757.96, 102339.94, 99626.66, 0.00, 0.00, 0.00
199, 80846.97, 113100.65, 11679.61, 68297.07, 54512.50, 26764.45, 102343.20, 99626.84, 0.00, 0.00, 0.00
200, 80856.85, 113106.80, 11683.77, 68304.31, 54515.66, 26770.77, 102343.29, 99633.21, 0.00, 0.00, 0.00
201, 80854.93, 113118.51, 11684.80, 68309.27, 54519.34, 26777.01, 102334.02, 99632.23, 0.07, -0.25, 0.97
202, 80846.15, 113127.54, 11686.47, 68307.64, 54516.75, 26776.54, 102333.13, 99632.61, 0.00, 0.00, 0.00
203, 80844.09, 113091.82, 11682.16, 68299.71, 54518.07, 26777.61, 102334.87, 99630.22, 0.00, 0.00, 0.00
204, 80846.23, 113075.98, 11677.58, 68297.66, 54528.82, 26781.28, 102336.74, 99625.95, 0.00, 0.00, 0.00
205, 80852.38, 113094.10, 11686.63, 68313.79, 54529.52, 26803.52, 102341.84, 99627.55, 0.00, 0.00, 0.00
206, 80854.95, 113103.22, 11690.97, 68310.75, 54514.99, 26812.10, 102344.74, 99627.29, 0.00, 0.00, 0.00
207, 80849.79, 113106.66, 11687.84, 68306.95, 54520.69, 26807.85, 102346.78, 99624.05, 0.00, 0.00, 0.00
208, 80849.61, 113110.51, 11688.84, 68306.05, 54541.81, 26816.91, 102355.45, 99628.12, 0.00, 0.00, 0.00
209, 80855.45, 113121.21, 11695.28, 68313.16, 54533.74, 26817.87, 102362.02, 99633.03, 0.00, 0.00, 0.00
210, 80852.54, 113133.66, 11694.10, 68319.89, 54530.18, 26815.07, 102340.95, 99627.45, 0.00, 0.00, 0.00
211, 80843.53, 113120.12, 11692.00, 68309.86, 54524.38, 26815.57, 102343.13, 99619.17, 0.08, -0.24, 0.97
212, 80832.65, 113101.52, 11688.04, 68306.46, 54496.97, 26805.93, 102339.80, 99617.48, 0.00, 0.00, 0.00
213, 80825.83, 113101.88, 11683.28, 68318.15, 54506.40, 26807.52, 102343.25, 99620.02, 0.00, 0.00, 0.00
214, 80836.11, 113115.83, 11684.24, 68321.21, 54523.12, 26813.20, 102342.64, 99621.16, 0.00, 0.00, 0.00
215, 80841.09, 113121.02, 11688.17, 68321.37, 54554.08, 26824.30, 102345.33, 99615.89, 0.00, 0.00, 0.00
216, 80840.83, 113106.48, 11692.40, 68314.73, 54532.58, 26820.91, 102343.36, 99614.46, 0.00, 0.00, 0.00
217, 80840.47, 113104.77, 11693.23, 68314.88, 54534.70, 26817.13, 102345.46, 99618.80, 0.00, 0.00, 0.00
218, 80832.60, 113110.20, 11692.33, 68320.18, 54546.12, 26819.48, 102348.97, 99620.41, 0.00, 0.00, 0.00
219, 80836.42, 113109.39, 11691.91, 68320.09, 54549.34, 26823.97, 102347.67, 99625.72, 0.00, 0.00, 0.00
220, 80850.80, 113116.54, 11691.59, 68321.75, 54540.40, 26827.21, 102345.95, 99626.17, 0.00, 0.00, 0.00
221, 80845.23, 113120.05, 11690.30, 68318.46, 54542.10, 26823.17, 102341.88, 99621.16, 0.08, -0.25, 0.98
222, 80828.38, 113122.58, 11692.26, 68318.82, 54549.52, 26823.77, 102345.73, 99609.80, 0.00, 0.00, 0.00
223, 80821.52, 113104.45, 11688.62, 68313.14, 54533.76, 26816.35, 102356.37, 99604.13, 0.00, 0.00, 0.00
224, 80824.20, 113110.89, 11690.48, 68317.34, 54527.66, 26817.94, 102344.14, 99611.64, 0.00, 0.00, 0.00
225, 80826.32, 113114.02, 11691.88, 68317.48, 54534.52, 26820.48, 102332.67, 99612.18, 0.00, 0.00, 0.00
226, 80824.71, 113114.95, 11690.90, 68315.89, 54535.64, 26818.76, 102322.44, 99610.81, 0.00, 0.00, 0.00
227, 80831.98, 113119.42, 11692.82, 68317.61, 54538.32, 26823.01, 102332.81, 99616.54, 0.00, 0.00, 0.00
228, 80830.43, 113123.12, 11689.20, 68318.30, 54529.85, 26816.48, 102339.78, 99612.69, 0.00, 0.00, 0.00
229, 80830.27, 113111.20, 11688.38, 68322.62, 54530.54, 26816.01, 102330.48, 99615.62, 0.00, 0.00, 0.00
230, 80829.23, 113113.16, 11689.31, 68323.83, 54531.06, 26819.03, 102331.42, 99619.60, 0.00, 0.00, 0.00
231, 80831.73, 113100.63, 11690.39, 68325.37, 54533.07, 26823.66, 102333.48, 99616.65, 0.08, -0.25, 0.97
232, 80828.71, 113094.81, 11687.57, 68319.80, 54528.11, 26822.81, 102344.09, 99608.71, 0.00, 0.00, 0.00
233, 80826.66, 113104.16, 11687.19, 68320.45, 54522.63, 26813.02, 102324.80, 99607.06, 0.00, 0.00, 0.00
234, 80823.30, 113107.22, 11685.85, 68325.86, 54514.36, 26799.74, 102310.21, 99606.92, 0.00, 0.00, 0.00
235, 80821.23, 113113.75, 11684.84, 68321.70, 54525.98, 26805.28, 102315.40, 99605.94, 0.00, 0.00, 0.00
236, 80826.70, 113119.18, 11686.56, 68320.81, 54549.77, 26818.54, 102321.88, 99612.40, 0.00, 0.00, 0.00
237, 80825.88, 113123.41, 11685.94, 68319.55, 54538.34, 26817.98, 102325.84, 99610.26, 0.00, 0.00, 0.00
238, 80826.99, 113129.87, 11684.84, 68322.87, 54524.29, 26815.19, 102324.25, 99608.09, 0.00, 0.00, 0.00
239, 80828.98, 113119.29, 11684.33, 68320.63, 54538.72, 26819.21, 102327.47, 99612.24, 0.00, 0.00, 0.00
240, 80827.37, 113109.28, 11683.57, 68317.88, 54542.73, 26817.82, 102320.23, 99605.77, 0.00, 0.00, 0.00
241, 80830.74, 113125.15, 11684.67, 68315.45, 54519.37, 26817.13, 102321.09, 99599.80, 0.07, -0.25, 0.97
242, 80837.14, 113138.72, 11687.62, 68319.24, 54505.75, 26812.21, 102320.70, 99608.49, 0.00, 0.00, 0.00
243, 80829.49, 113130.11, 11686.43, 68322.20, 54532.13, 26810.56, 102320.13, 99603.98, 0.00, 0.00, 0.00
244, 80820.35, 113123.96, 11683.57, 68321.48, 54538.16, 26807.72, 102297.78, 99595.03, 0.00, 0.00, 0.00
245, 80825.85, 113125.98, 11684.69, 68322.73, 54530.41, 26814.07, 102319.55, 99603.70, 0.00, 0.00, 0.00
246, 80832.33, 113129.59, 11689.83, 68331.76, 54554.82, 26823.08, 102311.17, 99608.22, 0.00, 0.00, 0.00
247, 80829.49, 113132.37, 11689.94, 68328.92, 54557.50, 26822.90, 102309.07, 99604.16, 0.00, 0.00, 0.00
248, 80829.07, 113137.02, 11679.61, 68317.28, 54533.05, 26808.03, 102299.21, 99598.97, 0.00, 0.00, 0.00
249, 80835.44, 113137.95, 11675.68, 68317.03, 54522.25, 26801.30, 102297.49, 99604.47, 0.00, 0.00, 0.00
250, 80822.48, 113140.15, 11682.27, 68323.47, 54516.84, 26808.10, 102305.63, 99598.50, 0.00, 0.00, 0.00
251, 80811.30, 113142.52, 11691.21, 68327.07, 54544.31, 26823.30, 102308.89, 99591.13, 0.08, -0.25, 0.97
252, 80813.38, 113143.32, 11694.86, 68333.28, 54555.93, 26825.18, 102315.64, 99593.54, 0.00, 0.00, 0.00
253, 80814.95, 113126.84, 11689.83, 68331.16, 54532.67, 26816.59, 102316.98, 99595.46, 0.00, 0.00, 0.00
254, 80808.23, 113146.83, 11692.91, 68339.80, 54530.86, 26814.81, 102319.13, 99593.65, 0.00, 0.00, 0.00
255, 80810.54, 113149.96, 11693.23, 68341.30, 54556.05, 26822.99, 102314.97, 99594.50, 0.00, 0.00, 0.00
0, 80816.38, 113140.84, 11690.61, 68338.20, 54539.44, 26825.74, 102310.19, 99601.90, 0.00, 0.00, 0.00
1, 80815.08, 113134.36, 11689.92, 68338.06, 54552.58, 26830.36, 102325.68, 99603.35, 0.00, 0.00, 0.00
2, 80802.52, 113126.89, 11686.23, 68333.21, 54546.66, 26826.90, 102330.17, 99596.33, 0.00, 0.00, 0.00
3, 80801.24, 113131.92, 11686.34, 68330.35, 54542.93, 26826.88, 102337.03, 99608.22, 0.00, 0.00, 0.00
4, 80803.37, 113136.68, 11685.60, 68329.75, 54542.23, 26828.20, 102333.05, 99607.93, 0.00, 0.00, 0.00
5, 80805.15, 113146.13, 11690.97, 68329.99, 54527.44, 26822.96, 102325.91, 99606.14, 0.07, -0.25, 0.97
6, 80798.52, 113148.20, 11688.91, 68327.56, 54529.79, 26823.61, 102325.39, 99599.50, 0.00, 0.00, 0.00
7, 80791.23, 113145.69, 11678.36, 68316.34, 54540.89, 26823.12, 102324.25, 99592.38, 0.00, 0.00, 0.00
8, 80798.40, 113149.31, 11679.88, 68323.18, 54539.35, 26825.49, 102332.97, 99600.20, 0.00, 0.00, 0.00
9, 80799.52, 113143.43, 11683.88, 68331.94, 54537.05, 26826.07, 102313.72, 99598.68, 0.00, 0.00, 0.00
10, 80804.73, 113148.95, 11686.12, 68333.02, 54549.90, 26834.90, 102322.37, 99600.73, 0.00, 0.00, 0.00
11, 80813.04, 113151.70, 11688.31, 68332.03, 54551.53, 26836.04, 102321.97, 99606.70, 0.00, 0.00, 0.00
12, 80805.63, 113150.18, 11688.73, 68330.24, 54535.57, 26826.81, 102322.70, 99605.47, 0.00, 0.00, 0.00
13, 80802.56, 113147.12, 11689.25, 68340.16, 54514.09, 26816.86, 102321.43, 99607.53, 0.00, 0.00, 0.00
14, 80809.02, 113149.80, 11690.10, 68344.59, 54541.92, 26829.04, 102325.08, 99606.09, 0.00, 0.00, 0.00
15, 80818.83, 113136.66, 11687.59, 68333.70, 54559.04, 26836.17, 102340.41, 99604.58, 0.07, -0.25, 0.97
16, 80815.23, 113148.69, 11688.04, 68336.63, 54561.99, 26837.76, 102344.63, 99605.80, 0.00, 0.00, 0.00
17, 80810.77, 113147.01, 11685.13, 68334.66, 54558.28, 26835.41, 102330.33, 99607.35, 0.00, 0.00, 0.00
18, 80808.80, 113135.05, 11681.69, 68332.05, 54558.80, 26836.53, 102342.06, 99607.88, 0.00, 0.00, 0.00
19, 80813.24, 113160.91, 11684.46, 68337.70, 54565.23, 26838.10, 102331.13, 99610.19, 0.00, 0.00, 0.00
20, 80822.38, 113164.17, 11692.42, 68343.97, 54567.18, 26840.24, 102336.50, 99614.32, 0.00, 0.00, 0.00
21, 80816.04, 113139.14, 11691.10, 68339.56, 54548.11, 26831.28, 102318.08, 99615.84, 0.00, 0.00, 0.00
22, 80818.49, 113147.92, 11689.98, 68339.92, 54541.63, 26825.22, 102323.80, 99612.65, 0.00, 0.00, 0.00
23, 80813.60, 113143.01, 11687.86, 68337.73, 54559.62, 26828.62, 102333.62, 99605.65, 0.00, 0.00, 0.00
24, 80814.72, 113147.43, 11688.91, 68337.26, 54561.12, 26833.85, 102322.30, 99612.40, 0.00, 0.00, 0.00
25, 80823.05, 113158.59, 11693.02, 68339.92, 54558.86, 26837.20, 102327.45, 99625.99, 0.08, -0.25, 0.97
26, 80825.70, 113147.48, 11687.68, 68338.42, 54548.92, 26833.54, 102332.36, 99619.28, 0.00, 0.00, 0.00
27, 80822.85, 113144.64, 11684.82, 68336.63, 54534.32, 26822.14, 102329.44, 99614.52, 0.00, 0.00, 0.00
28, 80823.55, 113158.88, 11686.47, 68335.34, 54561.70, 26830.32, 102333.62, 99619.35, 0.00, 0.00, 0.00
29, 80825.42, 113168.06, 11687.55, 68327.25, 54543.30, 26828.37, 102344.81, 99621.63, 0.00, 0.00, 0.00
30, 80827.59, 113156.57, 11692.78, 68330.09, 54555.36, 26838.48, 102346.02, 99620.54, 0.00, 0.00, 0.00
31, 80827.62, 113150.77, 11694.41, 68332.25, 54559.69, 26840.55, 102337.70, 99620.02, 0.00, 0.00, 0.00
32, 80829.94, 113148.84, 11696.65, 68340.77, 54557.32, 26834.45, 102338.89, 99617.54, 0.00, 0.00, 0.00
33, 80829.11, 113153.22, 11692.49, 68338.51, 54558.24, 26832.80, 102337.59, 99620.83, 0.00, 0.00, 0.00
34, 80828.11, 113157.18, 11688.93, 68340.81, 54552.14, 26833.45, 102342.42, 99623.48, 0.00, 0.00, 0.00
35, 80831.57, 113153.65, 11693.38, 68342.60, 54558.80, 26841.40, 102343.20, 99625.03, 0.08, -0.25, 0.97
36, 80823.57, 113146.83, 11693.83, 68346.55, 54549.57, 26839.08, 102333.39, 99625.52, 0.00, 0.00, 0.00
37, 80824.13, 113139.25, 11688.96, 68342.42, 54549.72, 26834.61, 102328.98, 99623.27, 0.00, 0.00, 0.00
38, 80829.52, 113123.45, 11686.90, 68338.89, 54561.34, 26833.83, 102331.11, 99621.72, 0.00, 0.00, 0.00
39, 80826.97, 113130.52, 11691.35, 68340.34, 54557.97, 26835.37, 102332.01, 99626.88, 0.00, 0.00, 0.00
40, 80835.95, 113136.95, 11685.20, 68334.29, 54551.93, 26837.20, 102347.74, 99640.34, 0.00, 0.00, 0.00
41, 80843.77, 113137.71, 11687.91, 68334.96, 54561.52, 26840.58, 102327.02, 99642.46, 0.00, 0.00, 0.00
42, 80834.14, 113127.94, 11688.46, 68330.98, 54551.24, 26834.39, 102333.50, 99623.35, 0.00, 0.00, 0.00
43, 80824.24, 113118.27, 11684.28, 68329.19, 54533.02, 26825.15, 102336.61, 99610.28, 0.00, 0.00, 0.00
44, 80828.02, 113118.40, 11682.56, 68325.93, 54538.32, 26823.84, 102325.97, 99617.66, 0.00, 0.00, 0.00
45, 80835.44, 113103.58, 11686.16, 68328.74, 54542.97, 26831.84, 102334.40, 99627.96, 0.07, -0.25, 0.97
46, 80837.63, 113107.18, 11690.72, 68331.20, 54537.25, 26833.65, 102339.31, 99623.30, 0.00, 0.00, 0.00
47, 80825.00, 113102.75, 11688.04, 68329.02, 54543.69, 26825.76, 102324.13, 99612.76, 0.00, 0.00, 0.00
48, 80823.52, 113103.35, 11685.33, 68325.08, 54537.16, 26824.69, 102312.78, 99612.85, 0.00, 0.00, 0.00
49, 80831.04, 113111.87, 11689.58, 68331.78, 54565.16, 26832.44, 102328.88, 99606.21, 0.00, 0.00, 0.00
50, 80824.04, 113087.64, 11689.45, 68330.06, 54561.25, 26833.00, 102321.70, 99597.73, 0.00, 0.00, 0.00
51, 80823.68, 113085.85, 11690.01, 68328.50, 54545.16, 26830.59, 102294.43, 99596.66, 0.00, 0.00, 0.00
52, 80825.16, 113094.64, 11685.65, 68317.10, 54531.13, 26823.37, 102300.82, 99595.88, 0.00, 0.00, 0.00
53, 80822.63, 113106.66, 11681.22, 68311.66, 54536.76, 26821.78, 102311.53, 99593.29, 0.00, 0.00, 0.00
54, 80836.20, 113101.34, 11695.04, 68330.24, 54578.13, 26843.01, 102311.15, 99604.42, 0.00, 0.00, 0.00
55, 80837.45, 113086.44, 11694.28, 68327.76, 54563.00, 26845.61, 102298.74, 99599.80, 0.07, -0.24, 0.97
56, 80844.23, 113094.08, 11694.72, 68327.73, 54547.55, 26842.05, 102309.77, 99608.29, 0.00, 0.00, 0.00
