%OpenBCI Raw EEG Data
%Sample Rate = 250.0 Hz
%First Column = SampleIndex
%Other Columns = EEG data in microvolts followed by Accel Data (in G) interleaved with Aux Data
237, 79462.93, 101859.49, -5747.53, 48326.73, 17552.44, 20489.42, 65569.06, 110707.13, 0.00, 0.00, 0.00
238, 79467.91, 101862.59, -5739.82, 48330.73, 17550.14, 20490.09, 65572.13, 110713.23, 0.00, 0.00, 0.00
239, 79464.34, 101854.80, -5739.15, 48327.62, 17543.41, 20485.02, 65573.58, 110712.73, 0.00, 0.00, 0.00
240, 79462.26, 101851.94, -5742.34, 48327.38, 17541.34, 20481.60, 65572.82, 110712.45, 0.00, 0.00, 0.00
241, 79464.00, 101860.16, -5743.24, 48325.99, 17544.62, 20481.78, 65571.79, 110714.84, 0.00, 0.00, 0.00
242, 79465.01, 101862.91, -5745.87, 48322.55, 17539.84, 20482.71, 65567.68, 110714.96, 0.00, 0.00, 0.00
243, 79466.55, 101862.17, -5749.23, 48318.34, 17538.94, 20484.66, 65572.38, 110715.41, 0.00, 0.00, 0.00
244, 79468.98, 101857.12, -5747.62, 48324.49, 17539.86, 20481.37, 65572.48, 110712.05, 0.07, -0.30, 0.96
245, 79470.91, 101854.62, -5754.64, 48321.65, 17528.55, 20473.35, 65563.59, 110708.95, 0.00, 0.00, 0.00
246, 79469.39, 101854.26, -5758.17, 48314.55, 17515.72, 20473.13, 65562.76, 110707.94, 0.00, 0.00, 0.00
247, 79470.04, 101856.29, -5761.90, 48313.99, 17526.70, 20483.21, 65566.91, 110710.45, 0.00, 0.00, 0.00
248, 79475.63, 101862.44, -5756.00, 48323.15, 17531.30, 20487.03, 65574.07, 110718.38, 0.00, 0.00, 0.00
249, 79477.55, 101860.90, -5748.24, 48323.82, 17528.21, 20481.66, 65572.62, 110720.16, 0.00, 0.00, 0.00
250, 79482.09, 101857.39, -5753.81, 48320.91, 17538.09, 20479.45, 65571.50, 110720.28, 0.00, 0.00, 0.00
251, 79473.59, 101856.88, -5756.74, 48317.09, 17519.77, 20478.11, 65569.47, 110715.20, 0.00, 0.00, 0.00
252, 79465.43, 101859.27, -5748.73, 48317.05, 17530.00, 20473.24, 65564.23, 110709.95, 0.00, 0.00, 0.00
253, 79466.95, 101858.46, -5750.05, 48319.64, 17550.01, 20482.87, 65567.34, 110710.16, 0.00, 0.00, 0.00
254, 79474.73, 101855.42, -5749.02, 48324.87, 17543.86, 20484.66, 65566.90, 110716.55, 0.07, -0.30, 0.95
255, 79475.18, 101852.83, -5750.63, 48320.74, 17551.26, 20487.52, 65566.38, 110715.88, 0.00, 0.00, 0.00
0, 79474.09, 101850.97, -5752.44, 48320.80, 17548.60, 20491.10, 65575.79, 110715.05, 0.00, 0.00, 0.00
1, 79473.81, 101853.72, -5747.13, 48327.62, 17543.06, 20496.64, 65583.88, 110715.25, 0.00, 0.00, 0.00
2, 79469.52, 101853.43, -5737.45, 48324.71, 17547.28, 20497.89, 65573.94, 110713.20, 0.00, 0.00, 0.00
3, 79464.98, 101847.48, -5741.29, 48328.34, 17551.55, 20494.11, 65573.11, 110712.79, 0.00, 0.00, 0.00
4, 79460.85, 101837.65, -5750.12, 48324.94, 17543.57, 20486.38, 65575.48, 110707.02, 0.00, 0.00, 0.00
5, 79462.20, 101832.94, -5748.18, 48330.21, 17552.33, 20492.99, 65581.05, 110703.94, 0.00, 0.00, 0.00
6, 79463.58, 101828.64, -5746.79, 48331.27, 17554.95, 20495.45, 65571.26, 110706.48, 0.00, 0.00, 0.00
7, 79462.77, 101822.85, -5753.36, 48323.60, 17545.09, 20489.71, 65564.68, 110704.43, 0.00, 0.00, 0.00
8, 79466.77, 101819.88, -5752.04, 48326.01, 17550.10, 20491.16, 65568.91, 110708.12, 0.08, -0.30, 0.96
9, 79471.71, 101815.32, -5752.04, 48328.31, 17552.76, 20494.04, 65576.64, 110710.71, 0.00, 0.00, 0.00
10, 79476.63, 101818.23, -5751.22, 48332.05, 17557.54, 20497.80, 65581.98, 110717.44, 0.00, 0.00, 0.00
11, 79474.84, 101823.13, -5751.30, 48338.75, 17556.47, 20499.81, 65579.99, 110719.36, 0.00, 0.00, 0.00
12, 79469.52, 101815.50, -5753.54, 48331.76, 17547.33, 20499.43, 65577.40, 110715.09, 0.00, 0.00, 0.00
13, 79468.85, 101804.13, -5754.37, 48325.07, 17543.06, 20493.51, 65574.30, 110714.73, 0.00, 0.00, 0.00
14, 79469.79, 101801.20, -5752.69, 48332.89, 17543.19, 20494.13, 65575.41, 110717.62, 0.00, 0.00, 0.00
15, 79469.57, 101803.66, -5749.20, 48330.13, 17538.03, 20495.37, 65575.55, 110718.34, 0.00, 0.00, 0.00
16, 79470.93, 101806.85, -5750.03, 48316.82, 17559.48, 20498.58, 65573.63, 110718.40, 0.00, 0.00, 0.00
17, 79476.68, 101808.57, -5750.75, 48329.07, 17574.68, 20505.31, 65576.10, 110722.52, 0.00, 0.00, 0.00
18, 79477.75, 101807.41, -5750.12, 48343.20, 17563.06, 20499.81, 65579.37, 110724.41, 0.08, -0.31, 0.95
19, 79477.97, 101804.93, -5753.79, 48336.00, 17569.16, 20497.58, 65587.75, 110724.01, 0.00, 0.00, 0.00
20, 79476.84, 101806.70, -5749.45, 48336.18, 17559.13, 20494.92, 65575.66, 110719.20, 0.00, 0.00, 0.00
21, 79473.16, 101815.05, -5740.31, 48339.58, 17569.65, 20501.09, 65573.76, 110715.96, 0.00, 0.00, 0.00
22, 79469.14, 101813.73, -5739.77, 48336.41, 17566.77, 20499.86, 65576.64, 110714.80, 0.00, 0.00, 0.00
23, 79469.63, 101806.83, -5744.00, 48331.71, 17560.31, 20495.52, 65573.40, 110716.08, 0.00, 0.00, 0.00
24, 79472.23, 101805.60, -5744.60, 48340.43, 17555.64, 20495.39, 65575.84, 110715.52, 0.00, 0.00, 0.00
25, 79470.71, 101811.88, -5747.80, 48341.17, 17542.23, 20492.28, 65575.05, 110715.92, 0.00, 0.00, 0.00
26, 79474.58, 101817.63, -5744.15, 48343.98, 17572.85, 20505.29, 65579.70, 110719.63, 0.00, 0.00, 0.00
27, 79475.72, 101820.38, -5742.12, 48349.41, 17582.02, 20511.57, 65583.88, 110720.05, 0.00, 0.00, 0.00
28, 79473.39, 101824.04, -5743.33, 48344.90, 17572.38, 20499.92, 65578.07, 110715.92, 0.08, -0.30, 0.95
29, 79469.14, 101822.36, -5744.24, 48343.20, 17571.40, 20493.73, 65581.98, 110716.05, 0.00, 0.00, 0.00
30, 79465.08, 101821.11, -5746.10, 48340.18, 17562.70, 20491.03, 65570.25, 110713.13, 0.00, 0.00, 0.00
31, 79464.47, 101819.37, -5746.43, 48335.82, 17555.53, 20490.76, 65567.52, 110706.42, 0.00, 0.00, 0.00
32, 79470.75, 101820.30, -5742.25, 48340.00, 17562.79, 20492.26, 65569.22, 110707.88, 0.00, 0.00, 0.00
33, 79471.89, 101816.35, -5746.28, 48344.77, 17564.20, 20487.59, 65568.51, 110707.20, 0.00, 0.00, 0.00
34, 79471.87, 101812.64, -5756.36, 48336.68, 17564.25, 20483.09, 65568.68, 110710.31, 0.00, 0.00, 0.00
35, 79480.09, 101811.30, -5766.35, 48326.39, 17554.99, 20479.99, 65566.02, 110718.98, 0.00, 0.00, 0.00
36, 79487.45, 101817.52, -5765.77, 48330.82, 17560.29, 20487.63, 65566.65, 110726.09, 0.00, 0.00, 0.00
37, 79477.52, 101829.25, -5743.68, 48349.75, 17578.89, 20503.88, 65570.61, 110715.65, 0.00, 0.00, 0.00
38, 79471.00, 101839.62, -5737.60, 48346.44, 17575.80, 20500.26, 65570.36, 110712.34, 0.08, -0.29, 0.96
39, 79476.45, 101825.70, -5748.85, 48339.58, 17565.65, 20489.49, 65576.91, 110719.97, 0.00, 0.00, 0.00
40, 79490.04, 101824.73, -5743.37, 48348.77, 17569.16, 20498.52, 65580.24, 110735.43, 0.00, 0.00, 0.00
41, 79496.19, 101830.23, -5748.89, 48339.85, 17556.40, 20497.94, 65574.12, 110739.95, 0.00, 0.00, 0.00
42, 79500.44, 101833.23, -5751.42, 48334.24, 17556.54, 20494.36, 65566.80, 110742.92, 0.00, 0.00, 0.00
43, 79506.34, 101845.90, -5740.93, 48352.27, 17576.94, 20494.52, 65565.64, 110745.58, 0.00, 0.00, 0.00
44, 79516.59, 101829.70, -5746.50, 48348.12, 17595.05, 20496.93, 65581.09, 110755.33, 0.00, 0.00, 0.00
45, 79523.08, 101832.31, -5749.29, 48344.14, 17584.92, 20496.37, 65576.38, 110764.94, 0.00, 0.00, 0.00
46, 79524.91, 101841.27, -5743.64, 48345.93, 17585.55, 20495.50, 65571.99, 110761.07, 0.00, 0.00, 0.00
47, 79519.59, 101848.73, -5741.25, 48346.00, 17573.12, 20490.58, 65569.82, 110755.48, 0.00, 0.00, 0.00
48, 79513.83, 101847.06, -5743.48, 48344.27, 17570.68, 20485.71, 65567.08, 110753.09, 0.08, -0.29, 0.96
49, 79512.10, 101845.97, -5742.74, 48347.80, 17572.92, 20485.69, 65568.02, 110752.09, 0.00, 0.00, 0.00
50, 79516.40, 101851.53, -5734.56, 48349.46, 17576.99, 20492.55, 65571.48, 110751.26, 0.00, 0.00, 0.00
51, 79515.10, 101855.16, -5735.77, 48348.01, 17581.05, 20500.33, 65572.35, 110747.28, 0.00, 0.00, 0.00
52, 79516.91, 101850.50, -5739.99, 48348.97, 17574.48, 20499.83, 65576.28, 110751.26, 0.00, 0.00, 0.00
53, 79523.10, 101849.70, -5739.61, 48352.88, 17582.06, 20502.09, 65582.14, 110756.82, 0.00, 0.00, 0.00
54, 79523.95, 101848.31, -5743.19, 48348.57, 17580.79, 20497.55, 65582.56, 110751.46, 0.00, 0.00, 0.00
55, 79523.62, 101850.81, -5742.25, 48352.90, 17581.23, 20498.65, 65583.99, 110749.49, 0.00, 0.00, 0.00
56, 79525.18, 101857.37, -5736.96, 48360.99, 17591.40, 20506.34, 65586.77, 110752.73, 0.00, 0.00, 0.00
57, 79521.55, 101856.47, -5743.75, 48358.09, 17586.58, 20506.47, 65583.01, 110750.38, 0.00, 0.00, 0.00
58, 79521.60, 101851.60, -5750.57, 48353.30, 17581.10, 20500.88, 65584.04, 110747.95, 0.08, -0.30, 0.96
59, 79514.18, 101848.98, -5748.35, 48343.85, 17573.48, 20492.03, 65590.21, 110742.01, 0.00, 0.00, 0.00
60, 79514.07, 101851.60, -5744.93, 48343.22, 17568.72, 20493.84, 65584.55, 110739.21, 0.00, 0.00, 0.00
61, 79521.73, 101856.80, -5748.00, 48348.05, 17585.48, 20503.66, 65587.03, 110742.01, 0.00, 0.00, 0.00
62, 79523.70, 101859.38, -5745.87, 48350.24, 17580.52, 20504.91, 65592.71, 110743.86, 0.00, 0.00, 0.00
63, 79516.98, 101856.74, -5745.54, 48347.63, 17551.88, 20490.80, 65593.23, 110741.73, 0.00, 0.00, 0.00
64, 79514.09, 101851.48, -5750.57, 48342.33, 17572.34, 20486.13, 65593.72, 110741.45, 0.00, 0.00, 0.00
65, 79513.73, 101857.99, -5751.30, 48344.09, 17594.11, 20488.41, 65588.20, 110739.57, 0.00, 0.00, 0.00
66, 79514.92, 101861.95, -5752.98, 48349.30, 17604.01, 20493.15, 65587.41, 110738.61, 0.00, 0.00, 0.00
67, 79516.87, 101866.87, -5755.28, 48353.15, 17595.38, 20493.20, 65595.64, 110745.07, 0.00, 0.00, 0.00
68, 79514.49, 101864.23, -5760.42, 48347.71, 17585.30, 20485.22, 65601.27, 110744.33, 0.08, -0.30, 0.96
69, 79514.12, 101862.38, -5759.73, 48342.20, 17580.96, 20480.23, 65603.40, 110738.61, 0.00, 0.00, 0.00
70, 79517.89, 101863.24, -5752.24, 48339.63, 17576.83, 20478.69, 65607.28, 110737.45, 0.00, 0.00, 0.00
71, 79519.66, 101870.04, -5749.09, 48336.83, 17572.40, 20476.72, 65609.99, 110737.55, 0.00, 0.00, 0.00
72, 79512.51, 101873.57, -5749.92, 48336.63, 17563.29, 20471.52, 65615.31, 110730.13, 0.00, 0.00, 0.00
73, 79510.70, 101871.23, -5748.00, 48340.81, 17563.31, 20464.92, 65610.37, 110723.68, 0.00, 0.00, 0.00
74, 79510.13, 101867.16, -5752.20, 48341.52, 17565.61, 20463.49, 65606.66, 110721.55, 0.00, 0.00, 0.00
75, 79512.28, 101868.27, -5754.17, 48341.64, 17565.34, 20463.60, 65609.32, 110724.03, 0.00, 0.00, 0.00
76, 79515.16, 101872.16, -5756.33, 48343.54, 17571.91, 20472.95, 65615.71, 110725.84, 0.00, 0.00, 0.00
77, 79515.73, 101871.78, -5757.36, 48342.39, 17573.23, 20473.53, 65614.39, 110728.70, 0.00, 0.00, 0.00
78, 79514.49, 101871.72, -5757.88, 48338.30, 17566.82, 20466.73, 65617.59, 110731.27, 0.08, -0.30, 0.95
79, 79510.13, 101870.51, -5759.13, 48338.84, 17567.62, 20465.30, 65627.13, 110729.27, 0.00, 0.00, 0.00
80, 79514.61, 101874.30, -5755.75, 48340.14, 17560.13, 20467.63, 65625.30, 110729.40, 0.00, 0.00, 0.00
81, 79514.59, 101875.85, -5755.75, 48340.77, 17566.64, 20470.11, 65621.95, 110727.92, 0.00, 0.00, 0.00
82, 79512.39, 101876.32, -5759.06, 48340.83, 17577.21, 20475.25, 65626.69, 110728.13, 0.00, 0.00, 0.00
83, 79516.57, 101873.44, -5756.11, 48341.64, 17563.40, 20467.22, 65629.73, 110731.56, 0.00, 0.00, 0.00
84, 79517.09, 101867.47, -5760.11, 48339.13, 17568.11, 20463.56, 65630.11, 110728.21, 0.00, 0.00, 0.00
85, 79515.23, 101869.86, -5759.06, 48342.15, 17587.87, 20475.96, 65633.52, 110725.04, 0.00, 0.00, 0.00
86, 79513.49, 101874.42, -5755.24, 48341.10, 17577.43, 20481.19, 65636.70, 110722.96, 0.00, 0.00, 0.00
87, 79517.58, 101874.40, -5757.92, 48347.45, 17582.33, 20484.12, 65641.08, 110729.02, 0.00, 0.00, 0.00
88, 79524.17, 101876.05, -5753.92, 48354.38, 17593.48, 20484.68, 65648.62, 110733.27, 0.09, -0.30, 0.95
89, 79524.45, 101880.50, -5751.35, 48351.76, 17587.11, 20474.46, 65656.33, 110730.80, 0.00, 0.00, 0.00
90, 79522.05, 101878.69, -5749.23, 48346.53, 17586.46, 20480.59, 65654.02, 110728.59, 0.00, 0.00, 0.00
91, 79524.17, 101880.55, -5750.25, 48350.09, 17588.19, 20486.11, 65652.26, 110730.31, 0.00, 0.00, 0.00
92, 79522.14, 101882.40, -5749.05, 48351.02, 17603.81, 20487.27, 65657.89, 110730.20, 0.00, 0.00, 0.00
93, 79520.91, 101879.43, -5750.68, 48349.57, 17612.30, 20487.36, 65657.46, 110729.11, 0.00, 0.00, 0.00
94, 79525.96, 101877.82, -5752.04, 48352.63, 17607.59, 20489.49, 65660.10, 110731.73, 0.00, 0.00, 0.00
95, 79525.73, 101877.86, -5748.82, 48349.64, 17599.63, 20490.71, 65665.58, 110731.23, 0.00, 0.00, 0.00
96, 79531.46, 101880.48, -5744.60, 48346.82, 17602.80, 20496.64, 65669.45, 110737.60, 0.00, 0.00, 0.00
97, 79534.73, 101885.64, -5747.95, 48341.82, 17592.37, 20495.41, 65669.04, 110739.10, 0.00, 0.00, 0.00
98, 79532.69, 101881.46, -5756.27, 48330.97, 17581.17, 20480.77, 65665.73, 110735.52, 0.08, -0.30, 0.95
99, 79528.29, 101873.95, -5760.71, 48327.51, 17574.93, 20471.83, 65659.88, 110730.27, 0.00, 0.00, 0.00
100, 79524.11, 101874.35, -5761.39, 48333.84, 17573.79, 20472.61, 65654.58, 110726.20, 0.00, 0.00, 0.00
101, 79527.86, 101879.67, -5758.08, 48343.18, 17594.78, 20482.78, 65655.14, 110729.11, 0.00, 0.00, 0.00
102, 79531.10, 101882.71, -5756.02, 48345.23, 17602.00, 20489.93, 65665.80, 110730.27, 0.00, 0.00, 0.00
103, 79528.48, 101879.56, -5757.52, 48343.31, 17596.48, 20485.44, 65670.56, 110726.65, 0.00, 0.00, 0.00
104, 79532.84, 101878.53, -5751.13, 48340.52, 17592.68, 20481.89, 65662.18, 110731.27, 0.00, 0.00, 0.00
105, 79533.67, 101882.66, -5748.78, 48338.35, 17587.83, 20484.23, 65663.03, 110730.80, 0.00, 0.00, 0.00
106, 79533.34, 101885.08, -5754.37, 48337.37, 17579.40, 20485.11, 65662.20, 110726.65, 0.00, 0.00, 0.00
107, 79537.18, 101887.96, -5752.13, 48343.09, 17579.65, 20486.63, 65662.09, 110728.28, 0.00, 0.00, 0.00
108, 79539.69, 101891.59, -5746.54, 48349.95, 17591.94, 20486.22, 65664.55, 110732.80, 0.08, -0.30, 0.95
109, 79537.41, 101888.61, -5749.18, 48346.29, 17606.85, 20485.37, 65663.14, 110731.30, 0.00, 0.00, 0.00
110, 79533.83, 101886.00, -5752.76, 48340.29, 17603.94, 20483.92, 65661.42, 110729.73, 0.00, 0.00, 0.00
111, 79536.76, 101892.32, -5744.31, 48347.80, 17608.26, 20489.35, 65663.21, 110730.74, 0.00, 0.00, 0.00
112, 79540.29, 101893.87, -5748.00, 48349.82, 17597.21, 20486.58, 65662.41, 110730.83, 0.00, 0.00, 0.00
113, 79550.23, 101886.38, -5756.02, 48339.69, 17579.45, 20475.38, 65663.50, 110742.43, 0.00, 0.00, 0.00
114, 79537.65, 101889.82, -5753.92, 48342.26, 17597.24, 20482.76, 65669.02, 110730.49, 0.00, 0.00, 0.00
115, 79509.69, 101892.84, -5748.58, 48352.66, 17606.00, 20493.51, 65672.82, 110706.55, 0.00, 0.00, 0.00
116, 79502.90, 101893.69, -5743.82, 48353.35, 17600.17, 20491.99, 65669.00, 110699.13, 0.00, 0.00, 0.00
117, 79495.43, 101890.83, -5746.92, 48354.73, 17598.47, 20490.09, 65666.20, 110694.80, 0.00, 0.00, 0.00
118, 79493.55, 101887.27, -5752.33, 48353.10, 17618.70, 20493.89, 65676.60, 110693.14, 0.08, -0.30, 0.96
119, 79478.76, 101882.35, -5752.49, 48348.97, 17610.80, 20484.17, 65665.31, 110682.93, 0.00, 0.00, 0.00
120, 79467.58, 101884.73, -5746.79, 48345.59, 17604.93, 20482.87, 65658.78, 110671.40, 0.00, 0.00, 0.00
121, 79462.98, 101888.28, -5752.47, 48348.32, 17609.73, 20491.50, 65662.54, 110666.41, 0.00, 0.00, 0.00
122, 79463.94, 101887.77, -5753.83, 48347.02, 17610.11, 20490.92, 65664.86, 110670.13, 0.00, 0.00, 0.00
123, 79469.57, 101889.62, -5746.03, 48350.75, 17612.15, 20492.84, 65671.95, 110677.81, 0.00, 0.00, 0.00
124, 79472.23, 101890.89, -5749.87, 48350.38, 17607.65, 20488.66, 65672.51, 110678.37, 0.00, 0.00, 0.00
125, 79478.60, 101891.61, -5751.89, 48349.95, 17604.32, 20490.42, 65671.63, 110682.41, 0.00, 0.00, 0.00
126, 79479.58, 101889.73, -5750.03, 48349.19, 17609.02, 20494.49, 65667.95, 110683.06, 0.00, 0.00, 0.00
127, 79481.91, 101891.18, -5748.69, 48349.13, 17613.35, 20495.79, 65666.77, 110686.35, 0.00, 0.00, 0.00
128, 79479.78, 101888.32, -5749.54, 48348.92, 17611.14, 20491.18, 65665.47, 110686.75, 0.08, -0.30, 0.96
129, 79479.05, 101886.83, -5749.58, 48348.21, 17608.90, 20488.68, 65666.20, 110687.47, 0.00, 0.00, 0.00
130, 79480.32, 101885.71, -5757.52, 48339.63, 17598.89, 20485.26, 65661.06, 110685.86, 0.00, 0.00, 0.00
131, 79480.74, 101891.41, -5758.19, 48339.18, 17599.49, 20490.16, 65658.88, 110683.45, 0.00, 0.00, 0.00
132, 79475.78, 101894.31, -5752.20, 48337.12, 17601.73, 20490.02, 65657.94, 110683.22, 0.00, 0.00, 0.00
133, 79476.79, 101891.07, -5754.30, 48334.86, 17601.13, 20485.46, 65655.48, 110687.82, 0.00, 0.00, 0.00
134, 79483.20, 101891.25, -5758.23, 48338.37, 17605.37, 20486.18, 65665.91, 110690.44, 0.00, 0.00, 0.00
135, 79486.24, 101895.66, -5755.44, 48349.44, 17617.71, 20491.25, 65670.90, 110692.18, 0.00, 0.00, 0.00
136, 79486.49, 101899.21, -5751.48, 48341.57, 17603.14, 20489.62, 65656.86, 110691.00, 0.00, 0.00, 0.00
137, 79491.74, 101901.06, -5744.42, 48340.65, 17604.01, 20489.69, 65655.85, 110693.88, 0.00, 0.00, 0.00
138, 79492.66, 101895.85, -5757.23, 48331.04, 17605.37, 20482.69, 65653.62, 110692.59, 0.08, -0.29, 0.95
139, 79492.66, 101894.88, -5754.70, 48329.66, 17605.82, 20479.52, 65652.19, 110692.67, 0.00, 0.00, 0.00
140, 79488.01, 101899.90, -5750.97, 48328.52, 17610.18, 20483.61, 65653.73, 110692.88, 0.00, 0.00, 0.00
141, 79482.09, 101902.36, -5755.95, 48320.27, 17598.04, 20478.91, 65648.48, 110689.21, 0.00, 0.00, 0.00
142, 79482.76, 101902.34, -5752.11, 48317.00, 17602.45, 20482.27, 65644.68, 110688.85, 0.00, 0.00, 0.00
143, 79484.12, 101895.45, -5754.77, 48320.43, 17602.60, 20482.74, 65649.44, 110690.59, 0.00, 0.00, 0.00
144, 79484.39, 101891.63, -5754.46, 48322.95, 17598.06, 20480.77, 65654.76, 110691.11, 0.00, 0.00, 0.00
145, 79483.45, 101892.16, -5760.40, 48318.12, 17592.16, 20478.13, 65649.44, 110687.51, 0.00, 0.00, 0.00
146, 79483.43, 101893.35, -5764.18, 48315.21, 17588.32, 20475.87, 65644.59, 110685.12, 0.00, 0.00, 0.00
147, 79488.97, 101895.30, -5761.63, 48316.94, 17608.14, 20483.99, 65647.54, 110689.12, 0.00, 0.00, 0.00
148, 79487.49, 101897.09, -5759.71, 48318.61, 17609.04, 20482.38, 65648.44, 110688.70, 0.08, -0.30, 0.96
149, 79483.00, 101897.13, -5758.73, 48319.42, 17600.84, 20478.33, 65651.03, 110688.20, 0.00, 0.00, 0.00
150, 79484.68, 101900.10, -5758.75, 48321.81, 17607.83, 20485.62, 65654.63, 110692.23, 0.00, 0.00, 0.00
151, 79488.08, 101906.23, -5756.89, 48327.49, 17622.70, 20498.22, 65657.76, 110692.43, 0.00, 0.00, 0.00
152, 79487.05, 101908.08, -5757.79, 48328.38, 17623.88, 20499.43, 65656.91, 110692.23, 0.00, 0.00, 0.00
153, 79490.00, 101903.90, -5758.86, 48327.38, 17619.99, 20494.80, 65657.94, 110694.46, 0.00, 0.00, 0.00
154, 79493.93, 101900.57, -5759.31, 48326.88, 17618.34, 20493.17, 65660.68, 110696.18, 0.00, 0.00, 0.00
155, 79492.81, 101899.14, -5759.80, 48333.84, 17615.05, 20496.35, 65661.89, 110695.13, 0.00, 0.00, 0.00
156, 79493.71, 101908.08, -5760.02, 48333.54, 17613.40, 20501.58, 65661.00, 110698.17, 0.00, 0.00, 0.00
157, 79489.98, 101910.49, -5757.94, 48329.03, 17590.98, 20490.49, 65654.88, 110695.09, 0.00, 0.00, 0.00
158, 79488.10, 101907.73, -5759.13, 48329.21, 17605.98, 20489.82, 65654.80, 110690.84, 0.08, -0.30, 0.96
159, 79484.92, 101903.12, -5761.65, 48328.65, 17614.69, 20487.54, 65653.48, 110686.70, 0.00, 0.00, 0.00
160, 79486.24, 101903.74, -5759.06, 48332.79, 17618.29, 20492.99, 65654.13, 110688.20, 0.00, 0.00, 0.00
161, 79488.14, 101906.31, -5760.76, 48334.39, 17618.72, 20498.31, 65656.41, 110692.79, 0.00, 0.00, 0.00
162, 79487.45, 101908.73, -5751.08, 48336.27, 17626.00, 20488.68, 65652.63, 110691.00, 0.00, 0.00, 0.00
163, 79490.80, 101908.77, -5750.97, 48335.49, 17624.55, 20503.84, 65655.01, 110690.71, 0.00, 0.00, 0.00
164, 79488.59, 101906.25, -5756.09, 48331.18, 17611.50, 20491.16, 65652.81, 110688.63, 0.00, 0.00, 0.00
165, 79486.47, 101905.40, -5757.68, 48323.48, 17605.06, 20485.35, 65649.51, 110687.09, 0.00, 0.00, 0.00
166, 79489.93, 101910.18, -5755.73, 48332.76, 17610.40, 20493.64, 65651.52, 110691.18, 0.00, 0.00, 0.00
167, 79491.14, 101910.56, -5757.90, 48332.83, 17617.78, 20495.16, 65651.19, 110689.26, 0.00, 0.00, 0.00
168, 79492.23, 101907.05, -5758.75, 48328.45, 17607.23, 20486.11, 65649.69, 110688.43, 0.08, -0.29, 0.96
169, 79488.34, 101903.86, -5763.11, 48327.00, 17603.54, 20482.78, 65649.55, 110686.75, 0.00, 0.00, 0.00
170, 79486.55, 101903.90, -5762.30, 48322.08, 17608.01, 20482.20, 65647.09, 110683.55, 0.00, 0.00, 0.00
171, 79485.05, 101913.20, -5756.29, 48329.97, 17610.36, 20487.25, 65646.24, 110682.03, 0.00, 0.00, 0.00
172, 79491.83, 101914.98, -5760.87, 48332.65, 17612.71, 20491.03, 65645.64, 110685.43, 0.00, 0.00, 0.00
173, 79490.47, 101910.49, -5764.38, 48328.67, 17612.01, 20484.81, 65640.95, 110681.79, 0.00, 0.00, 0.00
174, 79483.54, 101904.77, -5765.30, 48332.98, 17611.50, 20481.53, 65640.05, 110681.77, 0.00, 0.00, 0.00
175, 79482.89, 101905.82, -5761.14, 48332.14, 17607.07, 20480.54, 65636.77, 110683.91, 0.00, 0.00, 0.00
176, 79481.88, 101907.43, -5762.21, 48332.38, 17608.19, 20487.52, 65635.54, 110682.05, 0.00, 0.00, 0.00
177, 79480.99, 101911.23, -5761.34, 48335.94, 17607.72, 20487.14, 65648.39, 110683.71, 0.00, 0.00, 0.00
178, 79479.65, 101912.59, -5761.23, 48341.66, 17606.96, 20480.68, 65643.27, 110681.03, 0.08, -0.30, 0.96
179, 79478.69, 101909.40, -5766.01, 48339.91, 17604.41, 20478.42, 65634.51, 110675.95, 0.00, 0.00, 0.00
180, 79482.45, 101912.46, -5765.23, 48340.72, 17610.71, 20483.90, 65638.55, 110679.66, 0.00, 0.00, 0.00
181, 79488.81, 101920.46, -5755.28, 48344.09, 17613.76, 20486.78, 65640.30, 110684.76, 0.00, 0.00, 0.00
182, 79490.22, 101920.45, -5756.45, 48343.34, 17612.26, 20484.30, 65637.86, 110682.75, 0.00, 0.00, 0.00
183, 79483.27, 101914.88, -5764.27, 48343.40, 17610.98, 20472.32, 65629.80, 110675.28, 0.00, 0.00, 0.00
184, 79480.37, 101910.83, -5759.60, 48335.29, 17608.55, 20468.03, 65627.67, 110671.55, 0.00, 0.00, 0.00
185, 79478.71, 101914.30, -5751.48, 48336.74, 17608.35, 20469.46, 65626.69, 110667.30, 0.00, 0.00, 0.00
186, 79482.76, 101922.48, -5749.70, 48349.21, 17612.84, 20484.21, 65631.09, 110670.28, 0.00, 0.00, 0.00
187, 79481.98, 101921.05, -5751.86, 48343.54, 17602.87, 20478.31, 65629.32, 110670.16, 0.00, 0.00, 0.00
188, 79479.18, 101917.13, -5748.20, 48337.66, 17619.79, 20479.20, 65631.27, 110669.67, 0.08, -0.30, 0.96
189, 79484.27, 101914.34, -5754.84, 48343.94, 17607.01, 20472.81, 65633.37, 110671.77, 0.00, 0.00, 0.00
190, 79494.34, 101912.82, -5756.27, 48347.54, 17608.10, 20472.07, 65632.41, 110680.94, 0.00, 0.00, 0.00
191, 79497.58, 101915.86, -5752.65, 48339.42, 17620.48, 20478.60, 65630.40, 110693.95, 0.00, 0.00, 0.00
192, 79491.38, 101920.77, -5754.37, 48336.27, 17607.45, 20475.87, 65630.17, 110694.69, 0.00, 0.00, 0.00
193, 79479.56, 101922.66, -5750.37, 48342.71, 17615.70, 20482.71, 65630.22, 110673.43, 0.00, 0.00, 0.00
194, 79484.03, 101920.84, -5750.63, 48341.43, 17613.87, 20480.30, 65631.05, 110672.85, 0.00, 0.00, 0.00
195, 79496.39, 101922.56, -5750.86, 48343.98, 17627.21, 20485.78, 65631.96, 110685.59, 0.00, 0.00, 0.00
196, 79507.05, 101928.38, -5747.33, 48349.46, 17614.52, 20491.52, 65633.75, 110694.98, 0.00, 0.00, 0.00
197, 79510.70, 101929.27, -5747.21, 48351.14, 17607.74, 20489.04, 65631.27, 110698.82, 0.00, 0.00, 0.00
198, 79516.24, 101928.17, -5748.96, 48354.22, 17627.30, 20487.79, 65632.50, 110701.77, 0.08, -0.30, 0.96
199, 79519.75, 101926.05, -5755.93, 48352.21, 17644.89, 20490.38, 65633.17, 110706.87, 0.00, 0.00, 0.00
200, 79518.14, 101926.25, -5761.05, 48349.17, 17637.16, 20481.84, 65626.71, 110703.29, 0.00, 0.00, 0.00
201, 79519.97, 101928.73, -5762.70, 48342.82, 17626.85, 20479.96, 65624.81, 110703.85, 0.00, 0.00, 0.00
202, 79514.67, 101929.65, -5750.68, 48336.38, 17607.23, 20476.90, 65622.77, 110705.98, 0.00, 0.00, 0.00
203, 79512.55, 101925.76, -5746.14, 48335.96, 17595.81, 20467.11, 65618.20, 110704.34, 0.00, 0.00, 0.00
204, 79516.98, 101925.18, -5755.04, 48339.89, 17623.25, 20469.17, 65623.34, 110706.13, 0.00, 0.00, 0.00
205, 79526.72, 101933.98, -5755.37, 48345.68, 17639.06, 20481.35, 65632.92, 110715.59, 0.00, 0.00, 0.00
206, 79534.39, 101936.27, -5758.75, 48346.48, 17632.02, 20490.65, 65634.42, 110720.01, 0.00, 0.00, 0.00
207, 79536.04, 101934.39, -5756.71, 48347.34, 17627.72, 20491.92, 65627.36, 110720.34, 0.00, 0.00, 0.00
208, 79530.55, 101930.73, -5744.87, 48345.05, 17646.21, 20486.18, 65633.39, 110714.58, 0.09, -0.31, 0.96
209, 79527.52, 101928.98, -5747.24, 48338.37, 17626.61, 20476.01, 65632.23, 110710.73, 0.00, 0.00, 0.00
210, 79527.10, 101930.68, -5754.21, 48343.85, 17609.58, 20472.95, 65620.54, 110708.88, 0.00, 0.00, 0.00
211, 79529.11, 101934.10, -5755.57, 48345.28, 17630.52, 20477.84, 65626.59, 110711.61, 0.00, 0.00, 0.00
212, 79525.45, 101933.96, -5759.49, 48341.97, 17636.31, 20480.05, 65621.95, 110708.30, 0.00, 0.00, 0.00
213, 79523.46, 101929.78, -5763.89, 48341.32, 17627.84, 20475.74, 65619.45, 110707.41, 0.00, 0.00, 0.00
214, 79524.89, 101931.22, -5763.02, 48343.34, 17628.31, 20470.89, 65619.94, 110710.09, 0.00, 0.00, 0.00
215, 79528.04, 101938.14, -5761.25, 48342.95, 17624.86, 20474.44, 65624.85, 110716.39, 0.00, 0.00, 0.00
216, 79530.59, 101942.80, -5762.93, 48345.75, 17615.61, 20476.99, 65626.64, 110718.31, 0.00, 0.00, 0.00
217, 79530.61, 101942.84, -5760.63, 48343.31, 17616.37, 20475.67, 65623.96, 110716.30, 0.00, 0.00, 0.00
218, 79526.07, 101935.93, -5760.58, 48327.29, 17615.21, 20468.59, 65619.53, 110709.41, 0.08, -0.31, 0.95
219, 79523.57, 101933.96, -5761.79, 48321.41, 17613.53, 20466.69, 65622.77, 110709.66, 0.00, 0.00, 0.00
220, 79525.76, 101937.38, -5765.32, 48325.95, 17618.94, 20467.02, 65626.10, 110715.18, 0.00, 0.00, 0.00
221, 79527.19, 101942.70, -5763.04, 48346.89, 17610.36, 20467.07, 65626.28, 110716.30, 0.00, 0.00, 0.00
222, 79529.67, 101945.84, -5765.16, 48351.87, 17627.68, 20477.48, 65630.62, 110717.33, 0.00, 0.00, 0.00
223, 79528.63, 101944.25, -5762.59, 48345.23, 17622.94, 20468.90, 65624.97, 110716.10, 0.00, 0.00, 0.00
224, 79524.91, 101944.00, -5756.07, 48339.58, 17618.22, 20455.38, 65619.73, 110712.45, 0.00, 0.00, 0.00
225, 79521.78, 101944.16, -5762.12, 48339.49, 17626.07, 20456.00, 65618.30, 110712.03, 0.00, 0.00, 0.00
226, 79526.88, 101948.31, -5758.90, 48355.45, 17650.12, 20470.08, 65626.48, 110719.34, 0.00, 0.00, 0.00
227, 79525.96, 101947.95, -5752.04, 48359.20, 17649.65, 20477.77, 65629.70, 110718.67, 0.00, 0.00, 0.00
228, 79525.31, 101948.16, -5752.82, 48353.86, 17642.25, 20471.38, 65625.30, 110717.38, 0.08, -0.30, 0.95
229, 79520.20, 101947.94, -5758.64, 48346.91, 17623.30, 20461.43, 65620.72, 110716.23, 0.00, 0.00, 0.00
230, 79520.59, 101951.09, -5758.86, 48347.63, 17624.35, 20459.54, 65629.50, 110717.48, 0.00, 0.00, 0.00
231, 79521.94, 101953.03, -5760.31, 48344.83, 17627.30, 20462.28, 65628.99, 110718.87, 0.00, 0.00, 0.00
232, 79522.34, 101952.00, -5761.77, 48346.75, 17638.16, 20469.77, 65624.59, 110716.44, 0.00, 0.00, 0.00
233, 79523.77, 101950.20, -5761.32, 48348.23, 17639.28, 20471.76, 65621.05, 110713.22, 0.00, 0.00, 0.00
234, 79524.73, 101950.10, -5761.23, 48345.44, 17627.95, 20465.64, 65618.48, 110712.91, 0.00, 0.00, 0.00
235, 79520.95, 101951.51, -5754.48, 48343.65, 17612.82, 20458.82, 65617.81, 110708.95, 0.00, 0.00, 0.00
236, 79520.11, 101954.87, -5753.56, 48349.88, 17629.02, 20463.69, 65622.46, 110709.37, 0.00, 0.00, 0.00
237, 79522.03, 101956.56, -5755.33, 48352.77, 17645.56, 20467.74, 65620.09, 110709.88, 0.00, 0.00, 0.00
238, 79522.95, 101955.22, -5754.68, 48356.86, 17642.66, 20466.96, 65619.76, 110708.43, 0.09, -0.30, 0.95
239, 79523.70, 101951.91, -5755.24, 48355.07, 17635.73, 20465.10, 65617.59, 110705.34, 0.00, 0.00, 0.00
240, 79522.27, 101952.18, -5752.49, 48355.27, 17625.36, 20463.09, 65614.23, 110701.23, 0.00, 0.00, 0.00
241, 79525.13, 101959.96, -5749.61, 48362.42, 17649.85, 20473.55, 65622.62, 110702.62, 0.00, 0.00, 0.00
242, 79524.77, 101962.28, -5748.69, 48366.34, 17657.74, 20483.36, 65629.88, 110705.08, 0.00, 0.00, 0.00
243, 79521.45, 101959.63, -5752.20, 48364.01, 17647.39, 20476.39, 65629.37, 110704.92, 0.00, 0.00, 0.00
244, 79514.61, 101955.11, -5751.24, 48356.63, 17636.44, 20467.69, 65621.50, 110698.80, 0.00, 0.00, 0.00
245, 79520.75, 101957.91, -5750.79, 48362.67, 17657.88, 20475.67, 65625.01, 110702.77, 0.00, 0.00, 0.00
246, 79526.70, 101962.28, -5754.48, 48362.38, 17648.45, 20462.35, 65622.17, 110702.91, 0.00, 0.00, 0.00
247, 79525.60, 101962.28, -5753.27, 48363.16, 17645.54, 20477.35, 65623.36, 110702.58, 0.00, 0.00, 0.00
248, 79526.03, 101963.02, -5746.34, 48365.20, 17651.84, 20472.97, 65620.09, 110699.88, 0.09, -0.30, 0.96
249, 79525.18, 101962.42, -5746.77, 48360.72, 17643.62, 20465.59, 65617.43, 110700.54, 0.00, 0.00, 0.00
250, 79525.85, 101962.20, -5753.38, 48357.02, 17635.53, 20461.46, 65615.98, 110701.99, 0.00, 0.00, 0.00
251, 79523.30, 101964.97, -5755.15, 48359.32, 17637.07, 20465.17, 65616.90, 110700.34, 0.00, 0.00, 0.00
252, 79526.01, 101966.38, -5755.06, 48359.88, 17647.08, 20470.15, 65618.13, 110700.56, 0.00, 0.00, 0.00
253, 79524.64, 101967.73, -5751.17, 48362.33, 17643.77, 20468.52, 65618.66, 110701.13, 0.00, 0.00, 0.00
254, 79522.16, 101965.55, -5754.95, 48359.96, 17637.83, 20466.69, 65619.34, 110697.08, 0.00, 0.00, 0.00
255, 79518.90, 101961.19, -5758.46, 48352.07, 17637.00, 20465.66, 65619.69, 110693.81, 0.00, 0.00, 0.00
0, 79519.08, 101961.50, -5756.54, 48356.72, 17632.55, 20461.66, 65617.55, 110694.09, 0.00, 0.00, 0.00
1, 79524.62, 101965.37, -5754.79, 48364.03, 17630.38, 20463.16, 65620.63, 110699.47, 0.00, 0.00, 0.00
2, 79522.95, 101960.43, -5757.76, 48363.83, 17639.37, 20462.39, 65620.00, 110697.91, 0.08, -0.30, 0.96
3, 79522.68, 101958.62, -5761.74, 48363.70, 17629.16, 20457.54, 65616.85, 110697.66, 0.00, 0.00, 0.00
4, 79513.18, 101962.46, -5762.41, 48357.30, 17634.05, 20452.67, 65613.07, 110692.16, 0.00, 0.00, 0.00
5, 79510.02, 101967.94, -5751.71, 48357.95, 17654.14, 20461.14, 65617.73, 110690.02, 0.00, 0.00, 0.00
6, 79515.05, 101973.26, -5748.22, 48361.82, 17651.31, 20459.91, 65611.06, 110692.96, 0.00, 0.00, 0.00
7, 79525.91, 101969.48, -5753.12, 48365.22, 17653.68, 20464.16, 65615.91, 110697.08, 0.00, 0.00, 0.00
8, 79528.60, 101966.45, -5750.75, 48363.50, 17655.89, 20464.77, 65620.31, 110701.34, 0.00, 0.00, 0.00
9, 79526.63, 101968.81, -5754.10, 48355.89, 17640.02, 20457.61, 65616.36, 110701.86, 0.00, 0.00, 0.00
10, 79521.07, 101971.20, -5759.75, 48357.46, 17627.57, 20454.13, 65615.80, 110699.00, 0.00, 0.00, 0.00
11, 79509.80, 101971.25, -5758.37, 48359.41, 17625.20, 20458.24, 65618.28, 110695.89, 0.08, -0.30, 0.95
12, 79508.48, 101967.83, -5759.31, 48358.13, 17630.05, 20455.96, 65618.55, 110694.51, 0.00, 0.00, 0.00
13, 79515.01, 101967.67, -5759.89, 48363.50, 17652.65, 20457.57, 65622.55, 110695.70, 0.00, 0.00, 0.00
14, 79516.44, 101971.49, -5758.10, 48373.06, 17662.33, 20460.76, 65622.24, 110696.30, 0.00, 0.00, 0.00
15, 79527.44, 101975.12, -5758.06, 48369.35, 17647.21, 20461.28, 65622.30, 110700.72, 0.00, 0.00, 0.00
16, 79530.14, 101974.45, -5757.05, 48360.64, 17642.75, 20454.44, 65616.63, 110697.55, 0.00, 0.00, 0.00
17, 79518.38, 101968.74, -5757.34, 48362.20, 17643.82, 20438.21, 65609.30, 110691.87, 0.00, 0.00, 0.00
18, 79515.41, 101966.15, -5756.42, 48364.23, 17634.95, 20447.76, 65614.64, 110691.24, 0.00, 0.00, 0.00
19, 79517.16, 101968.97, -5757.79, 48362.38, 17647.69, 20454.73, 65618.66, 110695.42, 0.00, 0.00, 0.00
20, 79519.68, 101974.11, -5759.19, 48359.90, 17654.26, 20460.41, 65620.09, 110694.87, 0.00, 0.00, 0.00
21, 79522.05, 101974.71, -5760.40, 48362.63, 17646.68, 20457.28, 65618.98, 110694.95, 0.07, -0.30, 0.96
22, 79520.24, 101966.84, -5761.05, 48362.63, 17639.28, 20450.10, 65619.38, 110696.66, 0.00, 0.00, 0.00
23, 79514.83, 101963.00, -5764.22, 48361.60, 17628.22, 20446.23, 65619.94, 110692.36, 0.00, 0.00, 0.00
24, 79522.81, 101966.15, -5761.47, 48369.29, 17662.33, 20460.88, 65624.83, 110693.41, 0.00, 0.00, 0.00
25, 79528.98, 101971.41, -5758.93, 48370.63, 17654.28, 20463.94, 65626.48, 110695.45, 0.00, 0.00, 0.00
26, 79520.27, 101972.48, -5760.07, 48365.91, 17651.46, 20461.57, 65625.66, 110691.45, 0.00, 0.00, 0.00
27, 79513.52, 101964.03, -5762.03, 48363.47, 17640.78, 20456.16, 65622.95, 110690.15, 0.00, 0.00, 0.00
28, 79510.88, 101960.14, -5763.44, 48362.13, 17630.03, 20446.79, 65618.75, 110686.26, 0.00, 0.00, 0.00
29, 79515.16, 101966.33, -5765.45, 48359.18, 17643.86, 20449.77, 65619.38, 110688.88, 0.00, 0.00, 0.00
30, 79513.22, 101970.71, -5764.49, 48368.08, 17648.00, 20451.96, 65620.14, 110691.11, 0.00, 0.00, 0.00
31, 79516.40, 101972.43, -5758.66, 48377.20, 17633.76, 20445.36, 65618.10, 110692.72, 0.08, -0.29, 0.96
32, 79522.16, 101970.76, -5755.28, 48374.85, 17645.67, 20448.52, 65615.84, 110694.51, 0.00, 0.00, 0.00
33, 79525.73, 101971.34, -5750.23, 48375.95, 17670.04, 20455.40, 65622.28, 110695.02, 0.00, 0.00, 0.00
34, 79518.81, 101971.98, -5756.54, 48365.84, 17666.88, 20450.24, 65628.50, 110689.68, 0.00, 0.00, 0.00
35, 79515.68, 101974.16, -5760.63, 48360.99, 17658.35, 20452.14, 65623.49, 110689.81, 0.00, 0.00, 0.00
36, 79516.89, 101977.22, -5755.73, 48377.29, 17657.36, 20453.48, 65621.19, 110690.30, 0.00, 0.00, 0.00
37, 79517.02, 101972.99, -5755.71, 48368.84, 17640.58, 20443.04, 65620.74, 110687.40, 0.00, 0.00, 0.00
38, 79520.15, 101968.41, -5762.77, 48359.65, 17634.72, 20435.15, 65621.59, 110689.59, 0.00, 0.00, 0.00
39, 79523.66, 101969.21, -5765.52, 48369.06, 17637.96, 20433.49, 65621.14, 110692.67, 0.00, 0.00, 0.00
40, 79527.98, 101976.19, -5764.56, 48372.93, 17638.99, 20439.78, 65621.99, 110696.66, 0.00, 0.00, 0.00
41, 79527.41, 101975.67, -5764.16, 48366.25, 17629.92, 20437.03, 65620.43, 110696.79, 0.08, -0.30, 0.95
42, 79533.16, 101972.21, -5763.60, 48366.02, 17631.68, 20437.27, 65623.40, 110697.99, 0.00, 0.00, 0.00
43, 79534.12, 101971.80, -5761.25, 48363.27, 17656.60, 20439.24, 65626.93, 110696.52, 0.00, 0.00, 0.00
44, 79532.66, 101972.74, -5760.63, 48357.57, 17641.92, 20437.90, 65627.06, 110694.69, 0.00, 0.00, 0.00
45, 79532.71, 101974.91, -5762.75, 48357.64, 17643.53, 20441.70, 65626.53, 110691.76, 0.00, 0.00, 0.00
46, 79527.80, 101974.00, -5762.44, 48367.59, 17657.63, 20447.42, 65628.81, 110690.44, 0.00, 0.00, 0.00
47, 79525.11, 101969.52, -5764.13, 48363.47, 17652.22, 20445.05, 65625.39, 110690.71, 0.00, 0.00, 0.00
48, 79531.55, 101966.40, -5766.48, 48362.69, 17648.47, 20444.36, 65629.81, 110695.22, 0.00, 0.00, 0.00
49, 79538.55, 101968.63, -5765.52, 48366.38, 17655.11, 20449.79, 65633.34, 110703.47, 0.00, 0.00, 0.00
50, 79536.87, 101971.54, -5767.13, 48363.16, 17642.14, 20445.79, 65629.80, 110703.78, 0.00, 0.00, 0.00
51, 79534.01, 101968.23, -5770.04, 48360.41, 17631.73, 20434.88, 65621.57, 110693.84, 0.08, -0.29, 0.96
52, 79532.49, 101963.29, -5772.32, 48358.36, 17639.48, 20429.94, 65618.75, 110689.21, 0.00, 0.00, 0.00
53, 79531.77, 101962.82, -5770.95, 48362.54, 17647.55, 20434.66, 65623.13, 110693.45, 0.00, 0.00, 0.00
54, 79533.20, 101964.74, -5770.59, 48363.79, 17635.73, 20426.39, 65620.65, 110689.73, 0.00, 0.00, 0.00
55, 79533.85, 101970.63, -5765.95, 48368.91, 17636.62, 20435.55, 65621.68, 110685.90, 0.00, 0.00, 0.00
56, 79528.82, 101970.94, -5764.25, 48373.06, 17657.90, 20449.63, 65621.50, 110682.21, 0.00, 0.00, 0.00
57, 79526.07, 101967.98, -5764.45, 48375.34, 17656.51, 20444.36, 65619.84, 110682.44, 0.00, 0.00, 0.00
58, 79526.30, 101965.64, -5766.48, 48374.29, 17654.81, 20443.69, 65622.24, 110684.92, 0.00, 0.00, 0.00
59, 79528.64, 101963.70, -5771.20, 48374.23, 17639.79, 20439.53, 65634.35, 110687.24, 0.00, 0.00, 0.00
60, 79533.09, 101968.81, -5763.33, 48379.93, 17656.13, 20449.59, 65636.50, 110689.32, 0.00, 0.00, 0.00
61, 79527.39, 101973.91, -5755.55, 48372.62, 17652.76, 20446.28, 65623.80, 110685.08, 0.08, -0.30, 0.96
62, 79522.59, 101968.07, -5763.82, 48368.35, 17651.28, 20439.35, 65622.06, 110681.45, 0.00, 0.00, 0.00
63, 79523.16, 101966.11, -5760.29, 48370.83, 17654.73, 20440.56, 65620.61, 110680.85, 0.00, 0.00, 0.00
64, 79530.27, 101972.86, -5757.61, 48381.87, 17665.61, 20444.76, 65622.02, 110684.67, 0.00, 0.00, 0.00
65, 79533.72, 101977.82, -5760.58, 48383.25, 17677.48, 20452.07, 65623.36, 110685.79, 0.00, 0.00, 0.00
66, 79537.20, 101975.20, -5761.88, 48390.56, 17673.84, 20457.95, 65627.73, 110689.14, 0.00, 0.00, 0.00
67, 79529.80, 101967.73, -5758.86, 48385.67, 17667.94, 20450.91, 65628.54, 110681.79, 0.00, 0.00, 0.00
68, 79521.63, 101967.49, -5751.98, 48378.88, 17661.59, 20443.42, 65624.01, 110674.34, 0.00, 0.00, 0.00
69, 79519.77, 101967.11, -5758.12, 48371.90, 17652.94, 20439.96, 65620.67, 110673.59, 0.00, 0.00, 0.00
70, 79526.68, 101972.52, -5758.28, 48370.92, 17659.76, 20443.58, 65624.92, 110677.41, 0.00, 0.00, 0.00
71, 79528.84, 101974.98, -5756.96, 48375.72, 17650.26, 20442.05, 65626.20, 110678.44, 0.07, -0.29, 0.95
72, 79530.09, 101973.20, -5750.72, 48381.91, 17652.58, 20436.82, 65624.32, 110678.33, 0.00, 0.00, 0.00
73, 79526.07, 101969.08, -5751.66, 48381.87, 17648.71, 20430.86, 65620.14, 110675.04, 0.00, 0.00, 0.00
74, 79520.48, 101969.19, -5757.54, 48375.75, 17654.97, 20430.81, 65617.16, 110670.52, 0.00, 0.00, 0.00
75, 79528.42, 101973.26, -5758.77, 48382.11, 17665.41, 20443.22, 65625.95, 110681.32, 0.00, 0.00, 0.00
76, 79532.04, 101977.35, -5750.59, 48389.13, 17677.23, 20453.61, 65632.61, 110688.95, 0.00, 0.00, 0.00
77, 79528.80, 101976.61, -5754.21, 48380.24, 17664.54, 20446.79, 65628.66, 110684.72, 0.00, 0.00, 0.00
78, 79530.72, 101970.71, -5761.43, 48382.59, 17648.85, 20437.67, 65626.02, 110683.11, 0.00, 0.00, 0.00
79, 79533.41, 101969.10, -5763.31, 48379.16, 17652.60, 20438.72, 65624.01, 110681.97, 0.00, 0.00, 0.00
80, 79545.72, 101975.56, -5760.38, 48385.38, 17659.53, 20448.00, 65627.09, 110683.76, 0.00, 0.00, 0.00
81, 79544.58, 101975.20, -5761.70, 48387.12, 17674.13, 20449.39, 65627.38, 110681.68, 0.07, -0.30, 0.95
82, 79537.16, 101974.24, -5763.75, 48380.77, 17687.40, 20449.25, 65625.19, 110682.62, 0.00, 0.00, 0.00
83, 79528.64, 101971.36, -5763.31, 48375.16, 17670.26, 20444.34, 65624.56, 110680.63, 0.00, 0.00, 0.00
84, 79530.95, 101975.12, -5760.80, 48376.64, 17675.69, 20450.06, 65628.70, 110682.10, 0.00, 0.00, 0.00
85, 79536.87, 101982.20, -5759.37, 48377.85, 17682.89, 20456.79, 65632.19, 110685.95, 0.00, 0.00, 0.00
86, 79539.44, 101983.83, -5757.23, 48381.89, 17678.13, 20456.56, 65637.44, 110690.28, 0.00, 0.00, 0.00
87, 79539.33, 101977.69, -5760.54, 48378.88, 17671.60, 20451.87, 65638.48, 110691.52, 0.00, 0.00, 0.00
88, 79539.20, 101967.56, -5769.57, 48370.54, 17673.08, 20447.38, 65632.72, 110690.95, 0.00, 0.00, 0.00
89, 79542.86, 101966.93, -5773.66, 48365.57, 17664.78, 20446.50, 65632.38, 110694.95, 0.00, 0.00, 0.00
90, 79546.44, 101974.78, -5770.71, 48366.69, 17649.61, 20444.87, 65640.32, 110693.95, 0.00, 0.00, 0.00
91, 79545.36, 101978.40, -5772.02, 48363.36, 17669.97, 20449.70, 65642.83, 110692.70, 0.08, -0.30, 0.95
92, 79540.96, 101971.41, -5776.85, 48359.36, 17679.60, 20453.72, 65642.13, 110693.99, 0.00, 0.00, 0.00
93, 79536.40, 101968.01, -5766.37, 48355.49, 17670.30, 20448.11, 65639.54, 110691.22, 0.00, 0.00, 0.00
94, 79530.61, 101968.61, -5768.85, 48345.46, 17659.26, 20439.80, 65631.94, 110686.59, 0.00, 0.00, 0.00
95, 79534.68, 101971.31, -5767.53, 48343.56, 17646.70, 20437.96, 65625.81, 110686.15, 0.00, 0.00, 0.00
96, 79527.19, 101973.39, -5766.57, 48347.18, 17640.91, 20439.48, 65626.58, 110677.72, 0.00, 0.00, 0.00
97, 79519.19, 101968.81, -5776.70, 48342.04, 17638.59, 20431.95, 65624.70, 110673.52, 0.00, 0.00, 0.00
98, 79523.81, 101967.76, -5780.05, 48339.40, 17658.79, 20437.72, 65627.83, 110679.48, 0.00, 0.00, 0.00
99, 79521.63, 101969.51, -5777.99, 48332.61, 17654.93, 20437.00, 65626.06, 110676.40, 0.00, 0.00, 0.00
100, 79516.53, 101972.86, -5778.28, 48336.43, 17642.77, 20438.23, 65622.41, 110670.81, 0.00, 0.00, 0.00
101, 79511.30, 101972.99, -5777.50, 48342.87, 17642.95, 20439.20, 65626.71, 110665.49, 0.08, -0.30, 0.96
102, 79506.25, 101970.06, -5777.57, 48344.77, 17668.85, 20450.86, 65634.22, 110663.95, 0.00, 0.00, 0.00
103, 79509.38, 101972.41, -5773.57, 48350.87, 17667.47, 20454.86, 65637.26, 110664.17, 0.00, 0.00, 0.00
104, 79513.16, 101976.79, -5770.08, 48349.26, 17661.90, 20451.76, 65636.66, 110662.57, 0.00, 0.00, 0.00
105, 79514.45, 101980.28, -5772.20, 48348.63, 17658.03, 20450.73, 65634.33, 110664.47, 0.00, 0.00, 0.00
106, 79513.49, 101975.31, -5776.85, 48344.95, 17651.91, 20450.75, 65632.12, 110665.77, 0.00, 0.00, 0.00
107, 79510.49, 101964.36, -5785.55, 48338.06, 17637.76, 20445.68, 65626.35, 110659.33, 0.00, 0.00, 0.00
108, 79507.81, 101961.52, -5788.36, 48334.17, 17628.78, 20443.66, 65623.22, 110651.91, 0.00, 0.00, 0.00
109, 79514.12, 101966.09, -5786.58, 48335.55, 17646.30, 20454.06, 65626.87, 110656.95, 0.00, 0.00, 0.00
110, 79513.94, 101973.13, -5782.33, 48338.08, 17643.75, 20460.83, 65628.67, 110657.41, 0.00, 0.00, 0.00
111, 79513.02, 101973.26, -5786.89, 48335.45, 17649.96, 20468.27, 65627.94, 110654.74, 0.08, -0.30, 0.96
112, 79512.66, 101970.42, -5787.09, 48339.80, 17636.89, 20471.04, 65631.36, 110657.85, 0.00, 0.00, 0.00
113, 79511.43, 101967.67, -5789.19, 48338.86, 17635.37, 20470.78, 65631.83, 110659.30, 0.00, 0.00, 0.00
114, 79511.27, 101969.33, -5786.55, 48340.56, 17651.53, 20473.17, 65626.26, 110654.59, 0.00, 0.00, 0.00
115, 79517.49, 101976.12, -5786.80, 48340.32, 17648.91, 20478.40, 65627.09, 110659.08, 0.00, 0.00, 0.00
116, 79508.84, 101974.98, -5788.19, 48337.16, 17636.40, 20473.71, 65623.00, 110653.49, 0.00, 0.00, 0.00
117, 79501.55, 101971.60, -5785.06, 48338.80, 17647.71, 20475.18, 65619.35, 110650.45, 0.00, 0.00, 0.00
118, 79507.90, 101969.62, -5786.40, 48342.33, 17656.18, 20485.55, 65620.38, 110655.19, 0.00, 0.00, 0.00
119, 79510.61, 101970.45, -5785.95, 48342.55, 17633.94, 20482.60, 65628.25, 110656.51, 0.00, 0.00, 0.00
120, 79507.81, 101973.98, -5783.98, 48342.15, 17629.07, 20483.61, 65636.39, 110656.64, 0.00, 0.00, 0.00
121, 79511.10, 101975.80, -5780.47, 48350.20, 17659.53, 20496.79, 65631.27, 110658.63, 0.08, -0.30, 0.96
122, 79513.73, 101978.58, -5780.99, 48348.70, 17667.42, 20497.35, 65628.88, 110655.03, 0.00, 0.00, 0.00
123, 79508.17, 101976.50, -5782.02, 48348.23, 17661.92, 20491.23, 65626.98, 110650.97, 0.00, 0.00, 0.00
124, 79513.29, 101980.97, -5776.74, 48357.68, 17662.06, 20494.11, 65628.95, 110657.52, 0.00, 0.00, 0.00
125, 79510.07, 101982.94, -5775.27, 48363.00, 17652.76, 20495.41, 65624.97, 110655.80, 0.00, 0.00, 0.00
126, 79502.16, 101981.24, -5778.13, 48360.93, 17620.68, 20486.58, 65616.65, 110648.44, 0.00, 0.00, 0.00
127, 79507.08, 101981.02, -5778.55, 48359.41, 17645.29, 20491.41, 65619.94, 110650.20, 0.00, 0.00, 0.00
128, 79507.19, 101975.83, -5778.31, 48359.63, 17677.28, 20504.55, 65627.24, 110652.40, 0.00, 0.00, 0.00
129, 79511.88, 101978.11, -5774.57, 48365.06, 17682.78, 20511.75, 65631.85, 110654.63, 0.00, 0.00, 0.00
130, 79512.15, 101983.07, -5774.86, 48366.34, 17677.79, 20515.95, 65632.97, 110652.28, 0.00, 0.00, 0.00
131, 79509.29, 101981.98, -5779.07, 48359.92, 17672.63, 20517.69, 65633.95, 110651.77, 0.08, -0.30, 0.96
132, 79506.70, 101977.73, -5779.85, 48361.86, 17666.24, 20511.81, 65625.34, 110648.98, 0.00, 0.00, 0.00
133, 79507.63, 101975.74, -5781.06, 48361.71, 17658.53, 20507.08, 65625.97, 110650.36, 0.00, 0.00, 0.00
134, 79505.66, 101978.22, -5776.94, 48358.82, 17659.76, 20508.04, 65623.52, 110648.62, 0.00, 0.00, 0.00
135, 79501.40, 101982.47, -5778.77, 48355.92, 17664.74, 20514.23, 65623.52, 110651.10, 0.00, 0.00, 0.00
136, 79494.89, 101981.46, -5782.15, 48360.19, 17644.22, 20509.54, 65623.13, 110647.84, 0.00, 0.00, 0.00
137, 79500.59, 101977.98, -5785.23, 48363.79, 17627.26, 20510.36, 65627.49, 110653.07, 0.00, 0.00, 0.00
138, 79507.74, 101978.06, -5786.73, 48368.61, 17670.08, 20522.43, 65631.54, 110656.48, 0.00, 0.00, 0.00
139, 79507.09, 101983.88, -5775.27, 48367.30, 17696.59, 20531.95, 65634.51, 110652.73, 0.00, 0.00, 0.00
140, 79511.95, 101987.34, -5768.90, 48366.11, 17677.57, 20532.47, 65651.32, 110654.79, 0.00, 0.00, 0.00
141, 79508.75, 101983.81, -5776.85, 48360.25, 17663.78, 20528.60, 65627.23, 110652.55, 0.08, -0.30, 0.96
142, 79506.16, 101982.83, -5774.17, 48361.28, 17658.97, 20522.95, 65620.65, 110651.48, 0.00, 0.00, 0.00
143, 79509.71, 101984.63, -5773.14, 48366.34, 17681.71, 20530.59, 65632.79, 110657.07, 0.00, 0.00, 0.00
144, 79510.54, 101985.24, -5774.55, 48370.13, 17663.60, 20528.27, 65633.64, 110656.29, 0.00, 0.00, 0.00
145, 79513.22, 101989.98, -5773.59, 48375.57, 17658.46, 20531.11, 65637.64, 110661.02, 0.00, 0.00, 0.00
146, 79519.99, 101991.63, -5778.69, 48377.53, 17676.72, 20541.70, 65648.10, 110666.84, 0.00, 0.00, 0.00
147, 79518.74, 101996.02, -5773.05, 48380.10, 17692.99, 20542.84, 65643.63, 110662.16, 0.00, 0.00, 0.00
148, 79514.05, 101988.66, -5774.33, 48374.07, 17686.15, 20538.32, 65636.39, 110655.99, 0.00, 0.00, 0.00
149, 79513.04, 101978.58, -5774.80, 48362.22, 17688.48, 20539.31, 65640.88, 110653.27, 0.00, 0.00, 0.00
150, 79521.13, 101985.17, -5775.31, 48361.80, 17682.53, 20546.28, 65654.02, 110656.69, 0.00, 0.00, 0.00
151, 79520.24, 101993.20, -5772.81, 48383.55, 17676.79, 20547.04, 65647.77, 110655.41, 0.08, -0.31, 0.95
152, 79515.88, 101993.29, -5770.86, 48374.76, 17668.88, 20540.34, 65640.37, 110652.04, 0.00, 0.00, 0.00
153, 79518.92, 101991.30, -5771.31, 48369.33, 17660.25, 20535.31, 65639.09, 110651.57, 0.00, 0.00, 0.00
154, 79518.48, 101989.30, -5774.44, 48367.92, 17653.70, 20535.53, 65638.98, 110655.86, 0.00, 0.00, 0.00
155, 79518.79, 101994.41, -5773.79, 48377.06, 17680.56, 20550.01, 65657.82, 110660.89, 0.00, 0.00, 0.00
156, 79515.28, 101991.77, -5774.84, 48381.67, 17677.32, 20551.71, 65639.96, 110655.44, 0.00, 0.00, 0.00
157, 79518.90, 101992.41, -5773.25, 48382.85, 17679.65, 20551.42, 65635.70, 110655.41, 0.00, 0.00, 0.00
158, 79513.80, 101986.49, -5781.95, 48376.57, 17679.02, 20542.39, 65635.09, 110650.61, 0.00, 0.00, 0.00
159, 79515.81, 101989.51, -5776.38, 48379.54, 17681.68, 20548.43, 65637.75, 110651.75, 0.00, 0.00, 0.00
160, 79520.27, 101995.27, -5769.39, 48380.19, 17684.63, 20550.89, 65634.46, 110652.17, 0.00, 0.00, 0.00
161, 79519.03, 101995.01, -5770.82, 48382.79, 17689.04, 20553.01, 65637.57, 110652.80, 0.08, -0.30, 0.96
162, 79519.08, 101993.33, -5771.22, 48384.66, 17687.36, 20552.23, 65642.98, 110652.62, 0.00, 0.00, 0.00
163, 79525.47, 101995.12, -5770.30, 48389.27, 17691.81, 20555.47, 65647.32, 110655.05, 0.00, 0.00, 0.00
164, 79523.77, 101995.90, -5772.70, 48389.29, 17689.10, 20555.07, 65644.92, 110652.62, 0.00, 0.00, 0.00
165, 79521.60, 101999.66, -5771.06, 48382.61, 17684.05, 20553.63, 65644.63, 110651.95, 0.00, 0.00, 0.00
166, 79521.60, 102009.09, -5766.88, 48380.24, 17682.67, 20553.23, 65642.51, 110651.55, 0.00, 0.00, 0.00
167, 79521.42, 101999.32, -5766.93, 48385.73, 17680.56, 20548.27, 65638.78, 110647.59, 0.00, 0.00, 0.00
168, 79519.77, 101986.13, -5773.48, 48383.52, 17667.89, 20542.66, 65638.55, 110646.59, 0.00, 0.00, 0.00
169, 79518.88, 101992.55, -5768.36, 48385.98, 17675.09, 20544.96, 65652.63, 110646.56, 0.00, 0.00, 0.00
170, 79522.43, 101996.84, -5767.64, 48388.39, 17674.15, 20548.58, 65648.44, 110647.95, 0.00, 0.00, 0.00
171, 79527.52, 102000.13, -5764.43, 48383.55, 17691.81, 20559.45, 65633.08, 110649.87, 0.09, -0.30, 0.96
172, 79525.47, 101996.82, -5771.02, 48379.21, 17692.21, 20558.98, 65640.03, 110647.68, 0.00, 0.00, 0.00
173, 79535.73, 101998.43, -5771.71, 48386.68, 17692.48, 20558.64, 65651.95, 110655.44, 0.00, 0.00, 0.00
174, 79534.23, 102004.53, -5769.19, 48386.05, 17710.83, 20561.55, 65650.23, 110657.18, 0.00, 0.00, 0.00
175, 79526.19, 102000.53, -5769.63, 48382.83, 17699.94, 20560.21, 65648.70, 110656.42, 0.00, 0.00, 0.00
176, 79527.82, 102006.01, -5769.21, 48390.88, 17696.21, 20562.78, 65652.81, 110655.15, 0.00, 0.00, 0.00
177, 79524.80, 101998.25, -5770.93, 48385.04, 17679.54, 20554.28, 65649.24, 110651.46, 0.00, 0.00, 0.00
178, 79524.73, 101991.84, -5773.54, 48380.48, 17675.11, 20550.84, 65650.70, 110649.27, 0.00, 0.00, 0.00
179, 79532.27, 101996.35, -5766.73, 48391.55, 17689.91, 20554.13, 65646.65, 110651.62, 0.00, 0.00, 0.00
180, 79533.85, 102003.95, -5763.82, 48394.39, 17690.69, 20557.48, 65648.55, 110654.41, 0.00, 0.00, 0.00
181, 79530.59, 102005.80, -5767.00, 48388.86, 17691.03, 20557.99, 65645.87, 110652.89, 0.08, -0.30, 0.96
182, 79522.54, 101996.57, -5775.82, 48382.16, 17683.22, 20551.60, 65649.02, 110647.21, 0.00, 0.00, 0.00
183, 79520.22, 101991.14, -5777.52, 48380.66, 17673.28, 20544.47, 65636.39, 110641.60, 0.00, 0.00, 0.00
184, 79517.18, 101998.80, -5776.38, 48380.57, 17678.49, 20547.55, 65636.88, 110639.09, 0.00, 0.00, 0.00
185, 79523.48, 102006.27, -5773.25, 48385.25, 17680.59, 20553.72, 65637.59, 110646.25, 0.00, 0.00, 0.00
186, 79525.02, 102005.38, -5770.59, 48382.18, 17681.79, 20557.55, 65639.43, 110647.73, 0.00, 0.00, 0.00
187, 79524.06, 102001.58, -5773.10, 48379.75, 17684.88, 20554.98, 65636.77, 110646.70, 0.00, 0.00, 0.00
188, 79524.33, 101992.26, -5777.72, 48374.25, 17674.26, 20548.65, 65637.15, 110644.69, 0.00, 0.00, 0.00
189, 79524.30, 101999.30, -5773.61, 48377.06, 17655.40, 20545.07, 65631.49, 110641.16, 0.00, 0.00, 0.00
190, 79523.34, 101998.25, -5775.27, 48376.46, 17667.51, 20545.03, 65630.95, 110639.99, 0.00, 0.00, 0.00
191, 79522.90, 101999.57, -5776.12, 48381.22, 17703.68, 20560.65, 65635.90, 110640.59, 0.08, -0.30, 0.96
192, 79524.06, 101997.96, -5779.13, 48380.08, 17693.21, 20557.93, 65631.76, 110643.57, 0.00, 0.00, 0.00
193, 79521.07, 101991.70, -5783.60, 48374.00, 17673.28, 20547.44, 65646.04, 110643.95, 0.00, 0.00, 0.00
194, 79524.02, 101992.93, -5784.77, 48370.54, 17690.22, 20550.95, 65628.45, 110642.02, 0.00, 0.00, 0.00
195, 79524.11, 101997.66, -5779.60, 48377.06, 17675.33, 20551.40, 65626.46, 110640.88, 0.00, 0.00, 0.00
196, 79527.28, 102000.04, -5778.10, 48378.45, 17673.37, 20556.41, 65635.07, 110644.88, 0.00, 0.00, 0.00
197, 79529.02, 101999.09, -5781.88, 48373.38, 17686.96, 20560.45, 65643.67, 110643.10, 0.00, 0.00, 0.00
198, 79526.30, 101997.69, -5782.15, 48377.02, 17687.92, 20553.39, 65633.15, 110642.95, 0.00, 0.00, 0.00
199, 79527.10, 101996.21, -5780.52, 48381.54, 17692.30, 20557.30, 65635.65, 110644.39, 0.00, 0.00, 0.00
200, 79527.86, 101997.16, -5783.87, 48385.33, 17697.69, 20562.46, 65635.76, 110640.48, 0.00, 0.00, 0.00
201, 79529.05, 101997.45, -5780.36, 48380.82, 17686.89, 20562.49, 65636.55, 110640.86, 0.08, -0.30, 0.95
202, 79526.05, 101997.96, -5782.44, 48373.20, 17679.00, 20556.76, 65635.78, 110637.35, 0.00, 0.00, 0.00
203, 79533.27, 101991.37, -5784.21, 48370.89, 17685.66, 20558.17, 65648.88, 110646.41, 0.00, 0.00, 0.00
204, 79531.70, 101994.60, -5782.26, 48378.38, 17682.60, 20556.03, 65650.70, 110643.66, 0.00, 0.00, 0.00
205, 79529.80, 102000.15, -5781.57, 48388.69, 17677.10, 20558.40, 65650.71, 110646.18, 0.00, 0.00, 0.00
206, 79527.91, 101997.17, -5782.33, 48391.28, 17694.62, 20570.11, 65655.70, 110649.36, 0.00, 0.00, 0.00
207, 79525.73, 101997.51, -5780.14, 48384.73, 17700.59, 20570.06, 65636.63, 110643.57, 0.00, 0.00, 0.00
208, 79522.34, 101995.34, -5782.53, 48383.50, 17686.46, 20565.30, 65647.48, 110639.32, 0.00, 0.00, 0.00
209, 79519.01, 101992.10, -5784.30, 48382.29, 17685.15, 20564.23, 65642.83, 110636.62, 0.00, 0.00, 0.00
210, 79522.61, 101995.66, -5784.50, 48379.01, 17691.23, 20563.25, 65661.76, 110639.48, 0.00, 0.00, 0.00
211, 79529.16, 101998.78, -5782.98, 48380.28, 17692.88, 20568.07, 65648.99, 110643.27, 0.08, -0.30, 0.95
212, 79530.70, 101997.24, -5782.42, 48384.75, 17699.03, 20566.53, 65640.70, 110645.36, 0.00, 0.00, 0.00
213, 79528.76, 101994.36, -5781.88, 48382.38, 17689.75, 20560.10, 65639.63, 110643.37, 0.00, 0.00, 0.00
214, 79528.60, 101996.44, -5782.28, 48379.32, 17680.63, 20556.18, 65642.42, 110641.94, 0.00, 0.00, 0.00
215, 79527.73, 101995.77, -5784.92, 48379.12, 17678.51, 20558.80, 65658.31, 110637.13, 0.00, 0.00, 0.00
216, 79528.20, 101994.80, -5781.81, 48388.82, 17682.33, 20565.71, 65663.41, 110639.55, 0.00, 0.00, 0.00
217, 79530.79, 101995.95, -5780.47, 48391.32, 17682.26, 20561.48, 65649.66, 110640.20, 0.00, 0.00, 0.00
218, 79530.27, 101989.24, -5787.40, 48385.42, 17682.40, 20555.89, 65638.55, 110640.82, 0.00, 0.00, 0.00
219, 79535.55, 101985.04, -5790.87, 48374.58, 17679.42, 20549.88, 65647.95, 110644.87, 0.00, 0.00, 0.00
220, 79550.82, 101986.94, -5791.38, 48369.42, 17655.08, 20539.04, 65629.48, 110649.63, 0.00, 0.00, 0.00
221, 79540.38, 101992.99, -5785.48, 48374.70, 17669.14, 20542.33, 65636.45, 110642.61, 0.08, -0.31, 0.96
222, 79517.89, 102000.15, -5777.97, 48379.77, 17691.05, 20560.18, 65645.48, 110639.32, 0.00, 0.00, 0.00
223, 79524.09, 101992.93, -5777.52, 48383.19, 17688.07, 20557.99, 65647.74, 110646.49, 0.00, 0.00, 0.00
224, 79538.08, 101999.52, -5781.03, 48381.96, 17684.90, 20554.91, 65662.09, 110655.55, 0.00, 0.00, 0.00
225, 79547.04, 101995.68, -5781.14, 48385.11, 17678.53, 20559.04, 65655.59, 110667.02, 0.00, 0.00, 0.00
226, 79548.41, 101996.55, -5779.96, 48388.62, 17695.81, 20569.75, 65648.84, 110669.96, 0.00, 0.00, 0.00
227, 79550.73, 101994.25, -5780.83, 48394.45, 17696.41, 20567.47, 65671.08, 110671.22, 0.00, 0.00, 0.00
228, 79554.82, 101988.75, -5785.84, 48385.85, 17695.96, 20563.31, 65656.19, 110667.46, 0.00, 0.00, 0.00
229, 79554.20, 101990.96, -5784.79, 48384.21, 17701.71, 20567.43, 65644.01, 110667.04, 0.00, 0.00, 0.00
230, 79562.51, 101996.44, -5784.23, 48385.69, 17710.27, 20574.13, 65658.60, 110674.05, 0.00, 0.00, 0.00
231, 79567.09, 101998.34, -5783.31, 48391.70, 17704.91, 20577.22, 65662.98, 110676.07, 0.08, -0.30, 0.95
232, 79557.19, 101999.27, -5774.13, 48395.97, 17701.15, 20572.57, 65658.59, 110671.28, 0.00, 0.00, 0.00
233, 79549.74, 101992.98, -5778.71, 48393.52, 17697.87, 20572.63, 65667.43, 110666.37, 0.00, 0.00, 0.00
234, 79547.02, 101992.75, -5779.00, 48388.86, 17693.19, 20575.52, 65681.11, 110661.90, 0.00, 0.00, 0.00
235, 79551.11, 102002.77, -5770.97, 48390.79, 17698.31, 20574.76, 65654.20, 110667.04, 0.00, 0.00, 0.00
236, 79554.52, 102003.73, -5776.29, 48385.49, 17687.63, 20574.27, 65655.23, 110668.98, 0.00, 0.00, 0.00
237, 79551.60, 101999.55, -5783.11, 48381.20, 17692.50, 20568.41, 65664.73, 110664.24, 0.00, 0.00, 0.00
238, 79556.70, 101991.37, -5782.33, 48381.27, 17688.12, 20566.00, 65687.55, 110662.73, 0.00, 0.00, 0.00
239, 79552.38, 101989.64, -5783.47, 48382.41, 17687.22, 20563.02, 65638.27, 110661.16, 0.00, 0.00, 0.00
240, 79552.36, 101997.00, -5782.55, 48376.77, 17695.36, 20571.05, 65651.41, 110661.78, 0.00, 0.00, 0.00
241, 79559.45, 101999.50, -5780.88, 48381.27, 17690.00, 20571.79, 65666.70, 110664.76, 0.08, -0.30, 0.96
242, 79558.75, 102000.57, -5781.10, 48386.27, 17684.79, 20571.81, 65668.26, 110662.68, 0.00, 0.00, 0.00
243, 79556.80, 102002.54, -5781.55, 48384.13, 17699.92, 20580.79, 65665.16, 110662.45, 0.00, 0.00, 0.00
244, 79556.43, 102000.80, -5781.97, 48385.58, 17690.76, 20578.71, 65673.98, 110666.70, 0.00, 0.00, 0.00
245, 79555.87, 101998.67, -5785.91, 48380.89, 17683.07, 20572.43, 65671.30, 110665.98, 0.00, 0.00, 0.00
246, 79552.41, 102008.53, -5785.75, 48380.30, 17695.74, 20574.42, 65672.80, 110664.04, 0.00, 0.00, 0.00
247, 79556.59, 102004.73, -5781.55, 48385.65, 17702.49, 20571.07, 65664.75, 110662.77, 0.00, 0.00, 0.00
248, 79553.97, 101999.66, -5778.10, 48386.45, 17696.84, 20566.71, 65664.46, 110658.81, 0.00, 0.00, 0.00
249, 79547.46, 102000.98, -5777.72, 48390.05, 17684.57, 20563.25, 65675.95, 110660.06, 0.00, 0.00, 0.00
250, 79550.44, 102005.91, -5777.55, 48390.50, 17692.90, 20567.38, 65656.13, 110663.77, 0.00, 0.00, 0.00
251, 79547.09, 102002.83, -5782.19, 48387.52, 17691.54, 20565.13, 65657.42, 110654.74, 0.09, -0.30, 0.95
252, 79546.70, 101998.67, -5785.28, 48390.77, 17698.04, 20568.57, 65664.53, 110653.49, 0.00, 0.00, 0.00
253, 79553.74, 101999.70, -5779.24, 48396.84, 17700.23, 20575.43, 65671.21, 110659.99, 0.00, 0.00, 0.00
254, 79553.59, 102006.81, -5768.90, 48393.98, 17694.67, 20572.68, 65664.08, 110656.24, 0.00, 0.00, 0.00
255, 79544.78, 102009.18, -5776.23, 48386.09, 17692.52, 20570.09, 65658.98, 110650.16, 0.00, 0.00, 0.00
0, 79548.16, 102010.95, -5776.23, 48387.86, 17690.53, 20574.96, 65665.98, 110658.16, 0.00, 0.00, 0.00
1, 79546.95, 102009.91, -5776.94, 48389.27, 17699.32, 20570.80, 65666.92, 110654.27, 0.00, 0.00, 0.00
2, 79544.89, 102005.47, -5776.52, 48387.25, 17692.50, 20562.71, 65686.77, 110653.47, 0.00, 0.00, 0.00
3, 79547.66, 102007.37, -5775.82, 48389.54, 17704.06, 20566.49, 65691.91, 110658.05, 0.00, 0.00, 0.00
4, 79552.16, 102010.81, -5778.35, 48396.80, 17694.38, 20565.48, 65661.60, 110660.76, 0.00, 0.00, 0.00
5, 79554.86, 102011.32, -5779.51, 48397.74, 17698.27, 20566.91, 65657.22, 110660.24, 0.08, -0.30, 0.96
6, 79553.55, 102009.09, -5780.99, 48392.11, 17700.55, 20564.63, 65664.08, 110659.44, 0.00, 0.00, 0.00
7, 79555.09, 102005.96, -5784.23, 48388.42, 17702.04, 20566.58, 65665.34, 110661.45, 0.00, 0.00, 0.00
8, 79555.31, 102005.60, -5784.16, 48393.18, 17700.55, 20572.01, 65677.27, 110666.91, 0.00, 0.00, 0.00
9, 79555.78, 102011.28, -5781.99, 48398.07, 17695.56, 20573.39, 65674.99, 110666.79, 0.00, 0.00, 0.00
10, 79559.22, 102009.02, -5782.96, 48398.39, 17698.11, 20579.36, 65676.02, 110668.58, 0.00, 0.00, 0.00
11, 79559.16, 102009.20, -5780.25, 48398.84, 17697.78, 20578.96, 65698.46, 110672.98, 0.00, 0.00, 0.00
12, 79555.02, 102003.08, -5785.88, 48392.78, 17700.86, 20574.60, 65688.04, 110671.04, 0.00, 0.00, 0.00
13, 79563.65, 102007.50, -5784.14, 48391.95, 17716.69, 20579.59, 65695.89, 110673.61, 0.00, 0.00, 0.00
14, 79571.00, 102018.59, -5783.27, 48402.23, 17731.84, 20589.15, 65692.02, 110679.29, 0.00, 0.00, 0.00
15, 79570.06, 102015.84, -5789.57, 48407.30, 17724.55, 20589.04, 65674.48, 110680.27, 0.08, -0.30, 0.96
16, 79564.01, 102014.86, -5791.72, 48396.71, 17709.58, 20582.36, 65682.55, 110672.73, 0.00, 0.00, 0.00
17, 79560.67, 102015.23, -5785.70, 48384.33, 17698.58, 20571.00, 65704.31, 110669.83, 0.00, 0.00, 0.00
18, 79559.71, 102015.57, -5776.90, 48381.82, 17686.02, 20563.83, 65684.89, 110668.42, 0.00, 0.00, 0.00
19, 79563.00, 102017.27, -5777.61, 48380.21, 17703.90, 20573.89, 65674.74, 110669.20, 0.00, 0.00, 0.00
20, 79563.52, 102015.93, -5777.81, 48376.55, 17701.87, 20572.34, 65688.24, 110669.96, 0.00, 0.00, 0.00
21, 79563.06, 102019.26, -5778.62, 48378.58, 17700.84, 20570.11, 65686.27, 110670.59, 0.00, 0.00, 0.00
22, 79567.00, 102019.59, -5779.62, 48386.41, 17696.21, 20567.25, 65691.82, 110668.84, 0.00, 0.00, 0.00
23, 79570.42, 102021.31, -5777.05, 48388.86, 17701.42, 20568.83, 65698.57, 110665.07, 0.00, 0.00, 0.00
24, 79573.37, 102023.35, -5784.72, 48382.61, 17688.32, 20571.25, 65702.01, 110665.85, 0.00, 0.00, 0.00
25, 79565.59, 102027.06, -5785.28, 48385.13, 17688.63, 20575.18, 65719.70, 110669.48, 0.08, -0.30, 0.96
26, 79556.63, 102025.83, -5780.32, 48385.00, 17712.17, 20578.65, 65703.02, 110668.91, 0.00, 0.00, 0.00
27, 79552.11, 102018.92, -5783.31, 48373.26, 17711.32, 20568.95, 65678.34, 110663.26, 0.00, 0.00, 0.00
28, 79555.09, 102020.11, -5788.56, 48368.66, 17696.39, 20566.15, 65693.63, 110664.69, 0.00, 0.00, 0.00
29, 79559.60, 102027.02, -5785.15, 48381.94, 17700.79, 20568.88, 65699.30, 110669.12, 0.00, 0.00, 0.00
30, 79560.77, 102027.77, -5784.68, 48385.96, 17702.09, 20573.80, 65717.16, 110669.27, 0.00, 0.00, 0.00
31, 79560.43, 102025.14, -5788.70, 48387.01, 17687.74, 20564.21, 65705.05, 110665.30, 0.00, 0.00, 0.00
32, 79567.71, 102024.58, -5788.52, 48382.56, 17713.87, 20573.64, 65692.11, 110669.32, 0.00, 0.00, 0.00
33, 79568.34, 102027.87, -5789.33, 48375.03, 17698.96, 20570.38, 65702.91, 110670.88, 0.00, 0.00, 0.00
34, 79560.27, 102025.12, -5791.34, 48370.65, 17695.23, 20565.24, 65697.48, 110662.34, 0.00, 0.00, 0.00
35, 79565.19, 102022.50, -5789.48, 48367.52, 17687.11, 20567.13, 65698.08, 110668.47, 0.08, -0.31, 0.96
36, 79564.45, 102017.94, -5791.87, 48362.22, 17692.90, 20563.80, 65687.38, 110668.45, 0.00, 0.00, 0.00
37, 79565.16, 102019.62, -5793.50, 48365.91, 17700.35, 20569.01, 65690.19, 110665.52, 0.00, 0.00, 0.00
38, 79559.71, 102022.52, -5790.58, 48368.70, 17702.51, 20571.43, 65689.31, 110659.21, 0.00, 0.00, 0.00
39, 79563.60, 102027.84, -5789.57, 48369.26, 17701.31, 20579.21, 65691.02, 110661.49, 0.00, 0.00, 0.00
40, 79559.94, 102028.94, -5790.53, 48365.33, 17690.94, 20578.78, 65689.96, 110656.73, 0.00, 0.00, 0.00
41, 79554.30, 102024.98, -5790.24, 48364.90, 17694.24, 20578.67, 65698.68, 110654.77, 0.00, 0.00, 0.00
42, 79555.63, 102025.90, -5792.54, 48366.47, 17702.27, 20579.65, 65699.62, 110657.98, 0.00, 0.00, 0.00
43, 79561.57, 102020.69, -5794.71, 48371.05, 17688.01, 20577.71, 65709.05, 110659.46, 0.00, 0.00, 0.00
44, 79559.89, 102024.94, -5793.48, 48369.69, 17699.92, 20586.60, 65702.26, 110657.18, 0.00, 0.00, 0.00
45, 79552.85, 102028.63, -5790.46, 48369.69, 17709.51, 20590.31, 65701.07, 110654.50, 0.08, -0.31, 0.96
46, 79552.60, 102027.17, -5792.28, 48370.09, 17696.72, 20578.83, 65686.39, 110657.18, 0.00, 0.00, 0.00
47, 79555.80, 102028.42, -5791.20, 48369.48, 17699.29, 20583.56, 65692.45, 110656.55, 0.00, 0.00, 0.00
48, 79555.42, 102032.65, -5791.36, 48368.75, 17691.27, 20584.19, 65698.15, 110653.34, 0.00, 0.00, 0.00
49, 79553.70, 102031.87, -5795.99, 48365.35, 17697.37, 20586.69, 65700.96, 110652.62, 0.00, 0.00, 0.00
50, 79558.59, 102032.60, -5798.40, 48366.11, 17710.36, 20595.16, 65713.14, 110656.46, 0.00, 0.00, 0.00
51, 79560.72, 102031.93, -5791.87, 48382.76, 17722.50, 20592.42, 65698.01, 110657.47, 0.00, 0.00, 0.00
52, 79558.98, 102028.24, -5797.37, 48379.23, 17709.24, 20586.83, 65699.48, 110653.83, 0.00, 0.00, 0.00
53, 79555.80, 102030.95, -5800.52, 48372.13, 17706.45, 20588.48, 65708.00, 110650.77, 0.00, 0.00, 0.00
54, 79556.31, 102035.33, -5795.92, 48377.49, 17712.19, 20591.32, 65710.73, 110651.26, 0.00, 0.00, 0.00
55, 79551.33, 102035.87, -5794.18, 48383.90, 17702.92, 20589.53, 65715.34, 110650.05, 0.08, -0.30, 0.96
56, 79553.19, 102032.23, -5794.82, 48381.71, 17711.75, 20591.74, 65723.16, 110650.45, 0.00, 0.00, 0.00
57, 79554.95, 102030.14, -5792.70, 48376.77, 17716.44, 20590.45, 65709.79, 110652.11, 0.00, 0.00, 0.00
58, 79551.78, 102014.90, -5796.61, 48374.49, 17713.94, 20590.27, 65719.63, 110647.48, 0.00, 0.00, 0.00
59, 79551.04, 101981.77, -5802.29, 48376.08, 17709.42, 20594.27, 65720.25, 110647.26, 0.00, 0.00, 0.00
60, 79553.79, 101980.81, -5798.58, 48378.74, 17695.72, 20591.83, 65723.60, 110653.58, 0.00, 0.00, 0.00
61, 79555.98, 101983.50, -5798.51, 48379.19, 17697.51, 20585.20, 65725.33, 110656.55, 0.00, 0.00, 0.00
62, 79554.46, 101983.74, -5802.56, 48379.48, 17710.81, 20584.44, 65744.68, 110657.36, 0.00, 0.00, 0.00
63, 79557.45, 101991.88, -5800.21, 48388.08, 17716.01, 20592.30, 65718.77, 110664.91, 0.00, 0.00, 0.00
64, 79556.54, 101998.96, -5800.21, 48387.12, 17718.74, 20594.49, 65723.94, 110667.80, 0.00, 0.00, 0.00
65, 79555.96, 102001.60, -5793.55, 48386.36, 17710.36, 20594.54, 65738.91, 110668.76, 0.08, -0.30, 0.96
66, 79556.25, 101999.95, -5791.72, 48382.34, 17701.66, 20590.27, 65737.80, 110672.27, 0.00, 0.00, 0.00
67, 79564.74, 101998.85, -5795.40, 48382.56, 17718.92, 20590.00, 65726.45, 110677.63, 0.00, 0.00, 0.00
68, 79554.59, 102000.55, -5796.90, 48384.17, 17714.90, 20589.20, 65730.35, 110658.41, 0.00, 0.00, 0.00
69, 79547.64, 102006.97, -5797.68, 48387.57, 17716.19, 20592.73, 65730.11, 110649.49, 0.00, 0.00, 0.00
70, 79547.80, 102009.16, -5794.71, 48392.48, 17711.77, 20592.75, 65732.59, 110656.09, 0.00, 0.00, 0.00
71, 79551.29, 102006.74, -5798.96, 48389.58, 17699.72, 20587.88, 65732.39, 110657.41, 0.00, 0.00, 0.00
72, 79546.75, 102003.05, -5802.20, 48391.97, 17693.66, 20581.44, 65735.02, 110655.23, 0.00, 0.00, 0.00
73, 79540.05, 102012.66, -5793.75, 48398.77, 17702.74, 20583.50, 65739.00, 110654.61, 0.00, 0.00, 0.00
74, 79538.99, 102020.84, -5793.46, 48392.20, 17721.69, 20587.65, 65743.16, 110654.07, 0.00, 0.00, 0.00
75, 79544.29, 102020.98, -5800.52, 48389.18, 17710.45, 20584.86, 65736.50, 110662.39, 0.08, -0.29, 0.96
76, 79538.19, 102014.34, -5804.79, 48384.11, 17700.93, 20573.91, 65721.59, 110652.27, 0.00, 0.00, 0.00
77, 79543.87, 102013.60, -5796.30, 48381.87, 17709.06, 20575.41, 65735.77, 110657.29, 0.00, 0.00, 0.00
78, 79542.41, 102017.07, -5793.33, 48384.44, 17705.49, 20573.97, 65737.55, 110657.11, 0.00, 0.00, 0.00
79, 79542.21, 102022.77, -5794.60, 48392.29, 17702.54, 20580.05, 65733.26, 110654.16, 0.00, 0.00, 0.00
80, 79541.38, 102025.18, -5797.93, 48385.56, 17699.29, 20578.27, 65744.44, 110652.06, 0.00, 0.00, 0.00
81, 79536.69, 102022.39, -5796.28, 48391.57, 17711.37, 20575.85, 65745.93, 110649.70, 0.00, 0.00, 0.00
82, 79532.55, 102017.88, -5799.92, 48391.55, 17705.84, 20575.52, 65724.92, 110646.98, 0.00, 0.00, 0.00
83, 79536.91, 102019.37, -5806.71, 48387.23, 17705.26, 20572.86, 65732.61, 110651.16, 0.00, 0.00, 0.00
84, 79541.12, 102024.29, -5804.68, 48390.81, 17713.82, 20577.19, 65732.41, 110653.89, 0.00, 0.00, 0.00
85, 79542.46, 102026.88, -5799.36, 48389.69, 17708.93, 20577.82, 65742.02, 110655.46, 0.08, -0.30, 0.95
86, 79543.28, 102023.28, -5803.54, 48382.38, 17698.65, 20569.68, 65741.89, 110656.66, 0.00, 0.00, 0.00
87, 79548.36, 102021.27, -5808.75, 48379.23, 17697.53, 20565.15, 65733.88, 110658.92, 0.00, 0.00, 0.00
88, 79550.98, 102023.95, -5809.71, 48382.09, 17705.02, 20571.25, 65743.56, 110662.21, 0.00, 0.00, 0.00
89, 79553.09, 102028.60, -5809.44, 48383.28, 17709.76, 20580.30, 65746.52, 110664.66, 0.00, 0.00, 0.00
90, 79545.99, 102028.34, -5809.13, 48389.18, 17707.99, 20582.78, 65737.57, 110656.95, 0.00, 0.00, 0.00
91, 79547.27, 102026.79, -5808.53, 48387.50, 17696.72, 20578.63, 65748.64, 110659.75, 0.00, 0.00, 0.00
92, 79548.18, 102025.27, -5806.76, 48385.40, 17693.48, 20568.23, 65754.96, 110661.29, 0.00, 0.00, 0.00
93, 79549.38, 102027.15, -5805.46, 48386.61, 17700.59, 20573.15, 65729.28, 110662.30, 0.00, 0.00, 0.00
94, 79549.81, 102033.92, -5802.71, 48394.39, 17707.43, 20581.11, 65743.56, 110663.69, 0.00, 0.00, 0.00
95, 79554.86, 102035.69, -5804.77, 48392.60, 17713.67, 20582.69, 65752.64, 110666.92, 0.09, -0.30, 0.95
96, 79556.63, 102031.30, -5810.38, 48388.66, 17705.29, 20583.47, 65739.83, 110665.90, 0.00, 0.00, 0.00
97, 79558.98, 102029.66, -5811.23, 48389.94, 17716.13, 20582.67, 65751.97, 110665.59, 0.00, 0.00, 0.00
98, 79559.18, 102032.49, -5802.38, 48393.09, 17721.09, 20582.11, 65753.24, 110666.68, 0.00, 0.00, 0.00
99, 79555.17, 102033.85, -5800.77, 48396.20, 17704.32, 20586.07, 65754.09, 110662.01, 0.00, 0.00, 0.00
100, 79559.67, 102034.44, -5802.87, 48402.12, 17704.88, 20587.79, 65761.65, 110665.34, 0.00, 0.00, 0.00
101, 79553.45, 102032.16, -5799.90, 48399.48, 17731.17, 20593.18, 65764.89, 110662.19, 0.00, 0.00, 0.00
102, 79551.38, 102030.91, -5805.24, 48391.68, 17727.73, 20587.07, 65758.63, 110656.73, 0.00, 0.00, 0.00
103, 79552.29, 102031.80, -5803.63, 48388.75, 17704.30, 20583.63, 65766.70, 110655.13, 0.00, 0.00, 0.00
104, 79548.36, 102035.22, -5807.23, 48387.41, 17713.78, 20588.50, 65749.82, 110651.93, 0.08, -0.30, 0.95
105, 79547.24, 102039.71, -5804.79, 48396.87, 17719.81, 20591.05, 65750.47, 110649.65, 0.00, 0.00, 0.00
106, 79551.69, 102039.06, -5803.27, 48402.37, 17728.98, 20588.55, 65750.02, 110651.57, 0.00, 0.00, 0.00
107, 79556.13, 102032.24, -5809.64, 48397.56, 17730.54, 20587.52, 65754.34, 110654.09, 0.00, 0.00, 0.00
108, 79553.30, 102031.55, -5817.35, 48389.38, 17717.31, 20580.21, 65742.31, 110649.55, 0.00, 0.00, 0.00
109, 79550.77, 102038.41, -5818.07, 48394.16, 17707.21, 20579.99, 65744.55, 110646.07, 0.00, 0.00, 0.00
110, 79547.24, 102039.27, -5815.81, 48391.46, 17704.15, 20583.23, 65748.70, 110646.25, 0.00, 0.00, 0.00
111, 79546.86, 102036.78, -5809.13, 48385.80, 17715.79, 20582.25, 65749.69, 110644.17, 0.00, 0.00, 0.00
112, 79545.92, 102034.05, -5806.67, 48382.70, 17718.99, 20579.43, 65747.27, 110640.98, 0.00, 0.00, 0.00
113, 79543.58, 102036.67, -5810.47, 48384.91, 17709.20, 20578.65, 65749.29, 110639.97, 0.00, 0.00, 0.00
114, 79541.12, 102039.76, -5814.05, 48385.36, 17694.74, 20576.41, 65748.13, 110636.23, 0.08, -0.29, 0.95
115, 79548.20, 102045.43, -5805.95, 48391.50, 17724.73, 20593.76, 65752.08, 110638.36, 0.00, 0.00, 0.00
116, 79551.38, 102043.33, -5807.32, 48395.08, 17730.99, 20592.19, 65750.60, 110636.55, 0.00, 0.00, 0.00
117, 79554.39, 102043.40, -5813.11, 48389.87, 17726.05, 20588.21, 65751.63, 110639.99, 0.00, 0.00, 0.00
118, 79562.30, 102048.77, -5813.02, 48395.57, 17718.88, 20586.85, 65761.55, 110645.71, 0.00, 0.00, 0.00
119, 79565.41, 102049.55, -5816.84, 48395.88, 17713.96, 20584.77, 65744.88, 110648.66, 0.00, 0.00, 0.00
120, 79565.93, 102048.74, -5813.51, 48396.87, 17715.05, 20588.86, 65746.00, 110651.44, 0.00, 0.00, 0.00
121, 79563.06, 102046.26, -5812.68, 48393.71, 17721.36, 20586.87, 65756.23, 110652.06, 0.00, 0.00, 0.00
122, 79559.53, 102046.87, -5815.19, 48392.38, 17718.94, 20583.03, 65765.58, 110650.92, 0.00, 0.00, 0.00
123, 79565.16, 102049.27, -5816.91, 48395.05, 17704.53, 20582.63, 65760.46, 110650.83, 0.00, 0.00, 0.00
124, 79566.91, 102051.78, -5817.53, 48400.18, 17716.46, 20595.75, 65761.06, 110653.05, 0.08, -0.29, 0.95
125, 79567.24, 102051.29, -5815.86, 48409.36, 17732.24, 20600.93, 65769.42, 110654.85, 0.00, 0.00, 0.00
126, 79565.48, 102050.98, -5813.96, 48408.04, 17736.42, 20596.51, 65768.40, 110652.35, 0.00, 0.00, 0.00
127, 79556.25, 102044.96, -5813.29, 48400.24, 17730.56, 20588.71, 65761.34, 110638.72, 0.00, 0.00, 0.00
128, 79555.09, 102045.37, -5812.48, 48400.51, 17725.36, 20590.34, 65761.73, 110636.15, 0.00, 0.00, 0.00
129, 79557.21, 102048.38, -5815.68, 48394.61, 17730.83, 20593.55, 65764.02, 110638.83, 0.00, 0.00, 0.00
130, 79557.43, 102052.79, -5814.49, 48402.21, 17736.33, 20603.77, 65772.22, 110639.70, 0.00, 0.00, 0.00
131, 79557.21, 102054.38, -5813.62, 48408.51, 17737.74, 20598.45, 65773.60, 110639.32, 0.00, 0.00, 0.00
132, 79559.63, 102052.48, -5811.10, 48402.86, 17722.90, 20584.75, 65774.50, 110640.15, 0.00, 0.00, 0.00
133, 79556.31, 102056.63, -5805.53, 48402.10, 17724.17, 20582.96, 65749.11, 110638.92, 0.00, 0.00, 0.00
134, 79559.98, 102061.23, -5805.95, 48412.45, 17740.06, 20594.38, 65763.03, 110641.98, 0.08, -0.30, 0.95
135, 79564.32, 102062.95, -5807.12, 48416.04, 17740.15, 20596.75, 65768.76, 110646.36, 0.00, 0.00, 0.00
136, 79565.75, 102059.27, -5806.85, 48408.73, 17725.78, 20587.92, 65766.79, 110645.42, 0.00, 0.00, 0.00
137, 79564.79, 102051.76, -5800.08, 48397.56, 17714.83, 20575.88, 65756.93, 110640.35, 0.00, 0.00, 0.00
138, 79563.13, 102054.17, -5806.63, 48400.60, 17725.92, 20580.79, 65754.29, 110638.52, 0.00, 0.00, 0.00
139, 79560.90, 102059.85, -5811.63, 48402.12, 17721.54, 20584.17, 65755.01, 110638.72, 0.00, 0.00, 0.00
140, 79562.35, 102059.31, -5811.65, 48405.23, 17735.35, 20593.80, 65760.82, 110637.73, 0.00, 0.00, 0.00
141, 79564.12, 102057.97, -5811.43, 48403.33, 17743.17, 20595.43, 65768.35, 110639.32, 0.00, 0.00, 0.00
142, 79563.29, 102058.80, -5808.53, 48402.43, 17739.55, 20592.95, 65765.85, 110639.45, 0.00, 0.00, 0.00
143, 79562.02, 102061.41, -5808.59, 48404.36, 17737.14, 20587.25, 65761.16, 110635.90, 0.00, 0.00, 0.00
144, 79558.33, 102062.84, -5808.32, 48404.18, 17721.09, 20583.05, 65758.98, 110631.95, 0.07, -0.30, 0.96
145, 79558.75, 102062.29, -5809.15, 48405.54, 17725.98, 20586.72, 65773.16, 110633.78, 0.00, 0.00, 0.00
146, 79559.60, 102060.72, -5809.60, 48409.59, 17752.76, 20600.24, 65768.64, 110635.30, 0.00, 0.00, 0.00
147, 79563.02, 102058.71, -5808.70, 48405.43, 17751.13, 20598.38, 65759.08, 110636.05, 0.00, 0.00, 0.00
148, 79564.70, 102061.02, -5810.51, 48404.73, 17744.42, 20597.98, 65778.30, 110637.31, 0.00, 0.00, 0.00
149, 79564.95, 102065.80, -5809.58, 48410.90, 17741.21, 20602.43, 65778.52, 110639.19, 0.00, 0.00, 0.00
150, 79564.52, 102065.10, -5812.03, 48406.12, 17721.98, 20597.53, 65773.27, 110637.69, 0.00, 0.00, 0.00
151, 79567.47, 102063.16, -5814.07, 48408.89, 17723.53, 20596.86, 65774.05, 110638.60, 0.00, 0.00, 0.00
152, 79572.19, 102062.04, -5809.91, 48411.89, 17746.19, 20600.22, 65782.12, 110644.75, 0.00, 0.00, 0.00
153, 79568.50, 102065.26, -5799.92, 48409.38, 17765.34, 20603.37, 65783.84, 110647.08, 0.00, 0.00, 0.00
154, 79567.00, 102070.80, -5800.19, 48410.21, 17754.91, 20601.87, 65777.85, 110643.21, 0.08, -0.31, 0.96
155, 79567.96, 102070.42, -5806.69, 48418.30, 17759.82, 20607.41, 65782.63, 110647.21, 0.00, 0.00, 0.00
156, 79565.48, 102068.63, -5804.23, 48419.49, 17767.58, 20611.48, 65786.91, 110649.09, 0.00, 0.00, 0.00
157, 79567.54, 102068.14, -5809.49, 48415.75, 17763.06, 20611.86, 65792.34, 110649.13, 0.00, 0.00, 0.00
158, 79563.16, 102067.07, -5811.01, 48413.61, 17750.14, 20604.13, 65785.88, 110641.49, 0.00, 0.00, 0.00
159, 79561.86, 102070.83, -5806.11, 48415.13, 17746.77, 20604.84, 65791.76, 110636.66, 0.00, 0.00, 0.00
160, 79562.30, 102071.52, -5803.03, 48408.22, 17744.18, 20606.14, 65792.94, 110638.80, 0.00, 0.00, 0.00
161, 79566.30, 102067.54, -5803.83, 48401.38, 17735.95, 20599.93, 65769.18, 110639.01, 0.00, 0.00, 0.00
162, 79570.35, 102066.65, -5801.22, 48410.75, 17741.52, 20595.88, 65785.74, 110643.45, 0.00, 0.00, 0.00
163, 79571.80, 102069.70, -5803.21, 48409.77, 17741.16, 20599.17, 65787.95, 110647.26, 0.00, 0.00, 0.00
164, 79570.17, 102074.16, -5802.71, 48409.43, 17740.31, 20599.12, 65779.41, 110643.91, 0.08, -0.30, 0.95
165, 79567.31, 102076.23, -5802.83, 48409.74, 17746.88, 20600.35, 65775.98, 110641.06, 0.00, 0.00, 0.00
166, 79569.28, 102073.28, -5803.32, 48409.47, 17751.06, 20603.03, 65781.25, 110643.12, 0.00, 0.00, 0.00
167, 79569.73, 102070.00, -5805.24, 48408.76, 17743.89, 20600.22, 65788.54, 110640.33, 0.00, 0.00, 0.00
168, 79574.15, 102078.60, -5804.01, 48413.36, 17753.34, 20605.51, 65792.89, 110645.06, 0.00, 0.00, 0.00
169, 79573.05, 102083.23, -5802.38, 48415.06, 17730.77, 20606.05, 65787.73, 110643.27, 0.00, 0.00, 0.00
170, 79567.24, 102079.52, -5803.52, 48415.20, 17730.23, 20607.26, 65787.64, 110638.96, 0.00, 0.00, 0.00
171, 79560.49, 102072.99, -5808.91, 48410.73, 17748.04, 20608.15, 65786.45, 110635.27, 0.00, 0.00, 0.00
172, 79559.60, 102073.46, -5802.87, 48406.93, 17746.30, 20605.63, 65785.05, 110635.30, 0.00, 0.00, 0.00
173, 79564.98, 102076.79, -5799.92, 48410.61, 17763.85, 20610.65, 65786.59, 110635.84, 0.00, 0.00, 0.00
174, 79568.05, 102079.63, -5804.23, 48415.91, 17764.52, 20611.71, 65785.97, 110636.02, 0.08, -0.30, 0.95
175, 79564.83, 102078.40, -5803.79, 48416.27, 17748.65, 20608.71, 65783.51, 110636.70, 0.00, 0.00, 0.00
176, 79565.41, 102079.50, -5799.34, 48420.94, 17767.80, 20617.63, 65790.88, 110637.02, 0.00, 0.00, 0.00
177, 79566.84, 102076.93, -5804.84, 48416.74, 17751.89, 20605.69, 65801.25, 110634.13, 0.00, 0.00, 0.00
178, 79564.25, 102078.06, -5803.59, 48416.04, 17731.91, 20598.34, 65781.38, 110632.13, 0.00, 0.00, 0.00
179, 79556.88, 102082.09, -5800.81, 48414.19, 17757.74, 20607.88, 65773.25, 110625.58, 0.00, 0.00, 0.00
180, 79556.41, 102080.44, -5805.62, 48414.30, 17759.60, 20610.83, 65778.79, 110624.50, 0.00, 0.00, 0.00
181, 79556.94, 102077.59, -5807.97, 48415.98, 17765.10, 20612.46, 65784.71, 110623.63, 0.00, 0.00, 0.00
182, 79560.38, 102074.34, -5808.26, 48410.82, 17753.56, 20606.43, 65779.98, 110625.46, 0.00, 0.00, 0.00
183, 79567.27, 102079.77, -5798.65, 48418.97, 17754.66, 20609.74, 65786.28, 110631.20, 0.00, 0.00, 0.00
184, 79568.66, 102085.40, -5800.75, 48422.66, 17761.12, 20613.25, 65789.36, 110633.27, 0.08, -0.30, 0.96
185, 79566.48, 102085.11, -5803.05, 48418.30, 17758.73, 20612.73, 65786.52, 110631.70, 0.00, 0.00, 0.00
186, 79563.45, 102081.22, -5805.66, 48416.71, 17746.79, 20607.39, 65787.35, 110628.93, 0.00, 0.00, 0.00
187, 79558.55, 102080.05, -5801.26, 48417.21, 17753.59, 20602.56, 65782.43, 110622.80, 0.00, 0.00, 0.00
188, 79559.55, 102085.42, -5794.98, 48425.30, 17771.45, 20612.69, 65791.20, 110623.61, 0.00, 0.00, 0.00
189, 79560.45, 102089.35, -5794.96, 48423.24, 17763.67, 20612.96, 65802.15, 110622.34, 0.00, 0.00, 0.00
190, 79561.77, 102090.09, -5800.14, 48418.53, 17749.43, 20613.83, 65801.32, 110625.84, 0.00, 0.00, 0.00
191, 79564.85, 102089.96, -5798.47, 48418.55, 17751.15, 20611.84, 65808.88, 110627.36, 0.00, 0.00, 0.00
192, 79565.46, 102089.65, -5800.75, 48414.39, 17771.74, 20612.38, 65805.01, 110629.76, 0.00, 0.00, 0.00
193, 79571.58, 102093.45, -5804.01, 48411.55, 17776.59, 20621.63, 65794.23, 110635.34, 0.00, 0.00, 0.00
194, 79575.49, 102096.08, -5806.13, 48405.61, 17765.68, 20619.77, 65800.88, 110635.86, 0.08, -0.30, 0.96
195, 79569.16, 102095.81, -5806.56, 48403.10, 17751.96, 20610.99, 65798.80, 110633.60, 0.00, 0.00, 0.00
196, 79563.89, 102093.47, -5809.91, 48404.29, 17734.01, 20596.37, 65794.21, 110627.56, 0.00, 0.00, 0.00
197, 79561.10, 102090.20, -5815.28, 48402.50, 17738.01, 20594.20, 65793.36, 110623.61, 0.00, 0.00, 0.00
198, 79560.83, 102089.73, -5815.03, 48407.66, 17751.69, 20599.46, 65795.40, 110627.34, 0.00, 0.00, 0.00
199, 79562.64, 102090.18, -5815.75, 48413.39, 17759.47, 20607.68, 65799.60, 110630.07, 0.00, 0.00, 0.00
200, 79563.63, 102088.10, -5813.89, 48411.29, 17748.87, 20610.81, 65801.05, 110631.72, 0.00, 0.00, 0.00
201, 79567.34, 102089.65, -5799.99, 48412.85, 17740.74, 20604.98, 65803.66, 110632.21, 0.00, 0.00, 0.00
202, 79569.41, 102093.22, -5804.84, 48408.54, 17750.44, 20602.52, 65796.67, 110633.76, 0.00, 0.00, 0.00
203, 79564.34, 102091.88, -5813.67, 48403.93, 17747.17, 20601.47, 65793.16, 110629.66, 0.00, 0.00, 0.00
204, 79563.89, 102096.91, -5811.07, 48411.62, 17753.54, 20606.34, 65790.66, 110631.52, 0.08, -0.30, 0.95
205, 79576.52, 102099.37, -5810.38, 48412.07, 17766.08, 20608.55, 65793.07, 110639.30, 0.00, 0.00, 0.00
206, 79577.59, 102093.80, -5810.36, 48400.62, 17752.13, 20596.48, 65799.53, 110634.29, 0.00, 0.00, 0.00
207, 79574.91, 102089.00, -5813.02, 48400.13, 17756.00, 20595.84, 65794.97, 110634.16, 0.00, 0.00, 0.00
208, 79575.23, 102089.98, -5813.96, 48398.59, 17751.53, 20596.97, 65790.10, 110636.46, 0.00, 0.00, 0.00
209, 79579.65, 102095.14, -5814.16, 48396.13, 17740.62, 20589.17, 65789.77, 110638.27, 0.00, 0.00, 0.00
210, 79576.74, 102093.69, -5818.58, 48395.57, 17748.96, 20585.11, 65790.08, 110633.45, 0.00, 0.00, 0.00
211, 79575.29, 102095.44, -5818.14, 48402.66, 17772.50, 20596.06, 65794.16, 110633.17, 0.00, 0.00, 0.00
212, 79567.34, 102092.55, -5819.66, 48404.82, 17761.50, 20590.56, 65799.38, 110628.16, 0.00, 0.00, 0.00
213, 79567.80, 102093.06, -5817.29, 48402.84, 17744.24, 20583.12, 65800.54, 110632.59, 0.00, 0.00, 0.00
214, 79576.25, 102098.54, -5815.19, 48398.36, 17745.59, 20584.39, 65795.80, 110635.72, 0.08, -0.30, 0.95
215, 79568.36, 102100.71, -5816.46, 48403.95, 17758.75, 20592.21, 65787.69, 110622.22, 0.00, 0.00, 0.00
216, 79566.80, 102095.68, -5814.16, 48403.39, 17749.25, 20584.48, 65785.34, 110618.76, 0.00, 0.00, 0.00
217, 79567.38, 102092.62, -5814.85, 48399.30, 17757.99, 20581.91, 65797.48, 110622.18, 0.00, 0.00, 0.00
218, 79560.98, 102093.18, -5819.61, 48396.51, 17742.66, 20577.28, 65788.65, 110613.98, 0.00, 0.00, 0.00
219, 79557.21, 102095.95, -5823.05, 48395.19, 17735.13, 20574.40, 65779.41, 110609.81, 0.00, 0.00, 0.00
220, 79555.35, 102096.71, -5822.41, 48398.36, 17741.14, 20575.94, 65785.41, 110611.41, 0.00, 0.00, 0.00
221, 79553.77, 102096.02, -5818.92, 48398.77, 17761.50, 20583.68, 65791.40, 110608.01, 0.00, 0.00, 0.00
222, 79555.73, 102096.20, -5811.95, 48401.88, 17759.64, 20582.20, 65793.43, 110608.45, 0.00, 0.00, 0.00
223, 79550.37, 102094.79, -5813.96, 48397.58, 17756.31, 20580.08, 65791.51, 110605.34, 0.00, 0.00, 0.00
224, 79547.91, 102098.98, -5812.91, 48405.09, 17756.22, 20583.38, 65790.88, 110599.84, 0.08, -0.30, 0.95
225, 79547.80, 102100.20, -5812.46, 48399.48, 17748.11, 20580.23, 65786.05, 110598.48, 0.00, 0.00, 0.00
226, 79546.70, 102096.28, -5819.63, 48392.66, 17748.87, 20578.78, 65785.74, 110602.28, 0.00, 0.00, 0.00
227, 79549.32, 102092.05, -5827.05, 48385.73, 17748.02, 20573.91, 65786.79, 110604.72, 0.00, 0.00, 0.00
228, 79553.90, 102092.23, -5829.47, 48385.63, 17750.66, 20577.42, 65788.05, 110606.11, 0.00, 0.00, 0.00
229, 79560.31, 102095.03, -5832.22, 48384.57, 17743.22, 20581.40, 65789.97, 110611.18, 0.00, 0.00, 0.00
230, 79564.97, 102100.24, -5825.15, 48392.17, 17746.61, 20580.90, 65787.20, 110615.65, 0.00, 0.00, 0.00
231, 79564.70, 102101.16, -5822.58, 48385.67, 17731.50, 20569.15, 65784.09, 110615.83, 0.00, 0.00, 0.00
232, 79561.45, 102092.30, -5824.35, 48378.70, 17746.81, 20568.14, 65790.62, 110614.45, 0.00, 0.00, 0.00
233, 79560.83, 102091.57, -5826.09, 48372.17, 17755.62, 20570.40, 65800.16, 110609.57, 0.00, 0.00, 0.00
234, 79568.85, 102098.25, -5829.49, 48374.11, 17748.36, 20574.62, 65808.85, 110609.21, 0.08, -0.30, 0.96
235, 79571.94, 102100.66, -5829.04, 48377.13, 17748.54, 20579.68, 65818.94, 110609.93, 0.00, 0.00, 0.00
236, 79566.77, 102097.29, -5829.60, 48375.63, 17740.31, 20576.48, 65824.56, 110611.98, 0.00, 0.00, 0.00
237, 79560.56, 102093.47, -5835.01, 48371.95, 17729.22, 20574.76, 65829.59, 110614.82, 0.00, 0.00, 0.00
238, 79561.55, 102097.65, -5827.39, 48368.70, 17749.41, 20580.95, 65832.93, 110612.72, 0.00, 0.00, 0.00
239, 79567.67, 102101.78, -5826.00, 48365.35, 17758.86, 20588.53, 65841.42, 110611.67, 0.00, 0.00, 0.00
240, 79568.59, 102103.64, -5829.09, 48370.87, 17759.64, 20595.52, 65848.02, 110610.91, 0.00, 0.00, 0.00
241, 79566.42, 102102.74, -5827.90, 48376.24, 17755.96, 20590.87, 65845.60, 110608.66, 0.00, 0.00, 0.00
242, 79568.16, 102102.72, -5824.22, 48375.97, 17737.88, 20580.81, 65842.96, 110608.56, 0.00, 0.00, 0.00
243, 79565.75, 102103.26, -5828.13, 48366.51, 17725.71, 20577.42, 65848.77, 110604.34, 0.00, 0.00, 0.00
244, 79566.84, 102107.23, -5825.24, 48367.27, 17748.11, 20580.70, 65842.38, 110601.21, 0.08, -0.30, 0.96
245, 79571.91, 102113.59, -5822.54, 48378.23, 17770.73, 20589.29, 65831.96, 110603.31, 0.00, 0.00, 0.00
246, 79568.16, 102112.17, -5825.40, 48378.16, 17761.79, 20584.55, 65838.91, 110604.36, 0.00, 0.00, 0.00
247, 79570.27, 102109.38, -5829.07, 48378.00, 17757.32, 20583.27, 65842.25, 110608.52, 0.00, 0.00, 0.00
248, 79571.70, 102112.84, -5825.20, 48378.96, 17754.46, 20587.28, 65847.63, 110610.04, 0.00, 0.00, 0.00
249, 79568.36, 102117.92, -5820.26, 48377.87, 17759.78, 20595.08, 65848.88, 110607.34, 0.00, 0.00, 0.00
250, 79566.66, 102120.00, -5823.95, 48378.65, 17762.44, 20595.72, 65848.37, 110606.40, 0.00, 0.00, 0.00
251, 79560.49, 102113.31, -5829.71, 48377.46, 17756.65, 20590.05, 65844.52, 110601.61, 0.00, 0.00, 0.00
252, 79564.07, 102112.22, -5828.13, 48378.20, 17766.31, 20588.39, 65846.41, 110605.10, 0.00, 0.00, 0.00
253, 79568.19, 102111.84, -5833.38, 48376.17, 17763.40, 20589.15, 65849.27, 110607.60, 0.00, 0.00, 0.00
254, 79571.80, 102116.80, -5833.94, 48375.57, 17754.41, 20591.90, 65844.10, 110608.50, 0.08, -0.30, 0.95
255, 79563.55, 102116.73, -5833.04, 48374.07, 17756.65, 20592.35, 65841.64, 110603.63, 0.00, 0.00, 0.00
0, 79562.09, 102114.48, -5822.23, 48375.81, 17762.10, 20592.51, 65842.36, 110601.97, 0.00, 0.00, 0.00
1, 79564.90, 102113.85, -5826.07, 48381.31, 17759.15, 20592.30, 65844.46, 110606.09, 0.00, 0.00, 0.00
2, 79562.40, 102113.13, -5831.06, 48380.82, 17749.94, 20588.08, 65840.50, 110607.07, 0.00, 0.00, 0.00
3, 79564.34, 102119.15, -5824.69, 48383.37, 17763.89, 20595.99, 65841.17, 110606.38, 0.00, 0.00, 0.00
4, 79565.01, 102120.29, -5818.78, 48385.56, 17759.58, 20593.78, 65840.55, 110604.66, 0.00, 0.00, 0.00
5, 79567.70, 102115.70, -5821.87, 48389.65, 17759.67, 20590.31, 65841.82, 110603.42, 0.00, 0.00, 0.00
6, 79571.89, 102113.78, -5825.62, 48385.33, 17761.48, 20590.22, 65841.80, 110606.17, 0.00, 0.00, 0.00
7, 79570.22, 102116.53, -5826.14, 48388.15, 17760.45, 20590.52, 65853.58, 110606.95, 0.00, 0.00, 0.00
8, 79568.20, 102121.67, -5826.59, 48391.19, 17775.98, 20604.46, 65840.84, 110608.52, 0.08, -0.31, 0.96
9, 79570.95, 102122.10, -5828.69, 48388.24, 17761.01, 20601.27, 65837.28, 110611.09, 0.00, 0.00, 0.00
10, 79568.43, 102116.22, -5835.06, 48381.09, 17770.89, 20603.41, 65841.66, 110611.76, 0.00, 0.00, 0.00
11, 79566.82, 102116.04, -5828.37, 48392.17, 17781.33, 20604.26, 65843.72, 110611.25, 0.00, 0.00, 0.00
12, 79567.70, 102119.38, -5828.55, 48389.07, 17766.80, 20594.85, 65840.28, 110610.64, 0.00, 0.00, 0.00
13, 79569.81, 102124.47, -5824.66, 48384.95, 17755.35, 20591.86, 65837.84, 110609.75, 0.00, 0.00, 0.00
14, 79568.59, 102122.75, -5826.36, 48381.78, 17743.66, 20589.91, 65835.50, 110609.84, 0.00, 0.00, 0.00
15, 79570.38, 102119.91, -5830.81, 48378.07, 17759.06, 20592.82, 65836.23, 110609.30, 0.00, 0.00, 0.00
16, 79569.39, 102120.53, -5833.56, 48381.55, 17770.08, 20593.98, 65839.23, 110607.65, 0.00, 0.00, 0.00
17, 79571.05, 102122.57, -5829.87, 48401.76, 17770.78, 20595.66, 65839.84, 110609.75, 0.00, 0.00, 0.00
18, 79569.41, 102121.25, -5834.90, 48402.54, 17766.26, 20596.93, 65836.57, 110605.88, 0.08, -0.30, 0.96
19, 79576.79, 102123.73, -5833.45, 48406.07, 17773.50, 20599.84, 65839.70, 110610.42, 0.00, 0.00, 0.00
20, 79580.52, 102121.83, -5828.69, 48407.66, 17775.83, 20598.79, 65835.61, 110610.27, 0.00, 0.00, 0.00
21, 79572.07, 102115.35, -5834.83, 48397.47, 17769.55, 20593.20, 65827.36, 110603.96, 0.00, 0.00, 0.00
22, 79561.08, 102118.12, -5826.27, 48388.24, 17751.38, 20578.78, 65817.10, 110595.35, 0.00, 0.00, 0.00
23, 79563.20, 102123.80, -5827.95, 48387.57, 17753.56, 20579.00, 65814.93, 110596.05, 0.00, 0.00, 0.00
24, 79564.27, 102125.52, -5825.60, 48391.55, 17746.97, 20581.08, 65811.34, 110596.27, 0.00, 0.00, 0.00
25, 79565.34, 102122.81, -5830.59, 48395.08, 17751.40, 20578.89, 65816.27, 110599.27, 0.00, 0.00, 0.00
26, 79567.09, 102117.72, -5837.58, 48391.26, 17754.08, 20583.68, 65817.59, 110600.56, 0.00, 0.00, 0.00
27, 79568.92, 102117.92, -5840.78, 48387.01, 17757.77, 20584.95, 65816.59, 110600.27, 0.00, 0.00, 0.00
28, 79571.02, 102123.44, -5837.29, 48387.23, 17761.77, 20589.49, 65818.87, 110601.13, 0.08, -0.30, 0.96
29, 79573.64, 102125.70, -5836.29, 48386.70, 17751.26, 20588.82, 65815.05, 110600.88, 0.00, 0.00, 0.00
30, 79576.90, 102124.42, -5836.46, 48396.53, 17730.52, 20586.54, 65813.70, 110602.09, 0.00, 0.00, 0.00
31, 79578.63, 102124.20, -5825.09, 48410.17, 17722.43, 20576.95, 65810.20, 110601.34, 0.00, 0.00, 0.00
32, 79576.55, 102127.53, -5826.43, 48404.67, 17772.03, 20592.19, 65812.02, 110601.23, 0.00, 0.00, 0.00
33, 79570.62, 102130.39, -5828.37, 48401.27, 17779.98, 20596.64, 65814.17, 110600.79, 0.00, 0.00, 0.00
34, 79572.03, 102132.27, -5827.46, 48403.04, 17776.14, 20599.19, 65819.25, 110606.44, 0.00, 0.00, 0.00
35, 79572.37, 102127.71, -5830.23, 48406.39, 17771.71, 20599.10, 65818.76, 110607.98, 0.00, 0.00, 0.00
36, 79573.08, 102124.52, -5830.45, 48399.53, 17767.31, 20594.14, 65818.94, 110608.90, 0.00, 0.00, 0.00
37, 79573.23, 102126.10, -5828.73, 48398.59, 17764.21, 20593.96, 65819.52, 110611.05, 0.00, 0.00, 0.00
38, 79576.79, 102130.28, -5828.49, 48401.34, 17755.64, 20593.87, 65818.13, 110613.26, 0.08, -0.29, 0.95
39, 79574.38, 102129.97, -5831.10, 48399.71, 17760.00, 20593.58, 65815.72, 110612.43, 0.00, 0.00, 0.00
40, 79575.11, 102129.84, -5823.28, 48409.61, 17773.46, 20597.60, 65819.31, 110612.59, 0.00, 0.00, 0.00
41, 79574.91, 102127.40, -5827.90, 48407.26, 17768.14, 20596.24, 65821.51, 110612.25, 0.00, 0.00, 0.00
42, 79574.47, 102127.80, -5824.86, 48412.87, 17766.26, 20597.78, 65822.95, 110611.36, 0.00, 0.00, 0.00
43, 79570.30, 102133.90, -5820.75, 48412.63, 17773.46, 20600.02, 65820.77, 110609.30, 0.00, 0.00, 0.00
44, 79570.84, 102135.51, -5826.76, 48407.57, 17775.49, 20601.36, 65818.64, 110610.38, 0.00, 0.00, 0.00
45, 79572.90, 102132.20, -5827.37, 48407.15, 17768.99, 20595.46, 65813.37, 110608.03, 0.00, 0.00, 0.00
46, 79579.36, 102126.59, -5831.59, 48403.71, 17768.59, 20594.63, 65815.07, 110615.13, 0.00, 0.00, 0.00
47, 79600.05, 102125.74, -5837.27, 48400.62, 17762.19, 20590.16, 65819.25, 110639.92, 0.00, 0.00, 0.00
48, 79599.66, 102134.30, -5832.75, 48407.11, 17774.71, 20595.92, 65818.20, 110634.90, 0.08, -0.29, 0.95
49, 79578.29, 102146.40, -5818.54, 48419.49, 17783.61, 20608.17, 65811.09, 110601.81, 0.00, 0.00, 0.00
50, 79578.16, 102146.69, -5818.20, 48420.45, 17779.98, 20604.24, 65814.55, 110606.22, 0.00, 0.00, 0.00
51, 79592.62, 102143.31, -5820.57, 48419.44, 17776.86, 20596.04, 65827.77, 110620.75, 0.00, 0.00, 0.00
52, 79605.45, 102147.16, -5823.23, 48416.80, 17786.98, 20600.44, 65807.20, 110628.73, 0.00, 0.00, 0.00
53, 79598.91, 102151.02, -5826.90, 48412.63, 17769.01, 20598.99, 65804.70, 110620.12, 0.00, 0.00, 0.00
54, 79594.18, 102150.33, -5820.66, 48407.60, 17766.80, 20591.52, 65799.96, 110612.48, 0.00, 0.00, 0.00
55, 79596.55, 102143.98, -5819.63, 48402.50, 17774.75, 20592.24, 65804.23, 110615.12, 0.00, 0.00, 0.00
56, 79603.48, 102141.16, -5816.28, 48410.32, 17762.71, 20587.30, 65803.51, 110625.26, 0.00, 0.00, 0.00
57, 79607.57, 102141.61, -5823.12, 48406.03, 17741.92, 20580.30, 65802.95, 110627.74, 0.00, 0.00, 0.00
58, 79614.14, 102149.99, -5822.03, 48413.83, 17784.23, 20598.61, 65813.41, 110631.72, 0.08, -0.30, 0.95
59, 79616.17, 102153.34, -5819.92, 48425.39, 17804.68, 20606.25, 65817.57, 110635.12, 0.00, 0.00, 0.00
60, 79612.62, 102150.66, -5820.08, 48415.13, 17787.54, 20594.85, 65810.10, 110629.77, 0.00, 0.00, 0.00
61, 79614.92, 102145.84, -5826.67, 48408.80, 17781.73, 20591.10, 65806.20, 110626.96, 0.00, 0.00, 0.00
62, 79612.84, 102149.08, -5821.71, 48409.50, 17796.88, 20594.65, 65808.80, 110629.02, 0.00, 0.00, 0.00
63, 79606.77, 102152.66, -5823.84, 48409.92, 17784.46, 20593.51, 65807.42, 110627.41, 0.00, 0.00, 0.00
64, 79608.73, 102154.35, -5822.50, 48408.98, 17782.85, 20598.92, 65813.01, 110630.42, 0.00, 0.00, 0.00
65, 79609.18, 102151.13, -5826.14, 48404.09, 17781.66, 20594.74, 65808.59, 110630.88, 0.00, 0.00, 0.00
66, 79607.32, 102145.59, -5830.14, 48401.98, 17772.23, 20586.87, 65800.92, 110627.56, 0.00, 0.00, 0.00
67, 79611.26, 102148.05, -5829.45, 48404.33, 17772.21, 20589.22, 65807.27, 110631.59, 0.00, 0.00, 0.00
68, 79617.09, 102153.66, -5824.69, 48411.33, 17768.65, 20594.32, 65810.91, 110634.27, 0.08, -0.31, 0.95
69, 79615.46, 102154.76, -5824.62, 48406.84, 17770.62, 20596.30, 65804.95, 110629.51, 0.00, 0.00, 0.00
70, 79619.34, 102151.07, -5829.38, 48407.53, 17774.98, 20594.74, 65807.73, 110631.14, 0.00, 0.00, 0.00
71, 79622.48, 102146.53, -5828.11, 48412.83, 17784.34, 20595.41, 65832.28, 110630.05, 0.00, 0.00, 0.00
72, 79621.59, 102150.28, -5827.70, 48411.69, 17772.52, 20593.76, 65807.49, 110625.24, 0.00, 0.00, 0.00
73, 79612.17, 102154.45, -5826.59, 48409.59, 17779.61, 20593.98, 65798.15, 110618.35, 0.00, 0.00, 0.00
74, 79611.46, 102157.75, -5825.56, 48415.40, 17784.52, 20598.90, 65802.51, 110618.69, 0.00, 0.00, 0.00
75, 79610.01, 102155.38, -5824.80, 48417.68, 17763.00, 20588.50, 65800.78, 110621.10, 0.00, 0.00, 0.00
76, 79609.18, 102152.56, -5823.57, 48414.10, 17775.83, 20586.83, 65801.88, 110623.23, 0.00, 0.00, 0.00
77, 79617.05, 102152.30, -5827.23, 48416.52, 17787.12, 20591.50, 65806.23, 110629.58, 0.00, 0.00, 0.00
78, 79626.19, 102150.44, -5831.41, 48414.68, 17787.94, 20595.43, 65806.06, 110631.03, 0.08, -0.30, 0.95
79, 79624.04, 102151.65, -5830.39, 48414.84, 17794.80, 20600.84, 65805.03, 110626.67, 0.00, 0.00, 0.00
80, 79617.05, 102151.47, -5827.48, 48413.16, 17790.13, 20593.35, 65799.60, 110625.02, 0.00, 0.00, 0.00
81, 79612.66, 102144.02, -5834.07, 48412.60, 17778.58, 20584.79, 65798.35, 110620.68, 0.00, 0.00, 0.00
82, 79610.67, 102146.62, -5831.57, 48412.40, 17777.88, 20587.77, 65803.09, 110620.23, 0.00, 0.00, 0.00
83, 79608.06, 102151.73, -5826.81, 48408.60, 17787.41, 20594.76, 65800.83, 110619.27, 0.00, 0.00, 0.00
84, 79607.23, 102151.91, -5832.44, 48411.06, 17787.79, 20594.88, 65798.03, 110620.12, 0.00, 0.00, 0.00
85, 79607.32, 102148.56, -5829.65, 48420.34, 17787.23, 20595.86, 65801.77, 110623.12, 0.00, 0.00, 0.00
86, 79608.02, 102143.65, -5829.16, 48414.59, 17775.52, 20587.83, 65799.38, 110619.27, 0.00, 0.00, 0.00
87, 79614.70, 102145.01, -5830.16, 48413.77, 17793.55, 20591.70, 65801.77, 110621.30, 0.00, 0.00, 0.00
88, 79622.03, 102149.66, -5830.05, 48415.04, 17801.17, 20597.85, 65805.39, 110625.71, 0.08, -0.30, 0.95
89, 79626.63, 102149.99, -5827.50, 48414.50, 17798.43, 20597.42, 65801.37, 110623.95, 0.00, 0.00, 0.00
90, 79627.48, 102144.05, -5835.53, 48405.29, 17780.23, 20581.89, 65795.15, 110617.20, 0.00, 0.00, 0.00
91, 79638.30, 102140.45, -5836.78, 48398.14, 17768.70, 20571.74, 65797.37, 110624.73, 0.00, 0.00, 0.00
92, 79633.56, 102146.75, -5824.22, 48413.52, 17781.15, 20587.70, 65787.09, 110634.78, 0.00, 0.00, 0.00
93, 79609.96, 102150.69, -5819.61, 48425.48, 17778.67, 20593.71, 65799.02, 110619.85, 0.00, 0.00, 0.00
94, 79604.59, 102151.85, -5823.17, 48426.68, 17810.76, 20598.03, 65806.06, 110613.15, 0.00, 0.00, 0.00
95, 79603.86, 102145.19, -5830.25, 48418.39, 17798.92, 20597.49, 65808.12, 110615.07, 0.00, 0.00, 0.00
96, 79597.35, 102142.64, -5824.64, 48417.07, 17796.17, 20594.47, 65814.55, 110614.16, 0.00, 0.00, 0.00
97, 79602.38, 102144.30, -5826.92, 48416.92, 17813.31, 20599.17, 65817.05, 110612.39, 0.00, 0.00, 0.00
98, 79602.09, 102147.00, -5827.03, 48418.59, 17812.95, 20603.93, 65815.47, 110609.37, 0.07, -0.30, 0.96
99, 79597.06, 102151.23, -5821.29, 48425.12, 17814.36, 20607.03, 65819.74, 110610.11, 0.00, 0.00, 0.00
100, 79590.36, 102151.11, -5818.63, 48422.10, 17804.77, 20596.08, 65818.91, 110600.43, 0.00, 0.00, 0.00
101, 79591.95, 102147.34, -5821.85, 48417.21, 17798.89, 20590.16, 65815.40, 110606.44, 0.00, 0.00, 0.00
102, 79591.90, 102145.63, -5821.58, 48415.57, 17806.54, 20593.69, 65813.73, 110611.02, 0.00, 0.00, 0.00
103, 79598.78, 102147.05, -5826.14, 48413.09, 17793.57, 20590.29, 65811.27, 110611.76, 0.00, 0.00, 0.00
104, 79605.18, 102149.68, -5824.91, 48420.00, 17796.66, 20595.19, 65813.39, 110618.53, 0.00, 0.00, 0.00
105, 79602.83, 102148.54, -5824.08, 48422.32, 17798.94, 20596.82, 65819.09, 110623.00, 0.00, 0.00, 0.00
106, 79601.06, 102143.58, -5826.88, 48422.77, 17802.52, 20600.08, 65821.15, 110620.03, 0.00, 0.00, 0.00
107, 79603.39, 102144.09, -5831.70, 48420.45, 17810.07, 20600.13, 65827.47, 110616.39, 0.00, 0.00, 0.00
108, 79604.69, 102148.32, -5827.37, 48417.14, 17800.06, 20601.38, 65801.05, 110617.35, 0.08, -0.30, 0.96
109, 79602.29, 102153.23, -5819.23, 48421.92, 17797.91, 20600.02, 65793.20, 110616.97, 0.00, 0.00, 0.00
110, 79600.73, 102151.85, -5823.28, 48423.58, 17792.52, 20594.74, 65793.20, 110617.46, 0.00, 0.00, 0.00
111, 79602.41, 102146.24, -5823.68, 48418.66, 17793.57, 20589.89, 65786.41, 110615.34, 0.00, 0.00, 0.00
112, 79608.84, 102149.86, -5824.91, 48416.94, 17794.96, 20593.73, 65796.41, 110615.45, 0.00, 0.00, 0.00
113, 79607.61, 102156.77, -5820.37, 48415.91, 17800.95, 20596.84, 65809.41, 110614.63, 0.00, 0.00, 0.00
114, 79601.06, 102157.68, -5814.14, 48420.47, 17807.03, 20603.93, 65808.36, 110613.48, 0.00, 0.00, 0.00
115, 79597.55, 102154.73, -5813.82, 48419.91, 17783.12, 20597.53, 65805.95, 110614.33, 0.00, 0.00, 0.00
116, 79601.84, 102152.14, -5816.24, 48422.57, 17804.13, 20598.58, 65811.58, 110616.27, 0.00, 0.00, 0.00
117, 79610.38, 102152.95, -5821.44, 48421.68, 17810.03, 20598.90, 65812.43, 110616.81, 0.00, 0.00, 0.00
118, 79610.07, 102156.05, -5821.47, 48418.86, 17800.35, 20597.00, 65812.61, 110615.60, 0.08, -0.30, 0.96
119, 79606.05, 102156.99, -5820.28, 48420.87, 17804.68, 20599.86, 65812.02, 110615.45, 0.00, 0.00, 0.00
120, 79603.23, 102154.78, -5815.10, 48421.27, 17817.07, 20601.29, 65816.99, 110612.45, 0.00, 0.00, 0.00
121, 79605.60, 102153.15, -5817.87, 48419.40, 17816.08, 20602.70, 65819.91, 110612.68, 0.00, 0.00, 0.00
122, 79605.45, 102151.91, -5820.19, 48423.15, 17816.04, 20597.94, 65819.16, 110611.54, 0.00, 0.00, 0.00
123, 79603.48, 102156.99, -5816.15, 48424.41, 17813.40, 20598.34, 65816.34, 110609.50, 0.00, 0.00, 0.00
124, 79601.29, 102157.77, -5819.72, 48422.82, 17807.92, 20596.06, 65818.04, 110608.14, 0.00, 0.00, 0.00
125, 79598.34, 102152.41, -5823.19, 48423.15, 17801.38, 20587.61, 65819.47, 110603.11, 0.00, 0.00, 0.00
126, 79599.50, 102149.13, -5826.52, 48416.13, 17783.45, 20574.29, 65793.56, 110601.52, 0.00, 0.00, 0.00
127, 79610.61, 102152.92, -5826.25, 48418.19, 17804.44, 20583.01, 65804.98, 110611.34, 0.00, 0.00, 0.00
128, 79614.88, 102157.51, -5819.88, 48419.87, 17808.77, 20587.32, 65809.86, 110615.80, 0.08, -0.30, 0.96
129, 79620.78, 102159.98, -5819.59, 48417.43, 17804.93, 20588.82, 65816.68, 110618.06, 0.00, 0.00, 0.00
130, 79620.53, 102155.72, -5823.66, 48422.41, 17817.56, 20594.96, 65825.86, 110618.82, 0.00, 0.00, 0.00
131, 79616.22, 102154.48, -5820.33, 48426.21, 17815.86, 20594.99, 65829.35, 110619.27, 0.00, 0.00, 0.00
132, 79609.27, 102155.25, -5819.97, 48423.55, 17812.39, 20593.67, 65826.98, 110613.57, 0.00, 0.00, 0.00
133, 79608.22, 102159.13, -5819.61, 48425.70, 17813.71, 20596.89, 65829.88, 110611.02, 0.00, 0.00, 0.00
134, 79608.02, 102163.16, -5818.32, 48429.57, 17809.20, 20601.65, 65827.45, 110611.49, 0.00, 0.00, 0.00
135, 79610.45, 102160.12, -5819.86, 48428.45, 17810.14, 20600.24, 65824.52, 110616.25, 0.00, 0.00, 0.00
136, 79618.09, 102157.20, -5818.54, 48427.02, 17818.12, 20596.71, 65823.59, 110616.70, 0.00, 0.00, 0.00
137, 79616.11, 102159.56, -5818.00, 48430.68, 17818.43, 20593.35, 65820.61, 110609.70, 0.00, 0.00, 0.00
138, 79618.23, 102164.70, -5819.48, 48430.51, 17813.47, 20596.77, 65823.85, 110611.78, 0.08, -0.30, 0.96
139, 79622.45, 102164.45, -5826.21, 48426.64, 17817.11, 20595.75, 65835.02, 110613.88, 0.00, 0.00, 0.00
140, 79621.91, 102163.14, -5822.76, 48433.14, 17830.39, 20600.46, 65818.46, 110617.35, 0.00, 0.00, 0.00
141, 79617.02, 102161.23, -5810.36, 48431.20, 17831.80, 20595.43, 65811.94, 110613.51, 0.00, 0.00, 0.00
142, 79619.66, 102163.30, -5812.44, 48428.65, 17826.52, 20595.88, 65816.23, 110616.43, 0.00, 0.00, 0.00
143, 79624.63, 102167.85, -5814.14, 48425.34, 17817.02, 20600.37, 65819.13, 110619.59, 0.00, 0.00, 0.00
144, 79623.46, 102168.16, -5812.21, 48426.37, 17797.89, 20593.53, 65817.97, 110618.18, 0.00, 0.00, 0.00
145, 79623.04, 102166.98, -5814.34, 48423.58, 17837.72, 20604.60, 65824.50, 110618.06, 0.00, 0.00, 0.00
146, 79625.23, 102165.30, -5817.60, 48423.78, 17839.93, 20615.26, 65835.50, 110621.59, 0.00, 0.00, 0.00
147, 79624.35, 102163.74, -5822.20, 48426.68, 17825.36, 20614.59, 65839.16, 110622.36, 0.00, 0.00, 0.00
148, 79624.80, 102166.67, -5820.28, 48417.95, 17813.04, 20608.62, 65834.89, 110620.26, 0.08, -0.30, 0.96
149, 79622.07, 102169.51, -5814.40, 48417.54, 17823.71, 20603.68, 65822.38, 110612.07, 0.00, 0.00, 0.00
150, 79622.70, 102168.34, -5815.57, 48418.04, 17823.46, 20598.70, 65830.27, 110609.70, 0.00, 0.00, 0.00
151, 79626.41, 102168.08, -5815.52, 48422.23, 17813.69, 20596.64, 65833.17, 110613.10, 0.00, 0.00, 0.00
152, 79632.09, 102172.46, -5813.60, 48430.91, 17821.63, 20602.05, 65819.60, 110620.10, 0.00, 0.00, 0.00
153, 79633.41, 102179.99, -5803.50, 48434.29, 17842.44, 20609.87, 65830.94, 110623.85, 0.00, 0.00, 0.00
154, 79626.26, 102180.84, -5811.36, 48429.16, 17839.31, 20606.27, 65825.10, 110615.16, 0.00, 0.00, 0.00
155, 79625.92, 102177.09, -5815.12, 48430.82, 17838.28, 20607.39, 65825.84, 110616.39, 0.00, 0.00, 0.00
156, 79630.01, 102174.70, -5814.56, 48432.41, 17825.34, 20603.19, 65834.52, 110621.41, 0.00, 0.00, 0.00
157, 79637.99, 102174.83, -5815.79, 48429.37, 17820.71, 20598.94, 65830.71, 110628.19, 0.00, 0.00, 0.00
158, 79639.17, 102178.27, -5814.81, 48427.73, 17827.39, 20602.41, 65825.69, 110623.88, 0.08, -0.30, 0.96
159, 79621.60, 102179.01, -5812.03, 48435.20, 17826.81, 20607.06, 65824.16, 110604.32, 0.00, 0.00, 0.00
160, 79619.44, 102176.64, -5812.30, 48434.75, 17840.36, 20615.82, 65835.61, 110607.58, 0.00, 0.00, 0.00
161, 79625.96, 102173.82, -5812.44, 48435.27, 17843.87, 20618.01, 65834.52, 110614.89, 0.00, 0.00, 0.00
162, 79630.21, 102179.09, -5811.10, 48439.63, 17842.01, 20619.57, 65841.84, 110616.95, 0.00, 0.00, 0.00
163, 79626.99, 102178.98, -5810.29, 48437.21, 17842.86, 20618.46, 65833.26, 110612.77, 0.00, 0.00, 0.00
164, 79620.33, 102180.30, -5807.12, 48430.04, 17838.68, 20620.67, 65831.80, 110606.76, 0.00, 0.00, 0.00
165, 79619.10, 102182.27, -5800.99, 48432.12, 17835.24, 20616.11, 65831.34, 110604.30, 0.00, 0.00, 0.00
166, 79619.55, 102178.25, -5802.94, 48438.44, 17827.71, 20609.22, 65826.78, 110599.83, 0.00, 0.00, 0.00
167, 79622.25, 102177.58, -5804.21, 48435.58, 17829.74, 20610.48, 65826.34, 110600.65, 0.00, 0.00, 0.00
168, 79628.84, 102182.54, -5798.69, 48437.52, 17842.53, 20616.98, 65834.60, 110607.67, 0.08, -0.30, 0.96
169, 79628.83, 102184.53, -5794.44, 48440.01, 17852.96, 20616.64, 65836.62, 110612.48, 0.00, 0.00, 0.00
170, 79625.00, 102182.98, -5800.66, 48435.69, 17849.28, 20618.21, 65840.97, 110609.15, 0.00, 0.00, 0.00
171, 79621.25, 102181.91, -5804.21, 48433.52, 17843.15, 20613.65, 65833.62, 110607.70, 0.00, 0.00, 0.00
172, 79623.41, 102184.04, -5802.76, 48435.29, 17844.74, 20610.56, 65832.39, 110608.25, 0.00, 0.00, 0.00
173, 79629.67, 102193.13, -5799.72, 48442.91, 17853.41, 20617.34, 65852.55, 110609.19, 0.00, 0.00, 0.00
174, 79628.60, 102192.41, -5801.24, 48440.14, 17855.38, 20618.54, 65836.32, 110607.67, 0.00, 0.00, 0.00
175, 79630.75, 102187.14, -5805.24, 48432.99, 17853.66, 20618.03, 65827.95, 110607.02, 0.00, 0.00, 0.00
176, 79631.66, 102184.04, -5805.06, 48435.29, 17848.43, 20614.01, 65832.61, 110606.84, 0.00, 0.00, 0.00
177, 79636.60, 102188.57, -5804.05, 48440.23, 17852.18, 20613.87, 65837.58, 110611.13, 0.00, 0.00, 0.00
178, 79638.08, 102190.77, -5802.42, 48441.68, 17855.33, 20615.37, 65846.13, 110616.23, 0.08, -0.30, 0.96
179, 79636.38, 102192.58, -5802.49, 48442.04, 17848.76, 20611.53, 65841.29, 110614.94, 0.00, 0.00, 0.00
180, 79636.05, 102189.80, -5807.30, 48440.54, 17855.00, 20612.40, 65844.98, 110620.10, 0.00, 0.00, 0.00
181, 79630.45, 102189.52, -5802.94, 48438.82, 17849.07, 20608.82, 65846.47, 110618.27, 0.00, 0.00, 0.00
182, 79633.79, 102183.05, -5805.98, 48431.33, 17843.71, 20606.81, 65841.02, 110614.84, 0.00, 0.00, 0.00
183, 79638.39, 102184.02, -5809.08, 48434.13, 17843.13, 20605.74, 65834.13, 110614.48, 0.00, 0.00, 0.00
184, 79643.11, 102186.45, -5806.85, 48434.26, 17839.15, 20608.62, 65839.54, 110617.13, 0.00, 0.00, 0.00
185, 79638.05, 102187.41, -5801.10, 48427.96, 17855.78, 20609.80, 65841.33, 110614.35, 0.00, 0.00, 0.00
186, 79633.34, 102179.48, -5808.70, 48416.20, 17836.83, 20598.79, 65847.55, 110609.26, 0.00, 0.00, 0.00
187, 79640.11, 102182.02, -5807.14, 48420.38, 17832.24, 20599.23, 65843.05, 110615.25, 0.00, 0.00, 0.00
188, 79636.09, 102184.82, -5810.13, 48421.97, 17839.69, 20601.92, 65827.61, 110609.39, 0.08, -0.30, 0.95
189, 79639.84, 102187.66, -5808.57, 48421.25, 17846.46, 20604.20, 65834.54, 110615.29, 0.00, 0.00, 0.00
190, 79641.61, 102190.59, -5803.05, 48420.47, 17847.82, 20605.94, 65831.65, 110618.18, 0.00, 0.00, 0.00
191, 79642.64, 102187.57, -5806.92, 48415.17, 17835.95, 20597.42, 65837.95, 110618.04, 0.00, 0.00, 0.00
192, 79649.52, 102189.42, -5807.32, 48418.77, 17835.73, 20603.21, 65840.26, 110627.66, 0.00, 0.00, 0.00
193, 79652.65, 102193.54, -5807.70, 48419.66, 17852.96, 20615.77, 65842.63, 110628.30, 0.00, 0.00, 0.00
194, 79648.59, 102193.70, -5810.29, 48414.68, 17851.87, 20619.51, 65854.90, 110626.98, 0.00, 0.00, 0.00
195, 79645.59, 102191.93, -5811.10, 48406.07, 17844.38, 20610.07, 65850.12, 110622.40, 0.00, 0.00, 0.00
196, 79647.04, 102194.56, -5809.46, 48414.39, 17843.96, 20607.79, 65834.47, 110622.65, 0.00, 0.00, 0.00
197, 79641.59, 102189.96, -5816.97, 48408.60, 17843.71, 20603.37, 65831.90, 110617.57, 0.00, 0.00, 0.00
198, 79646.26, 102189.91, -5817.31, 48409.85, 17837.76, 20606.38, 65841.55, 110622.63, 0.08, -0.30, 0.95
199, 79646.35, 102193.24, -5815.16, 48406.59, 17833.76, 20606.41, 65832.16, 110620.30, 0.00, 0.00, 0.00
200, 79650.57, 102193.45, -5813.82, 48406.72, 17838.01, 20608.96, 65834.70, 110621.71, 0.00, 0.00, 0.00
201, 79655.91, 102196.30, -5812.73, 48414.08, 17837.56, 20605.33, 65836.13, 110619.92, 0.00, 0.00, 0.00
202, 79656.02, 102199.41, -5814.85, 48411.89, 17848.87, 20605.13, 65832.81, 110616.16, 0.00, 0.00, 0.00
203, 79649.92, 102199.10, -5816.88, 48409.81, 17845.61, 20608.22, 65835.67, 110617.10, 0.00, 0.00, 0.00
204, 79646.39, 102203.46, -5814.67, 48408.94, 17842.97, 20611.24, 65846.20, 110612.81, 0.00, 0.00, 0.00
205, 79643.42, 102199.17, -5821.15, 48411.17, 17839.24, 20605.47, 65832.77, 110606.06, 0.00, 0.00, 0.00
206, 79642.33, 102193.49, -5820.42, 48412.67, 17839.17, 20600.11, 65818.98, 110604.23, 0.00, 0.00, 0.00
207, 79638.34, 102195.66, -5816.62, 48409.43, 17835.60, 20599.79, 65817.26, 110603.54, 0.08, -0.30, 0.95
208, 79641.56, 102195.59, -5822.63, 48405.92, 17832.00, 20602.92, 65828.91, 110605.05, 0.00, 0.00, 0.00
209, 79636.96, 102200.87, -5823.64, 48401.70, 17819.68, 20597.96, 65839.03, 110600.23, 0.00, 0.00, 0.00
210, 79635.44, 102203.44, -5821.20, 48402.75, 17831.46, 20597.65, 65836.93, 110601.55, 0.00, 0.00, 0.00
211, 79637.88, 102201.25, -5821.94, 48403.71, 17840.29, 20600.02, 65826.06, 110604.23, 0.00, 0.00, 0.00
212, 79645.01, 102205.23, -5818.32, 48407.30, 17840.71, 20600.64, 65832.70, 110604.88, 0.00, 0.00, 0.00
213, 79651.71, 102213.38, -5816.62, 48415.91, 17848.16, 20605.13, 65832.91, 110607.88, 0.00, 0.00, 0.00
214, 79651.66, 102211.35, -5820.44, 48419.11, 17849.25, 20609.40, 65829.35, 110605.81, 0.00, 0.00, 0.00
215, 79649.37, 102202.81, -5821.67, 48410.14, 17848.40, 20605.16, 65833.17, 110604.50, 0.00, 0.00, 0.00
216, 79644.13, 102200.13, -5816.86, 48408.98, 17840.18, 20602.41, 65837.46, 110599.47, 0.00, 0.00, 0.00
217, 79641.90, 102204.20, -5816.57, 48411.08, 17834.77, 20596.77, 65824.34, 110598.64, 0.08, -0.30, 0.96
218, 79645.95, 102210.79, -5816.33, 48409.77, 17839.35, 20601.22, 65830.34, 110604.72, 0.00, 0.00, 0.00
219, 79648.83, 102213.49, -5815.21, 48413.95, 17852.49, 20614.59, 65837.35, 110609.48, 0.00, 0.00, 0.00
220, 79645.19, 102209.67, -5817.38, 48426.33, 17847.93, 20610.43, 65842.72, 110608.90, 0.00, 0.00, 0.00
221, 79646.95, 102204.42, -5821.18, 48420.43, 17840.36, 20604.29, 65843.81, 110609.52, 0.00, 0.00, 0.00
222, 79647.17, 102204.76, -5820.93, 48412.89, 17838.41, 20601.65, 65842.45, 110607.07, 0.00, 0.00, 0.00
223, 79645.74, 102206.32, -5821.04, 48413.23, 17834.75, 20602.23, 65848.37, 110605.93, 0.00, 0.00, 0.00
224, 79656.27, 102214.34, -5818.18, 48417.81, 17843.64, 20607.59, 65846.76, 110611.47, 0.00, 0.00, 0.00
225, 79654.30, 102200.27, -5822.61, 48417.21, 17844.38, 20602.09, 65834.02, 110607.91, 0.00, 0.00, 0.00
226, 79649.90, 102195.91, -5824.53, 48415.40, 17841.21, 20600.82, 65843.32, 110607.11, 0.00, 0.00, 0.00
227, 79645.63, 102201.07, -5824.13, 48410.17, 17836.09, 20600.64, 65851.32, 110605.10, 0.07, -0.30, 0.96
228, 79649.90, 102209.43, -5818.52, 48423.18, 17842.14, 20609.02, 65832.63, 110608.52, 0.00, 0.00, 0.00
229, 79651.73, 102212.22, -5819.46, 48425.34, 17841.41, 20615.97, 65839.50, 110608.88, 0.00, 0.00, 0.00
230, 79649.68, 102210.45, -5821.09, 48421.34, 17833.54, 20613.02, 65848.17, 110605.57, 0.00, 0.00, 0.00
231, 79651.40, 102208.71, -5823.21, 48428.34, 17847.44, 20609.34, 65848.48, 110608.92, 0.00, 0.00, 0.00
232, 79658.24, 102213.49, -5819.19, 48432.36, 17866.04, 20614.92, 65853.52, 110613.93, 0.00, 0.00, 0.00
233, 79658.26, 102213.98, -5825.80, 48426.30, 17850.19, 20611.86, 65849.53, 110610.15, 0.00, 0.00, 0.00
234, 79656.79, 102216.05, -5827.35, 48426.13, 17841.34, 20611.28, 65851.26, 110608.14, 0.00, 0.00, 0.00
235, 79660.25, 102214.39, -5826.99, 48423.89, 17849.57, 20609.34, 65853.04, 110608.56, 0.00, 0.00, 0.00
236, 79654.08, 102208.35, -5826.88, 48420.31, 17854.55, 20615.88, 65856.84, 110607.56, 0.00, 0.00, 0.00
237, 79643.71, 102207.80, -5827.68, 48418.86, 17851.15, 20609.60, 65868.76, 110603.78, 0.08, -0.31, 0.95
238, 79649.16, 102215.38, -5823.68, 48424.23, 17858.33, 20613.96, 65837.89, 110607.27, 0.00, 0.00, 0.00
239, 79652.67, 102220.54, -5823.43, 48427.36, 17841.92, 20614.74, 65849.34, 110610.02, 0.00, 0.00, 0.00
240, 79657.37, 102221.09, -5820.15, 48431.38, 17851.22, 20618.16, 65853.52, 110610.06, 0.00, 0.00, 0.00
241, 79651.51, 102219.20, -5821.98, 48425.23, 17857.01, 20618.66, 65857.53, 110607.40, 0.00, 0.00, 0.00
242, 79647.45, 102220.91, -5826.74, 48432.07, 17855.53, 20619.69, 65855.13, 110606.66, 0.00, 0.00, 0.00
243, 79651.63, 102224.94, -5824.22, 48437.86, 17855.38, 20620.73, 65858.59, 110607.52, 0.00, 0.00, 0.00
244, 79653.70, 102226.41, -5820.55, 48431.96, 17847.71, 20612.78, 65850.13, 110605.23, 0.00, 0.00, 0.00
245, 79651.02, 102222.52, -5819.10, 48430.28, 17857.50, 20612.73, 65851.95, 110605.57, 0.00, 0.00, 0.00
246, 79649.48, 102220.58, -5820.04, 48434.15, 17856.45, 20614.12, 65858.32, 110609.75, 0.00, 0.00, 0.00
247, 79649.01, 102221.03, -5823.17, 48434.24, 17855.67, 20610.79, 65862.05, 110609.48, 0.08, -0.30, 0.95
248, 79648.92, 102224.78, -5822.67, 48435.47, 17855.85, 20612.80, 65864.09, 110606.62, 0.00, 0.00, 0.00
249, 79650.69, 102227.42, -5816.28, 48436.72, 17850.86, 20611.79, 65854.25, 110603.98, 0.00, 0.00, 0.00
250, 79653.34, 102222.05, -5821.38, 48434.24, 17843.80, 20602.47, 65834.22, 110603.94, 0.00, 0.00, 0.00
251, 79651.55, 102217.85, -5826.07, 48429.32, 17836.13, 20598.27, 65840.26, 110605.68, 0.00, 0.00, 0.00
252, 79654.71, 102221.43, -5822.63, 48437.28, 17861.10, 20611.88, 65849.94, 110607.56, 0.00, 0.00, 0.00
253, 79661.95, 102229.12, -5819.59, 48446.91, 17871.98, 20619.64, 65856.26, 110611.45, 0.00, 0.00, 0.00
254, 79655.60, 102228.85, -5825.18, 48441.66, 17867.07, 20617.34, 65854.56, 110607.88, 0.00, 0.00, 0.00
255, 79659.23, 102227.09, -5820.48, 48436.86, 17860.09, 20613.29, 65856.84, 110612.25, 0.00, 0.00, 0.00
0, 79656.95, 102224.88, -5824.77, 48434.15, 17860.50, 20614.68, 65860.89, 110611.09, 0.00, 0.00, 0.00
1, 79657.62, 102224.94, -5824.95, 48436.59, 17851.09, 20610.16, 65871.17, 110607.91, 0.08, -0.30, 0.95
2, 79666.55, 102232.31, -5821.11, 48445.41, 17864.65, 20617.34, 65855.19, 110610.87, 0.00, 0.00, 0.00
3, 79661.08, 102232.27, -5819.63, 48442.64, 17880.26, 20623.69, 65858.81, 110606.89, 0.00, 0.00, 0.00
4, 79659.91, 102230.08, -5820.28, 48437.48, 17865.86, 20616.42, 65867.21, 110606.69, 0.00, 0.00, 0.00
5, 79658.22, 102227.84, -5821.71, 48437.55, 17864.50, 20614.57, 65844.62, 110601.13, 0.00, 0.00, 0.00
6, 79655.40, 102231.02, -5817.49, 48439.85, 17868.50, 20615.28, 65854.45, 110595.82, 0.00, 0.00, 0.00
7, 79657.45, 102235.67, -5819.66, 48439.76, 17863.92, 20615.62, 65854.16, 110594.38, 0.00, 0.00, 0.00
8, 79661.01, 102237.77, -5821.06, 48440.48, 17864.27, 20618.28, 65857.02, 110602.20, 0.00, 0.00, 0.00
9, 79664.16, 102236.67, -5820.42, 48439.92, 17859.24, 20616.00, 65867.05, 110603.76, 0.00, 0.00, 0.00
10, 79662.17, 102234.93, -5821.78, 48435.85, 17844.98, 20608.78, 65860.62, 110601.86, 0.00, 0.00, 0.00
11, 79662.48, 102235.73, -5826.18, 48435.20, 17845.95, 20603.35, 65859.66, 110603.98, 0.09, -0.30, 0.95
12, 79664.48, 102239.65, -5826.67, 48433.30, 17864.72, 20615.97, 65872.16, 110605.63, 0.00, 0.00, 0.00
13, 79664.09, 102242.35, -5822.32, 48436.36, 17844.98, 20608.67, 65867.59, 110602.82, 0.00, 0.00, 0.00
14, 79661.93, 102238.73, -5821.44, 48443.14, 17862.62, 20607.21, 65865.13, 110598.88, 0.00, 0.00, 0.00
15, 79663.91, 102235.49, -5822.81, 48437.75, 17858.95, 20606.54, 65884.54, 110602.59, 0.00, 0.00, 0.00
16, 79665.39, 102236.79, -5824.51, 48435.80, 17855.38, 20605.87, 65865.96, 110602.10, 0.00, 0.00, 0.00
17, 79665.44, 102242.20, -5822.83, 48441.48, 17871.40, 20611.15, 65863.52, 110601.37, 0.00, 0.00, 0.00
18, 79665.75, 102244.20, -5817.31, 48446.40, 17863.31, 20609.51, 65872.73, 110596.59, 0.00, 0.00, 0.00
19, 79662.64, 102242.38, -5816.71, 48442.49, 17875.99, 20608.62, 65867.44, 110593.81, 0.00, 0.00, 0.00
20, 79662.84, 102241.91, -5820.30, 48441.82, 17872.50, 20608.87, 65877.00, 110599.96, 0.00, 0.00, 0.00
21, 79665.33, 102245.68, -5817.58, 48441.05, 17859.98, 20607.32, 65877.27, 110600.41, 0.08, -0.30, 0.95
22, 79668.09, 102248.01, -5820.48, 48440.61, 17848.52, 20604.02, 65875.38, 110598.10, 0.00, 0.00, 0.00
23, 79669.44, 102249.80, -5822.90, 48444.83, 17868.52, 20610.56, 65880.34, 110602.20, 0.00, 0.00, 0.00
24, 79668.16, 102247.56, -5822.34, 48449.04, 17868.45, 20606.21, 65881.20, 110598.35, 0.00, 0.00, 0.00
25, 79669.44, 102244.16, -5823.90, 48448.84, 17870.20, 20607.37, 65889.50, 110597.41, 0.00, 0.00, 0.00
26, 79671.74, 102248.37, -5821.58, 48446.22, 17866.93, 20607.79, 65888.00, 110598.06, 0.00, 0.00, 0.00
27, 79671.36, 102251.77, -5825.47, 48442.11, 17861.03, 20607.50, 65886.77, 110598.30, 0.00, 0.00, 0.00
28, 79669.95, 102251.65, -5824.33, 48447.41, 17868.39, 20611.04, 65885.68, 110595.18, 0.00, 0.00, 0.00
29, 79671.92, 102249.93, -5819.88, 48453.08, 17872.57, 20612.40, 65897.05, 110596.07, 0.00, 0.00, 0.00
30, 79669.08, 102245.33, -5821.49, 48447.96, 17858.51, 20602.27, 65895.65, 110597.19, 0.00, 0.00, 0.00
31, 79667.78, 102245.95, -5822.79, 48444.30, 17858.30, 20600.66, 65882.70, 110599.63, 0.08, -0.31, 0.96
32, 79675.54, 102250.76, -5822.25, 48453.46, 17870.62, 20613.85, 65907.67, 110606.77, 0.00, 0.00, 0.00
33, 79674.16, 102255.41, -5821.67, 48457.93, 17870.69, 20618.43, 65901.28, 110603.67, 0.00, 0.00, 0.00
34, 79675.63, 102255.30, -5822.00, 48456.21, 17868.54, 20613.72, 65896.54, 110602.59, 0.00, 0.00, 0.00
35, 79674.91, 102252.97, -5820.77, 48453.15, 17879.38, 20613.98, 65900.20, 110601.97, 0.00, 0.00, 0.00
36, 79667.07, 102255.27, -5811.99, 48453.24, 17879.00, 20614.97, 65902.10, 110596.80, 0.00, 0.00, 0.00
37, 79668.74, 102260.48, -5806.89, 48462.07, 17873.01, 20616.31, 65903.24, 110599.31, 0.00, 0.00, 0.00
38, 79670.24, 102261.98, -5812.71, 48460.10, 17873.44, 20616.85, 65908.74, 110601.37, 0.00, 0.00, 0.00
39, 79664.77, 102253.35, -5816.39, 48460.75, 17877.80, 20613.74, 65907.38, 110598.62, 0.00, 0.00, 0.00
40, 79668.99, 102252.74, -5814.83, 48463.63, 17876.16, 20613.87, 65907.60, 110600.70, 0.00, 0.00, 0.00
41, 79671.41, 102251.72, -5816.93, 48459.65, 17868.19, 20612.69, 65915.88, 110602.53, 0.08, -0.31, 0.96
42, 79672.39, 102254.78, -5812.57, 48459.79, 17873.55, 20616.82, 65926.34, 110603.09, 0.00, 0.00, 0.00
43, 79676.23, 102257.95, -5811.77, 48466.80, 17896.39, 20626.72, 65918.69, 110607.96, 0.00, 0.00, 0.00
44, 79678.27, 102255.70, -5812.82, 48469.78, 17904.37, 20627.82, 65913.82, 110610.15, 0.00, 0.00, 0.00
45, 79683.92, 102254.38, -5816.04, 48466.49, 17888.75, 20615.82, 65925.66, 110612.84, 0.00, 0.00, 0.00
46, 79679.74, 102255.20, -5815.68, 48465.93, 17884.23, 20611.30, 65908.88, 110610.76, 0.00, 0.00, 0.00
47, 79676.01, 102259.32, -5814.76, 48466.87, 17893.08, 20614.68, 65916.95, 110607.72, 0.00, 0.00, 0.00
48, 79676.68, 102259.07, -5816.88, 48467.81, 17887.56, 20613.81, 65917.66, 110604.66, 0.00, 0.00, 0.00
49, 79679.79, 102258.96, -5810.31, 48467.25, 17874.55, 20611.79, 65923.31, 110605.37, 0.00, 0.00, 0.00
50, 79675.14, 102258.13, -5810.60, 48464.19, 17890.92, 20616.73, 65923.96, 110602.26, 0.00, 0.00, 0.00
51, 79675.88, 102258.91, -5811.92, 48466.52, 17893.40, 20616.55, 65922.73, 110604.41, 0.07, -0.30, 0.95
52, 79675.83, 102262.22, -5815.07, 48469.71, 17886.67, 20615.75, 65930.31, 110604.77, 0.00, 0.00, 0.00
53, 79681.51, 102264.62, -5814.67, 48475.37, 17898.63, 20623.19, 65933.91, 110613.70, 0.00, 0.00, 0.00
54, 79689.40, 102261.95, -5814.23, 48467.27, 17890.67, 20617.49, 65946.41, 110619.52, 0.00, 0.00, 0.00
55, 79690.59, 102260.63, -5811.70, 48466.00, 17884.44, 20609.60, 65930.24, 110617.82, 0.00, 0.00, 0.00
56, 79685.33, 102258.94, -5812.64, 48462.49, 17874.27, 20603.99, 65918.45, 110613.46, 0.00, 0.00, 0.00
57, 79677.82, 102260.10, -5817.78, 48458.56, 17871.02, 20601.29, 65924.77, 110607.70, 0.00, 0.00, 0.00
58, 79675.43, 102262.83, -5814.52, 48457.26, 17889.93, 20605.96, 65931.41, 110604.56, 0.00, 0.00, 0.00
59, 79684.10, 102261.98, -5817.51, 48454.56, 17877.88, 20601.36, 65940.37, 110608.32, 0.00, 0.00, 0.00
60, 79683.14, 102260.10, -5817.89, 48461.51, 17885.37, 20606.99, 65938.49, 110608.19, 0.00, 0.00, 0.00
61, 79680.19, 102262.78, -5817.62, 48463.34, 17890.36, 20611.79, 65930.34, 110608.70, 0.08, -0.31, 0.95
62, 79683.38, 102269.24, -5818.05, 48461.87, 17889.51, 20616.06, 65930.23, 110611.49, 0.00, 0.00, 0.00
63, 79681.71, 102270.54, -5820.17, 48464.41, 17876.77, 20609.40, 65938.85, 110609.23, 0.00, 0.00, 0.00
64, 79687.37, 102267.30, -5821.42, 48464.32, 17880.01, 20606.27, 65933.38, 110614.27, 0.00, 0.00, 0.00
65, 79691.52, 102267.14, -5819.81, 48467.03, 17892.77, 20613.07, 65942.98, 110616.95, 0.00, 0.00, 0.00
66, 79681.98, 102268.52, -5822.18, 48468.32, 17889.31, 20613.52, 65958.95, 110611.78, 0.00, 0.00, 0.00
67, 79675.65, 102273.24, -5821.89, 48465.31, 17890.13, 20614.72, 65933.35, 110608.23, 0.00, 0.00, 0.00
68, 79679.25, 102278.70, -5817.65, 48468.37, 17908.17, 20626.30, 65944.06, 110615.00, 0.00, 0.00, 0.00
69, 79682.87, 102275.95, -5810.20, 48471.84, 17914.95, 20628.47, 65950.01, 110615.52, 0.00, 0.00, 0.00
70, 79676.50, 102263.85, -5818.02, 48460.39, 17896.73, 20616.51, 65952.13, 110605.13, 0.00, 0.00, 0.00
71, 79677.57, 102267.63, -5820.24, 48465.35, 17889.91, 20617.38, 65950.48, 110604.23, 0.08, -0.30, 0.96
72, 79680.26, 102276.57, -5818.43, 48469.69, 17902.38, 20623.64, 65958.05, 110604.79, 0.00, 0.00, 0.00
73, 79683.83, 102279.23, -5818.81, 48468.97, 17898.36, 20616.42, 65953.63, 110606.55, 0.00, 0.00, 0.00
74, 79687.16, 102275.66, -5821.62, 48470.61, 17893.49, 20614.03, 65946.43, 110608.72, 0.00, 0.00, 0.00
75, 79686.67, 102272.88, -5825.27, 48470.02, 17888.44, 20610.10, 65952.82, 110611.05, 0.00, 0.00, 0.00
76, 79684.46, 102276.57, -5827.17, 48466.54, 17896.42, 20610.19, 65956.73, 110610.04, 0.00, 0.00, 0.00
77, 79682.31, 102277.87, -5825.04, 48460.43, 17892.35, 20608.49, 65948.35, 110607.70, 0.00, 0.00, 0.00
78, 79681.13, 102280.04, -5822.54, 48463.14, 17902.72, 20607.66, 65952.42, 110604.67, 0.00, 0.00, 0.00
79, 79682.70, 102277.87, -5823.34, 48463.95, 17913.40, 20612.53, 65948.69, 110606.58, 0.00, 0.00, 0.00
80, 79685.11, 102276.20, -5824.55, 48464.44, 17896.59, 20611.04, 65935.27, 110607.00, 0.00, 0.00, 0.00
81, 79680.70, 102277.76, -5821.11, 48467.36, 17890.54, 20601.29, 65942.67, 110601.59, 0.08, -0.30, 0.96
82, 79678.52, 102279.50, -5824.55, 48461.80, 17896.73, 20598.54, 65937.64, 110592.80, 0.00, 0.00, 0.00
83, 79684.91, 102279.92, -5828.53, 48456.57, 17878.91, 20597.42, 65939.72, 110594.62, 0.00, 0.00, 0.00
84, 79681.59, 102280.44, -5826.59, 48461.11, 17882.87, 20600.08, 65944.77, 110597.81, 0.00, 0.00, 0.00
85, 79678.58, 102279.48, -5822.90, 48466.43, 17897.02, 20601.07, 65942.05, 110595.96, 0.00, 0.00, 0.00
86, 79684.68, 102281.18, -5819.72, 48461.62, 17911.26, 20603.86, 65940.91, 110604.25, 0.00, 0.00, 0.00
87, 79677.95, 102289.76, -5817.62, 48463.65, 17906.45, 20607.44, 65943.52, 110600.88, 0.00, 0.00, 0.00
88, 79671.61, 102288.44, -5822.45, 48464.44, 17897.78, 20605.54, 65940.91, 110592.29, 0.00, 0.00, 0.00
89, 79672.74, 102287.59, -5817.02, 48467.14, 17901.76, 20609.02, 65952.13, 110589.90, 0.00, 0.00, 0.00
90, 79670.27, 102283.91, -5816.80, 48469.76, 17909.60, 20605.22, 65958.66, 110588.88, 0.00, 0.00, 0.00
91, 79670.98, 102284.40, -5817.94, 48473.98, 17907.17, 20604.11, 65943.23, 110587.24, 0.09, -0.30, 0.96
92, 79671.49, 102290.12, -5819.41, 48469.02, 17899.59, 20602.85, 65945.42, 110586.84, 0.00, 0.00, 0.00
93, 79672.32, 102288.75, -5824.08, 48462.58, 17897.64, 20602.07, 65954.56, 110587.58, 0.00, 0.00, 0.00
94, 79679.23, 102286.34, -5819.59, 48466.49, 17901.71, 20604.57, 65957.45, 110594.26, 0.00, 0.00, 0.00
95, 79681.06, 102285.58, -5819.81, 48459.68, 17894.11, 20600.37, 65955.08, 110594.35, 0.00, 0.00, 0.00
96, 79686.11, 102284.84, -5827.08, 48453.04, 17891.81, 20595.59, 65957.23, 110595.45, 0.00, 0.00, 0.00
97, 79685.62, 102287.10, -5826.47, 48446.27, 17885.75, 20592.21, 65958.54, 110590.13, 0.00, 0.00, 0.00
98, 79683.97, 102288.62, -5826.41, 48449.17, 17886.78, 20592.79, 65947.91, 110585.95, 0.00, 0.00, 0.00
99, 79685.44, 102287.21, -5826.52, 48460.30, 17884.70, 20595.28, 65956.82, 110591.11, 0.00, 0.00, 0.00
100, 79687.85, 102285.00, -5825.47, 48457.15, 17867.47, 20586.31, 65977.45, 110594.64, 0.00, 0.00, 0.00
101, 79696.05, 102286.97, -5829.33, 48461.53, 17876.46, 20593.71, 65958.79, 110595.89, 0.08, -0.30, 0.95
