%OpenBCI Raw EEG Data
%Sample Rate = 250.0 Hz
%First Column = SampleIndex
%Other Columns = EEG data in microvolts followed by Accel Data (in G) interleaved with Aux Data
194, 86032.55, 127651.28, 14390.90, 62414.47, 10390.45, 40931.16, 118623.03, 101173.36, 0.07, -0.28, 0.96
195, 86034.01, 127644.95, 14383.26, 62402.52, 10369.51, 40914.04, 118620.05, 101169.94, 0.00, 0.00, 0.00
196, 86043.35, 127647.14, 14374.45, 62387.56, 10398.05, 40934.38, 118618.60, 101176.27, 0.00, 0.00, 0.00
197, 86048.34, 127649.83, 14377.58, 62399.47, 10401.18, 40939.18, 118617.15, 101183.84, 0.00, 0.00, 0.00
198, 86039.41, 127657.98, 14393.81, 62424.82, 10410.68, 40940.62, 118615.74, 101178.66, 0.00, 0.00, 0.00
199, 86042.05, 127663.52, 14392.04, 62423.79, 10433.08, 40951.50, 118627.39, 101184.58, 0.00, 0.00, 0.00
200, 86047.80, 127662.12, 14379.99, 62414.81, 10431.47, 40948.59, 118633.13, 101194.32, 0.00, 0.00, 0.00
201, 86041.61, 127683.09, 14391.53, 62426.83, 10423.09, 40936.59, 118625.60, 101182.41, 0.00, 0.00, 0.00
202, 86034.63, 127664.98, 14385.47, 62414.65, 10390.01, 40921.15, 118619.59, 101167.50, 0.00, 0.00, 0.00
203, 86030.01, 127640.03, 14382.18, 62388.34, 10382.50, 40915.92, 118607.83, 101165.96, 0.00, 0.00, 0.00
204, 86037.63, 127649.22, 14401.85, 62439.48, 10439.02, 40945.00, 118614.29, 101178.61, 0.07, -0.28, 0.96
205, 86040.98, 127657.58, 14401.70, 62447.55, 10416.34, 40936.86, 118611.63, 101178.66, 0.00, 0.00, 0.00
206, 86040.98, 127650.77, 14395.77, 62429.16, 10406.35, 40932.26, 118610.84, 101177.16, 0.00, 0.00, 0.00
207, 86033.49, 127643.25, 14391.35, 62415.68, 10424.70, 40933.53, 118615.83, 101176.33, 0.00, 0.00, 0.00
208, 86038.63, 127648.33, 14391.75, 62411.57, 10413.92, 40932.12, 118623.09, 101185.25, 0.00, 0.00, 0.00
209, 86034.88, 127648.66, 14388.76, 62406.87, 10405.32, 40930.82, 118623.52, 101179.03, 0.00, 0.00, 0.00
210, 86044.47, 127653.80, 14389.52, 62408.17, 10421.52, 40935.05, 118627.09, 101181.27, 0.00, 0.00, 0.00
211, 86046.93, 127658.41, 14391.30, 62407.50, 10426.64, 40934.34, 118621.44, 101183.23, 0.00, 0.00, 0.00
212, 86043.87, 127664.76, 14396.04, 62411.54, 10414.88, 40937.13, 118619.34, 101188.89, 0.00, 0.00, 0.00
213, 86039.69, 127679.87, 14394.54, 62412.30, 10411.02, 40934.45, 118620.68, 101189.56, 0.00, 0.00, 0.00
214, 86037.96, 127668.60, 14389.18, 62406.09, 10409.48, 40924.21, 118623.81, 101187.53, 0.07, -0.28, 0.96
215, 86043.62, 127645.20, 14384.60, 62406.65, 10408.96, 40924.99, 118623.68, 101186.95, 0.00, 0.00, 0.00
216, 86050.73, 127654.36, 14393.88, 62418.34, 10409.92, 40926.96, 118629.71, 101191.06, 0.00, 0.00, 0.00
217, 86051.53, 127671.82, 14391.59, 62413.29, 10412.51, 40929.24, 118622.78, 101190.55, 0.00, 0.00, 0.00
218, 86059.29, 127664.73, 14392.94, 62414.83, 10406.55, 40926.80, 118620.28, 101200.41, 0.00, 0.00, 0.00
219, 86054.64, 127656.44, 14393.45, 62411.32, 10391.08, 40920.25, 118614.87, 101198.55, 0.00, 0.00, 0.00
220, 86056.27, 127666.70, 14389.23, 62407.03, 10391.73, 40921.89, 118620.16, 101195.58, 0.00, 0.00, 0.00
221, 86061.14, 127675.10, 14390.75, 62414.47, 10411.87, 40922.82, 118623.68, 101198.66, 0.00, 0.00, 0.00
222, 86061.19, 127656.15, 14390.59, 62420.11, 10414.35, 40923.07, 118624.62, 101200.96, 0.00, 0.00, 0.00
223, 86057.99, 127642.31, 14389.40, 62411.32, 10397.00, 40909.75, 118616.14, 101196.83, 0.00, 0.00, 0.00
224, 86043.95, 127658.34, 14390.39, 62414.36, 10400.69, 40915.54, 118621.27, 101187.66, 0.07, -0.28, 0.96
225, 86030.32, 127681.23, 14394.99, 62421.31, 10427.65, 40928.28, 118623.48, 101176.98, 0.00, 0.00, 0.00
226, 86047.87, 127671.51, 14398.75, 62421.85, 10415.26, 40932.28, 118630.80, 101197.95, 0.00, 0.00, 0.00
227, 86059.76, 127644.26, 14392.71, 62412.24, 10378.43, 40917.66, 118631.79, 101209.12, 0.00, 0.00, 0.00
228, 86055.73, 127653.18, 14391.24, 62412.86, 10386.52, 40908.63, 118620.55, 101202.64, 0.00, 0.00, 0.00
229, 86057.48, 127652.55, 14385.38, 62407.14, 10391.28, 40903.16, 118617.22, 101200.11, 0.00, 0.00, 0.00
230, 86063.80, 127657.52, 14387.46, 62413.51, 10442.65, 40930.56, 118633.53, 101208.16, 0.00, 0.00, 0.00
231, 86066.22, 127665.91, 14383.15, 62417.42, 10442.31, 40938.14, 118637.87, 101216.49, 0.00, 0.00, 0.00
232, 86065.26, 127664.29, 14387.59, 62432.20, 10437.42, 40929.15, 118639.66, 101216.85, 0.00, 0.00, 0.00
233, 86062.75, 127653.96, 14387.50, 62422.09, 10441.04, 40926.04, 118636.44, 101209.99, 0.00, 0.00, 0.00
234, 86063.09, 127676.96, 14401.99, 62431.01, 10432.63, 40926.67, 118634.14, 101210.51, 0.07, -0.28, 0.96
235, 86070.04, 127674.10, 14402.59, 62430.86, 10427.00, 40924.05, 118642.45, 101215.40, 0.00, 0.00, 0.00
236, 86071.55, 127666.14, 14395.71, 62427.26, 10420.00, 40917.15, 118649.63, 101219.49, 0.00, 0.00, 0.00
237, 86065.23, 127664.09, 14393.14, 62430.01, 10414.17, 40915.07, 118625.87, 101211.24, 0.00, 0.00, 0.00
238, 86077.26, 127660.64, 14393.70, 62419.66, 10409.27, 40918.53, 118615.34, 101219.29, 0.00, 0.00, 0.00
239, 86083.78, 127669.83, 14399.73, 62422.12, 10425.21, 40923.32, 118629.84, 101228.66, 0.00, 0.00, 0.00
240, 86084.70, 127672.42, 14397.65, 62425.09, 10415.15, 40917.86, 118632.13, 101225.13, 0.00, 0.00, 0.00
241, 86079.09, 127672.27, 14397.47, 62414.85, 10403.24, 40909.08, 118628.66, 101214.35, 0.00, 0.00, 0.00
242, 86078.22, 127669.12, 14394.57, 62415.70, 10399.69, 40914.22, 118626.78, 101214.93, 0.00, 0.00, 0.00
243, 86077.86, 127664.98, 14394.43, 62423.14, 10407.89, 40917.86, 118623.27, 101216.88, 0.00, 0.00, 0.00
244, 86074.58, 127658.45, 14397.25, 62424.17, 10411.53, 40919.65, 118629.96, 101217.99, 0.07, -0.28, 0.96
245, 86070.28, 127667.41, 14398.52, 62424.44, 10407.02, 40922.98, 118644.82, 101220.19, 0.00, 0.00, 0.00
246, 86074.48, 127673.61, 14395.39, 62422.27, 10400.42, 40920.41, 118633.47, 101225.70, 0.00, 0.00, 0.00
247, 86072.63, 127676.06, 14392.71, 62417.36, 10397.58, 40913.50, 118620.26, 101223.70, 0.00, 0.00, 0.00
248, 86077.59, 127689.72, 14394.90, 62415.93, 10419.89, 40918.67, 118633.47, 101228.77, 0.00, 0.00, 0.00
249, 86078.40, 127684.02, 14397.88, 62429.11, 10393.87, 40913.17, 118634.16, 101228.50, 0.00, 0.00, 0.00
250, 86082.89, 127663.39, 14402.41, 62439.48, 10408.11, 40912.83, 118628.10, 101230.29, 0.00, 0.00, 0.00
251, 86078.71, 127658.77, 14395.73, 62422.74, 10422.30, 40915.27, 118623.01, 101224.05, 0.00, 0.00, 0.00
252, 86076.09, 127662.86, 14393.61, 62415.75, 10400.87, 40906.78, 118617.20, 101221.97, 0.00, 0.00, 0.00
253, 86076.19, 127662.63, 14399.53, 62431.95, 10418.37, 40910.80, 118619.48, 101222.95, 0.00, 0.00, 0.00
254, 86079.59, 127674.12, 14405.43, 62440.67, 10437.79, 40920.90, 118630.12, 101229.30, 0.07, -0.29, 0.96
255, 86073.95, 127672.63, 14395.37, 62423.86, 10398.01, 40906.98, 118622.96, 101223.70, 0.00, 0.00, 0.00
0, 86072.92, 127676.60, 14396.36, 62434.50, 10415.71, 40908.74, 118620.50, 101222.45, 0.00, 0.00, 0.00
1, 86071.40, 127683.82, 14404.29, 62440.04, 10419.89, 40907.89, 118616.52, 101220.85, 0.00, 0.00, 0.00
2, 86068.74, 127692.98, 14409.48, 62435.89, 10428.29, 40903.54, 118614.20, 101216.52, 0.00, 0.00, 0.00
3, 86067.94, 127680.70, 14406.01, 62438.46, 10426.37, 40909.32, 118623.84, 101215.73, 0.00, 0.00, 0.00
4, 86067.34, 127667.55, 14404.36, 62437.45, 10424.27, 40909.28, 118619.88, 101217.55, 0.00, 0.00, 0.00
5, 86063.80, 127661.91, 14399.89, 62431.82, 10417.48, 40908.36, 118605.10, 101212.59, 0.00, 0.00, 0.00
6, 86066.38, 127671.95, 14400.58, 62427.55, 10417.25, 40906.69, 118609.93, 101218.73, 0.00, 0.00, 0.00
7, 86058.20, 127681.95, 14398.77, 62423.23, 10399.98, 40897.63, 118601.39, 101213.48, 0.00, 0.00, 0.00
8, 86062.35, 127681.01, 14410.08, 62452.87, 10423.49, 40907.89, 118611.27, 101215.24, 0.07, -0.28, 0.96
9, 86062.84, 127672.40, 14415.38, 62456.29, 10419.58, 40908.99, 118620.68, 101214.95, 0.00, 0.00, 0.00
10, 86053.70, 127662.61, 14409.74, 62448.92, 10436.54, 40910.02, 118615.63, 101209.48, 0.00, 0.00, 0.00
11, 86044.71, 127659.19, 14399.62, 62434.01, 10418.17, 40899.82, 118602.22, 101198.91, 0.00, 0.00, 0.00
12, 86048.71, 127660.17, 14398.48, 62428.64, 10416.43, 40899.42, 118603.36, 101198.70, 0.00, 0.00, 0.00
13, 86053.34, 127663.86, 14398.97, 62430.39, 10414.75, 40896.27, 118606.29, 101204.59, 0.00, 0.00, 0.00
14, 86052.47, 127664.87, 14395.66, 62414.32, 10403.26, 40886.68, 118600.90, 101204.11, 0.00, 0.00, 0.00
15, 86057.19, 127674.21, 14395.51, 62420.24, 10411.80, 40891.44, 118602.11, 101204.80, 0.00, 0.00, 0.00
16, 86055.24, 127682.23, 14405.99, 62456.92, 10432.21, 40900.23, 118603.09, 101204.65, 0.00, 0.00, 0.00
17, 86061.05, 127680.70, 14409.50, 62458.55, 10445.55, 40911.36, 118609.28, 101210.48, 0.00, 0.00, 0.00
18, 86064.12, 127682.01, 14406.84, 62451.02, 10444.25, 40910.60, 118615.16, 101215.71, 0.06, -0.29, 0.96
19, 86056.54, 127651.41, 14397.12, 62439.02, 10419.82, 40900.20, 118601.98, 101209.66, 0.00, 0.00, 0.00
20, 86057.07, 127650.65, 14393.72, 62432.44, 10411.29, 40898.24, 118598.64, 101208.29, 0.00, 0.00, 0.00
21, 86062.33, 127660.40, 14397.14, 62440.40, 10419.00, 40905.10, 118605.30, 101214.15, 0.00, 0.00, 0.00
22, 86060.94, 127664.30, 14390.10, 62426.95, 10382.41, 40884.40, 118592.36, 101208.90, 0.00, 0.00, 0.00
23, 86062.08, 127682.59, 14398.08, 62433.81, 10405.92, 40898.48, 118608.43, 101211.80, 0.00, 0.00, 0.00
24, 86066.17, 127682.46, 14402.55, 62447.51, 10457.78, 40918.73, 118622.07, 101216.66, 0.00, 0.00, 0.00
25, 86070.75, 127657.73, 14398.46, 62449.68, 10453.24, 40914.02, 118606.47, 101216.70, 0.00, 0.00, 0.00
26, 86077.52, 127662.38, 14400.87, 62449.03, 10435.09, 40914.51, 118609.62, 101222.98, 0.00, 0.00, 0.00
27, 86068.92, 127670.12, 14406.64, 62455.49, 10444.54, 40910.69, 118603.05, 101218.27, 0.00, 0.00, 0.00
28, 86056.49, 127672.98, 14406.39, 62456.43, 10443.00, 40907.25, 118603.80, 101207.91, 0.07, -0.29, 0.96
29, 86054.50, 127672.91, 14407.17, 62461.19, 10434.11, 40902.19, 118611.95, 101208.49, 0.00, 0.00, 0.00
30, 86051.69, 127685.59, 14407.44, 62459.00, 10436.30, 40896.05, 118599.73, 101207.22, 0.00, 0.00, 0.00
31, 86050.84, 127695.94, 14407.73, 62456.47, 10424.83, 40896.63, 118593.28, 101206.66, 0.00, 0.00, 0.00
32, 86052.34, 127680.78, 14402.93, 62443.53, 10404.74, 40889.59, 118587.80, 101202.41, 0.00, 0.00, 0.00
33, 86055.33, 127655.50, 14404.76, 62454.39, 10425.93, 40900.18, 118595.54, 101199.73, 0.00, 0.00, 0.00
34, 86058.08, 127649.96, 14402.55, 62456.79, 10440.46, 40908.36, 118603.74, 101200.07, 0.00, 0.00, 0.00
35, 86058.70, 127658.68, 14404.54, 62459.06, 10433.37, 40906.33, 118604.90, 101204.63, 0.00, 0.00, 0.00
36, 86057.41, 127668.20, 14408.22, 62465.61, 10419.71, 40902.55, 118602.04, 101208.09, 0.00, 0.00, 0.00
37, 86062.70, 127674.48, 14405.68, 62461.86, 10439.23, 40910.06, 118610.84, 101218.13, 0.00, 0.00, 0.00
38, 86064.59, 127683.73, 14402.95, 62459.46, 10440.88, 40906.55, 118602.46, 101213.99, 0.08, -0.29, 0.96
39, 86066.62, 127682.93, 14406.95, 62460.74, 10418.21, 40895.58, 118589.43, 101208.54, 0.00, 0.00, 0.00
40, 86071.16, 127684.63, 14405.50, 62455.49, 10421.63, 40898.89, 118594.64, 101214.93, 0.00, 0.00, 0.00
41, 86061.84, 127687.51, 14399.75, 62444.36, 10418.39, 40897.28, 118595.09, 101213.57, 0.00, 0.00, 0.00
42, 86065.01, 127694.75, 14407.55, 62458.62, 10427.85, 40908.47, 118598.55, 101218.38, 0.00, 0.00, 0.00
43, 86067.11, 127694.22, 14410.15, 62467.76, 10440.19, 40906.15, 118596.14, 101216.25, 0.00, 0.00, 0.00
44, 86070.38, 127671.35, 14403.20, 62466.46, 10455.45, 40909.12, 118595.18, 101210.02, 0.00, 0.00, 0.00
45, 86071.87, 127679.59, 14411.09, 62458.73, 10446.00, 40910.62, 118604.92, 101212.56, 0.00, 0.00, 0.00
46, 86069.44, 127692.05, 14413.30, 62444.80, 10446.96, 40912.39, 118603.49, 101218.10, 0.00, 0.00, 0.00
47, 86068.79, 127677.83, 14404.56, 62442.41, 10433.24, 40911.16, 118602.17, 101219.34, 0.00, 0.00, 0.00
48, 86071.58, 127666.32, 14409.59, 62470.15, 10432.21, 40905.75, 118596.48, 101216.38, 0.07, -0.28, 0.96
49, 86078.84, 127669.83, 14412.47, 62483.81, 10440.88, 40906.08, 118599.73, 101222.17, 0.00, 0.00, 0.00
50, 86082.38, 127681.81, 14408.67, 62472.81, 10447.29, 40909.79, 118601.28, 101224.41, 0.00, 0.00, 0.00
51, 86074.53, 127691.17, 14411.53, 62474.60, 10443.74, 40908.21, 118598.40, 101219.16, 0.00, 0.00, 0.00
52, 86076.97, 127685.34, 14407.69, 62468.59, 10428.52, 40906.95, 118596.52, 101219.18, 0.00, 0.00, 0.00
53, 86081.57, 127679.71, 14404.22, 62458.91, 10417.34, 40906.46, 118599.54, 101225.84, 0.00, 0.00, 0.00
54, 86077.84, 127684.09, 14399.51, 62443.38, 10403.98, 40903.38, 118603.85, 101227.72, 0.00, 0.00, 0.00
55, 86086.60, 127694.93, 14404.11, 62451.00, 10436.61, 40919.54, 118620.23, 101239.23, 0.00, 0.00, 0.00
56, 86083.67, 127703.80, 14414.24, 62473.19, 10441.75, 40918.51, 118615.09, 101232.12, 0.00, 0.00, 0.00
57, 86074.11, 127698.35, 14407.24, 62465.28, 10447.18, 40906.55, 118591.22, 101221.77, 0.00, 0.00, 0.00
58, 86081.80, 127689.88, 14405.21, 62462.20, 10453.64, 40908.16, 118597.44, 101226.22, 0.07, -0.29, 0.96
59, 86084.08, 127682.48, 14404.98, 62455.24, 10431.11, 40897.07, 118602.11, 101226.17, 0.00, 0.00, 0.00
60, 86083.13, 127686.19, 14408.00, 62459.91, 10429.88, 40894.62, 118593.88, 101221.97, 0.00, 0.00, 0.00
61, 86077.10, 127710.73, 14410.04, 62461.03, 10425.99, 40900.50, 118589.61, 101221.52, 0.00, 0.00, 0.00
62, 86084.97, 127703.52, 14413.77, 62471.63, 10452.41, 40915.18, 118593.95, 101229.62, 0.00, 0.00, 0.00
63, 86083.47, 127686.44, 14410.59, 62472.95, 10445.82, 40913.55, 118598.76, 101223.20, 0.00, 0.00, 0.00
64, 86084.37, 127686.75, 14410.12, 62465.12, 10439.54, 40908.95, 118601.39, 101223.49, 0.00, 0.00, 0.00
65, 86082.58, 127674.48, 14410.26, 62459.29, 10419.56, 40897.54, 118589.99, 101219.67, 0.00, 0.00, 0.00
66, 86075.23, 127683.27, 14409.45, 62459.00, 10434.44, 40905.68, 118595.29, 101220.99, 0.00, 0.00, 0.00
67, 86071.00, 127688.88, 14411.35, 62459.24, 10451.59, 40915.78, 118599.07, 101223.88, 0.00, 0.00, 0.00
68, 86074.87, 127689.90, 14417.72, 62460.85, 10439.94, 40911.96, 118601.05, 101228.27, 0.07, -0.28, 0.96
69, 86076.45, 127686.88, 14414.62, 62461.25, 10436.66, 40908.23, 118598.98, 101228.01, 0.00, 0.00, 0.00
70, 86073.57, 127688.11, 14412.94, 62468.72, 10435.63, 40905.99, 118593.86, 101219.94, 0.00, 0.00, 0.00
71, 86077.55, 127705.34, 14421.75, 62477.04, 10431.71, 40912.95, 118602.91, 101229.98, 0.00, 0.00, 0.00
72, 86077.39, 127713.23, 14425.64, 62479.41, 10451.61, 40923.63, 118603.59, 101234.65, 0.00, 0.00, 0.00
73, 86070.17, 127691.96, 14425.79, 62475.89, 10450.36, 40916.50, 118591.71, 101228.45, 0.00, 0.00, 0.00
74, 86074.42, 127694.53, 14420.36, 62474.75, 10443.54, 40915.29, 118595.63, 101232.19, 0.00, 0.00, 0.00
75, 86071.34, 127689.01, 14416.96, 62470.80, 10439.07, 40913.66, 118582.51, 101220.99, 0.00, 0.00, 0.00
76, 86073.75, 127689.68, 14412.31, 62466.55, 10427.58, 40905.97, 118575.04, 101219.40, 0.00, 0.00, 0.00
77, 86074.89, 127705.37, 14410.59, 62452.02, 10395.55, 40903.71, 118587.04, 101225.93, 0.00, 0.00, 0.00
78, 86067.29, 127703.49, 14415.33, 62454.35, 10419.47, 40911.65, 118594.91, 101226.42, 0.07, -0.28, 0.96
79, 86062.26, 127689.19, 14419.53, 62487.52, 10458.05, 40918.46, 118586.15, 101222.09, 0.00, 0.00, 0.00
80, 86065.14, 127681.81, 14422.31, 62495.21, 10484.78, 40925.39, 118584.12, 101222.48, 0.00, 0.00, 0.00
81, 86071.06, 127672.29, 14417.63, 62481.08, 10469.83, 40925.68, 118587.69, 101230.42, 0.00, 0.00, 0.00
82, 86076.85, 127680.98, 14410.59, 62473.59, 10462.85, 40921.15, 118589.45, 101231.43, 0.00, 0.00, 0.00
83, 86082.35, 127696.38, 14424.23, 62483.25, 10452.99, 40922.13, 118592.34, 101235.34, 0.00, 0.00, 0.00
84, 86071.67, 127696.85, 14422.22, 62473.77, 10445.51, 40918.22, 118585.48, 101227.98, 0.00, 0.00, 0.00
85, 86062.13, 127686.44, 14412.61, 62463.38, 10442.20, 40913.48, 118584.49, 101218.38, 0.00, 0.00, 0.00
86, 86065.73, 127690.23, 14420.65, 62475.18, 10450.54, 40920.37, 118596.09, 101219.27, 0.00, 0.00, 0.00
87, 86061.66, 127692.70, 14423.22, 62475.31, 10453.06, 40919.14, 118588.95, 101217.62, 0.00, 0.00, 0.00
88, 86050.10, 127688.70, 14415.29, 62469.97, 10440.32, 40915.65, 118576.65, 101207.20, 0.07, -0.28, 0.96
89, 86054.33, 127697.21, 14418.35, 62473.08, 10438.53, 40915.31, 118584.72, 101211.87, 0.00, 0.00, 0.00
90, 86064.34, 127694.80, 14421.14, 62474.15, 10454.76, 40929.84, 118586.48, 101219.63, 0.00, 0.00, 0.00
91, 86064.34, 127677.98, 14415.62, 62473.97, 10454.00, 40932.75, 118585.90, 101215.80, 0.00, 0.00, 0.00
92, 86066.22, 127683.87, 14423.33, 62483.41, 10449.87, 40928.21, 118584.63, 101214.17, 0.00, 0.00, 0.00
93, 86068.92, 127684.45, 14420.32, 62480.23, 10438.40, 40919.29, 118577.97, 101211.34, 0.00, 0.00, 0.00
94, 86077.37, 127699.80, 14420.85, 62482.04, 10439.40, 40919.92, 118584.56, 101221.77, 0.00, 0.00, 0.00
95, 86076.81, 127701.84, 14420.23, 62481.15, 10442.85, 40919.09, 118584.00, 101221.23, 0.00, 0.00, 0.00
96, 86079.23, 127690.35, 14419.29, 62477.23, 10441.64, 40916.99, 118578.23, 101224.54, 0.00, 0.00, 0.00
97, 86074.04, 127679.73, 14412.27, 62470.08, 10435.65, 40913.88, 118576.18, 101226.29, 0.00, 0.00, 0.00
98, 86066.41, 127686.15, 14414.26, 62474.42, 10443.47, 40919.96, 118576.52, 101221.46, 0.07, -0.29, 0.96
99, 86072.45, 127685.92, 14412.99, 62477.26, 10445.84, 40917.82, 118575.06, 101222.09, 0.00, 0.00, 0.00
100, 86078.06, 127682.48, 14419.18, 62482.71, 10436.28, 40917.79, 118580.60, 101228.21, 0.00, 0.00, 0.00
101, 86081.20, 127687.76, 14413.54, 62472.97, 10446.74, 40924.77, 118579.46, 101228.59, 0.00, 0.00, 0.00
102, 86084.81, 127686.48, 14418.30, 62474.98, 10460.24, 40935.05, 118583.91, 101233.80, 0.00, 0.00, 0.00
103, 86076.09, 127676.65, 14409.90, 62471.56, 10427.40, 40917.75, 118570.16, 101227.23, 0.00, 0.00, 0.00
104, 86084.23, 127683.91, 14410.79, 62473.66, 10447.83, 40927.70, 118575.51, 101230.66, 0.00, 0.00, 0.00
105, 86087.85, 127685.12, 14407.04, 62464.65, 10446.56, 40923.16, 118574.73, 101230.87, 0.00, 0.00, 0.00
106, 86082.11, 127701.01, 14411.71, 62467.38, 10435.22, 40916.59, 118569.36, 101226.58, 0.00, 0.00, 0.00
107, 86082.91, 127694.88, 14409.01, 62463.16, 10440.66, 40919.96, 118569.67, 101232.08, 0.00, 0.00, 0.00
108, 86072.81, 127678.81, 14405.90, 62470.89, 10448.64, 40922.98, 118565.43, 101228.03, 0.07, -0.28, 0.96
109, 86072.50, 127685.70, 14411.13, 62482.33, 10443.41, 40928.12, 118575.58, 101233.20, 0.00, 0.00, 0.00
110, 86078.78, 127696.70, 14417.86, 62485.82, 10446.07, 40935.07, 118579.91, 101235.02, 0.00, 0.00, 0.00
111, 86075.73, 127700.70, 14410.97, 62472.21, 10435.65, 40932.05, 118573.27, 101228.03, 0.00, 0.00, 0.00
112, 86075.41, 127700.63, 14414.46, 62483.96, 10441.08, 40936.86, 118572.49, 101232.12, 0.00, 0.00, 0.00
113, 86071.47, 127692.56, 14411.49, 62481.04, 10454.78, 40938.87, 118570.50, 101231.90, 0.00, 0.00, 0.00
114, 86068.95, 127693.48, 14409.48, 62470.91, 10457.13, 40939.57, 118574.32, 101229.46, 0.00, 0.00, 0.00
115, 86075.70, 127689.97, 14414.93, 62486.29, 10450.36, 40940.97, 118570.95, 101226.82, 0.00, 0.00, 0.00
116, 86074.76, 127684.07, 14412.31, 62484.86, 10454.89, 40941.69, 118560.71, 101217.05, 0.00, 0.00, 0.00
117, 86073.97, 127689.16, 14415.94, 62483.72, 10457.67, 40944.06, 118562.81, 101218.87, 0.00, 0.00, 0.00
118, 86067.13, 127691.65, 14416.27, 62481.86, 10450.38, 40939.66, 118566.68, 101219.52, 0.07, -0.29, 0.96
119, 86068.49, 127693.81, 14414.64, 62488.64, 10450.56, 40943.88, 118567.30, 101223.65, 0.00, 0.00, 0.00
120, 86075.54, 127698.26, 14411.71, 62484.84, 10442.78, 40942.65, 118565.49, 101228.74, 0.00, 0.00, 0.00
121, 86077.02, 127698.93, 14410.19, 62483.88, 10450.60, 40943.30, 118563.57, 101231.12, 0.00, 0.00, 0.00
122, 86072.38, 127679.09, 14414.37, 62484.61, 10447.61, 40940.93, 118564.89, 101234.02, 0.00, 0.00, 0.00
123, 86066.62, 127681.72, 14415.44, 62477.59, 10451.52, 40938.14, 118556.29, 101224.74, 0.00, 0.00, 0.00
124, 86066.48, 127696.49, 14418.80, 62480.03, 10444.34, 40935.70, 118553.02, 101219.00, 0.00, 0.00, 0.00
125, 86075.85, 127692.49, 14421.39, 62484.23, 10444.99, 40937.69, 118556.02, 101227.02, 0.00, 0.00, 0.00
126, 86067.80, 127681.84, 14408.81, 62469.95, 10445.39, 40933.82, 118544.95, 101216.02, 0.00, 0.00, 0.00
127, 86071.55, 127685.32, 14411.04, 62474.11, 10446.69, 40940.71, 118554.68, 101223.02, 0.00, 0.00, 0.00
128, 86069.55, 127686.05, 14406.50, 62468.74, 10432.09, 40932.70, 118549.36, 101217.05, 0.07, -0.28, 0.95
129, 86076.09, 127685.86, 14408.29, 62473.57, 10439.25, 40937.78, 118551.95, 101218.93, 0.00, 0.00, 0.00
130, 86080.88, 127687.51, 14407.91, 62481.46, 10449.82, 40937.06, 118552.58, 101223.88, 0.00, 0.00, 0.00
131, 86084.66, 127697.14, 14414.68, 62492.19, 10446.09, 40943.05, 118554.14, 101230.48, 0.00, 0.00, 0.00
132, 86080.55, 127698.84, 14405.65, 62478.51, 10430.20, 40937.42, 118547.91, 101225.44, 0.00, 0.00, 0.00
133, 86074.58, 127692.92, 14402.52, 62470.84, 10439.94, 40938.54, 118547.34, 101225.28, 0.00, 0.00, 0.00
134, 86076.43, 127698.59, 14408.78, 62472.95, 10452.68, 40945.49, 118560.87, 101231.18, 0.00, 0.00, 0.00
135, 86074.48, 127706.40, 14405.72, 62474.42, 10444.01, 40945.04, 118553.52, 101230.45, 0.00, 0.00, 0.00
136, 86069.39, 127672.91, 14397.36, 62468.27, 10424.50, 40934.60, 118541.96, 101222.73, 0.00, 0.00, 0.00
137, 86069.05, 127675.55, 14411.11, 62493.96, 10448.32, 40945.76, 118546.81, 101221.80, 0.00, 0.00, 0.00
138, 86078.20, 127685.41, 14407.67, 62483.59, 10435.94, 40939.81, 118549.38, 101232.01, 0.07, -0.29, 0.95
139, 86090.53, 127693.32, 14405.21, 62476.43, 10431.20, 40935.95, 118549.18, 101240.46, 0.00, 0.00, 0.00
140, 86078.89, 127685.86, 14404.25, 62480.84, 10440.92, 40940.08, 118541.60, 101230.13, 0.00, 0.00, 0.00
141, 86080.12, 127684.41, 14398.01, 62468.34, 10455.50, 40942.56, 118545.71, 101230.33, 0.00, 0.00, 0.00
142, 86085.28, 127696.43, 14406.28, 62478.11, 10447.00, 40941.44, 118548.64, 101235.14, 0.00, 0.00, 0.00
143, 86094.29, 127709.34, 14422.26, 62507.84, 10454.83, 40955.08, 118566.41, 101245.91, 0.00, 0.00, 0.00
144, 86076.77, 127703.70, 14413.34, 62483.70, 10447.47, 40951.79, 118558.05, 101230.40, 0.00, 0.00, 0.00
145, 86075.18, 127704.23, 14405.77, 62469.05, 10449.80, 40955.19, 118553.67, 101232.92, 0.00, 0.00, 0.00
146, 86071.65, 127692.52, 14403.06, 62480.10, 10443.81, 40949.31, 118549.38, 101228.72, 0.00, 0.00, 0.00
147, 86082.22, 127692.05, 14404.80, 62488.46, 10439.56, 40945.82, 118554.12, 101238.67, 0.00, 0.00, 0.00
148, 86076.09, 127697.81, 14406.62, 62483.99, 10434.15, 40938.00, 118545.20, 101228.43, 0.07, -0.29, 0.95
149, 86068.38, 127707.65, 14410.93, 62486.69, 10410.12, 40932.70, 118536.30, 101215.47, 0.00, 0.00, 0.00
150, 86073.23, 127685.07, 14403.04, 62470.82, 10438.91, 40954.86, 118548.64, 101229.15, 0.00, 0.00, 0.00
151, 86085.23, 127689.79, 14402.14, 62481.59, 10450.74, 40963.57, 118562.43, 101242.76, 0.00, 0.00, 0.00
152, 86083.96, 127691.02, 14407.51, 62491.41, 10431.27, 40949.38, 118556.15, 101250.49, 0.00, 0.00, 0.00
153, 86085.08, 127691.02, 14402.48, 62486.94, 10426.71, 40941.93, 118552.17, 101259.23, 0.00, 0.00, 0.00
154, 86067.94, 127711.31, 14413.77, 62485.89, 10435.94, 40948.75, 118547.84, 101225.48, 0.00, 0.00, 0.00
155, 86052.25, 127720.23, 14414.39, 62482.69, 10432.88, 40946.36, 118538.63, 101204.59, 0.00, 0.00, 0.00
156, 86059.09, 127701.75, 14402.64, 62464.38, 10420.79, 40940.46, 118534.94, 101215.83, 0.00, 0.00, 0.00
157, 86071.96, 127699.13, 14410.75, 62482.24, 10414.93, 40933.93, 118528.68, 101221.13, 0.00, 0.00, 0.00
158, 86082.17, 127704.45, 14411.04, 62481.26, 10417.79, 40940.32, 118539.66, 101229.95, 0.08, -0.29, 0.96
159, 86079.29, 127706.22, 14417.41, 62507.12, 10422.28, 40941.00, 118539.48, 101222.20, 0.00, 0.00, 0.00
160, 86081.84, 127699.34, 14406.41, 62493.20, 10402.75, 40935.05, 118532.34, 101220.52, 0.00, 0.00, 0.00
161, 86099.09, 127713.57, 14424.36, 62500.41, 10449.84, 40950.34, 118542.52, 101235.59, 0.00, 0.00, 0.00
162, 86088.43, 127712.52, 14416.58, 62483.47, 10413.43, 40929.29, 118521.91, 101221.10, 0.00, 0.00, 0.00
163, 86104.68, 127719.34, 14419.13, 62481.80, 10413.70, 40942.05, 118524.70, 101230.71, 0.00, 0.00, 0.00
164, 86097.87, 127711.52, 14411.60, 62489.02, 10453.89, 40948.51, 118514.13, 101222.73, 0.00, 0.00, 0.00
165, 86106.13, 127716.09, 14424.21, 62501.15, 10447.23, 40942.07, 118515.45, 101228.16, 0.00, 0.00, 0.00
166, 86116.26, 127720.05, 14420.14, 62483.92, 10431.47, 40941.93, 118517.08, 101236.19, 0.00, 0.00, 0.00
167, 86133.54, 127724.03, 14419.18, 62476.41, 10424.72, 40930.67, 118518.02, 101251.72, 0.00, 0.00, 0.00
168, 86135.55, 127726.36, 14425.21, 62498.20, 10409.90, 40930.27, 118513.39, 101247.05, 0.07, -0.29, 0.97
169, 86129.77, 127719.67, 14415.98, 62479.52, 10330.22, 40901.10, 118496.90, 101232.14, 0.00, 0.00, 0.00
170, 86131.17, 127714.29, 14418.86, 62484.41, 10430.82, 40944.10, 118512.09, 101236.77, 0.00, 0.00, 0.00
171, 86147.51, 127723.12, 14422.26, 62488.34, 10449.98, 40943.01, 118511.20, 101250.23, 0.00, 0.00, 0.00
172, 86137.54, 127714.42, 14407.35, 62475.00, 10420.76, 40931.70, 118493.55, 101235.85, 0.00, 0.00, 0.00
173, 86119.50, 127707.72, 14404.71, 62475.89, 10421.08, 40934.49, 118490.70, 101216.61, 0.00, 0.00, 0.00
174, 86133.27, 127712.63, 14418.30, 62499.19, 10400.20, 40916.86, 118476.16, 101225.41, 0.00, 0.00, 0.00
175, 86162.71, 127713.04, 14418.13, 62514.68, 10395.73, 40929.08, 118479.98, 101252.13, 0.00, 0.00, 0.00
176, 86198.45, 127731.95, 14432.99, 62557.12, 10438.98, 40945.80, 118498.51, 101282.27, 0.00, 0.00, 0.00
177, 86215.88, 127742.70, 14444.50, 62557.64, 10478.65, 40958.34, 118501.81, 101292.54, 0.00, 0.00, 0.00
178, 86220.11, 127735.16, 14438.29, 62524.51, 10441.50, 40950.03, 118505.68, 101298.46, 0.08, -0.29, 0.95
179, 86210.23, 127725.93, 14421.68, 62483.32, 10364.35, 40899.31, 118469.59, 101281.74, 0.00, 0.00, 0.00
180, 86246.95, 127745.49, 14456.97, 62518.34, 10433.21, 40954.72, 118513.80, 101327.59, 0.00, 0.00, 0.00
181, 86256.01, 127751.75, 14459.61, 62515.57, 10402.57, 40943.41, 118505.80, 101330.94, 0.00, 0.00, 0.00
182, 86281.24, 127759.35, 14452.62, 62505.18, 10372.06, 40933.48, 118512.12, 101348.75, 0.00, 0.00, 0.00
183, 86264.81, 127745.83, 14450.47, 62514.25, 10419.56, 40931.65, 118489.92, 101328.14, 0.00, 0.00, 0.00
184, 86278.80, 127748.71, 14448.82, 62513.56, 10400.38, 40921.46, 118479.84, 101335.05, 0.00, 0.00, 0.00
185, 86310.05, 127767.33, 14459.43, 62529.07, 10421.14, 40937.17, 118500.81, 101360.62, 0.00, 0.00, 0.00
186, 86338.93, 127782.75, 14471.26, 62534.75, 10429.73, 40962.07, 118528.95, 101391.71, 0.00, 0.00, 0.00
187, 86343.53, 127784.54, 14470.47, 62530.23, 10429.68, 40985.70, 118545.69, 101400.72, 0.00, 0.00, 0.00
188, 86334.41, 127786.91, 14479.71, 62541.68, 10420.74, 40974.30, 118531.38, 101390.88, 0.07, -0.29, 0.96
189, 86343.47, 127792.77, 14483.77, 62546.50, 10414.44, 40969.05, 118521.55, 101394.51, 0.00, 0.00, 0.00
190, 86375.81, 127806.13, 14492.29, 62546.68, 10428.83, 40990.39, 118551.16, 101429.15, 0.00, 0.00, 0.00
191, 86396.98, 127820.03, 14501.66, 62566.84, 10428.99, 41000.05, 118559.64, 101447.66, 0.00, 0.00, 0.00
192, 86406.03, 127829.51, 14500.49, 62557.75, 10403.37, 40985.48, 118556.20, 101450.45, 0.00, 0.00, 0.00
193, 86417.41, 127831.25, 14497.47, 62538.79, 10429.12, 40996.00, 118557.31, 101458.27, 0.00, 0.00, 0.00
194, 86420.76, 127832.66, 14520.50, 62593.73, 10493.67, 41026.89, 118565.05, 101464.20, 0.00, 0.00, 0.00
195, 86445.19, 127844.58, 14528.14, 62607.19, 10489.43, 41046.14, 118590.62, 101493.93, 0.00, 0.00, 0.00
196, 86444.54, 127853.34, 14538.71, 62595.68, 10458.51, 41028.66, 118587.16, 101490.48, 0.00, 0.00, 0.00
197, 86457.05, 127865.95, 14561.51, 62631.95, 10471.88, 41047.03, 118606.48, 101505.51, 0.00, 0.00, 0.00
198, 86467.50, 127865.34, 14555.30, 62624.22, 10472.17, 41047.17, 118606.00, 101520.14, 0.07, -0.29, 0.96
199, 86471.61, 127867.59, 14553.00, 62613.67, 10445.91, 41032.35, 118588.70, 101519.41, 0.00, 0.00, 0.00
200, 86471.90, 127874.02, 14561.92, 62622.23, 10472.60, 41048.89, 118596.88, 101520.66, 0.00, 0.00, 0.00
201, 86499.37, 127895.16, 14590.01, 62662.38, 10505.45, 41079.49, 118629.78, 101551.57, 0.00, 0.00, 0.00
202, 86514.16, 127911.38, 14603.94, 62680.12, 10517.68, 41085.39, 118637.38, 101566.50, 0.00, 0.00, 0.00
203, 86503.70, 127906.58, 14595.26, 62657.39, 10504.45, 41077.14, 118623.66, 101555.95, 0.00, 0.00, 0.00
204, 86511.51, 127914.73, 14606.13, 62667.02, 10503.33, 41082.01, 118624.28, 101560.49, 0.00, 0.00, 0.00
205, 86520.11, 127921.11, 14605.61, 62667.54, 10509.97, 41085.05, 118630.05, 101569.01, 0.00, 0.00, 0.00
206, 86522.23, 127932.40, 14612.90, 62661.68, 10524.63, 41098.17, 118639.28, 101573.54, 0.00, 0.00, 0.00
207, 86529.99, 127937.65, 14627.34, 62672.46, 10530.82, 41110.49, 118651.19, 101578.23, 0.00, 0.00, 0.00
208, 86547.92, 127946.14, 14640.71, 62698.72, 10528.86, 41107.61, 118657.34, 101595.31, 0.06, -0.29, 0.97
209, 86552.73, 127957.54, 14655.73, 62727.93, 10540.86, 41116.55, 118664.98, 101603.18, 0.00, 0.00, 0.00
210, 86549.30, 127969.19, 14669.63, 62742.66, 10565.58, 41137.47, 118674.91, 101597.80, 0.00, 0.00, 0.00
211, 86568.03, 127976.54, 14669.29, 62725.68, 10574.68, 41146.72, 118687.83, 101617.40, 0.00, 0.00, 0.00
212, 86567.34, 127972.30, 14670.21, 62715.77, 10582.03, 41156.51, 118690.93, 101617.35, 0.00, 0.00, 0.00
213, 86561.89, 127973.52, 14675.91, 62728.87, 10588.67, 41157.63, 118685.75, 101612.28, 0.00, 0.00, 0.00
214, 86576.15, 127985.99, 14688.40, 62753.23, 10571.68, 41158.50, 118696.88, 101627.88, 0.00, 0.00, 0.00
215, 86583.68, 127992.01, 14692.90, 62758.38, 10620.45, 41180.99, 118706.40, 101636.44, 0.00, 0.00, 0.00
216, 86596.66, 127998.80, 14696.23, 62759.98, 10606.44, 41182.64, 118718.31, 101650.12, 0.00, 0.00, 0.00
217, 86605.67, 128005.77, 14693.01, 62742.33, 10592.31, 41180.76, 118723.50, 101659.38, 0.00, 0.00, 0.00
218, 86595.51, 128010.27, 14709.95, 62771.72, 10604.92, 41187.31, 118722.92, 101651.62, 0.07, -0.29, 0.96
219, 86601.80, 128018.18, 14718.78, 62791.88, 10608.43, 41184.79, 118725.80, 101656.02, 0.00, 0.00, 0.00
220, 86599.23, 128020.91, 14716.70, 62775.18, 10669.90, 41213.40, 118736.71, 101652.84, 0.00, 0.00, 0.00
221, 86600.29, 128023.70, 14732.82, 62809.43, 10659.50, 41208.77, 118732.89, 101650.09, 0.00, 0.00, 0.00
222, 86603.02, 128027.86, 14721.01, 62778.89, 10627.14, 41197.55, 118729.63, 101650.73, 0.00, 0.00, 0.00
223, 86596.78, 128030.25, 14707.76, 62755.80, 10627.09, 41183.04, 118715.66, 101644.69, 0.00, 0.00, 0.00
224, 86621.41, 128054.99, 14740.26, 62808.22, 10660.62, 41227.52, 118756.55, 101677.81, 0.00, 0.00, 0.00
225, 86617.84, 128046.57, 14749.83, 62826.04, 10654.54, 41234.00, 118758.13, 101675.47, 0.00, 0.00, 0.00
226, 86606.37, 128025.34, 14726.71, 62783.84, 10624.63, 41203.96, 118732.59, 101657.70, 0.00, 0.00, 0.00
227, 86607.22, 128029.24, 14723.23, 62784.33, 10657.07, 41207.85, 118732.66, 101657.38, 0.00, 0.00, 0.00
228, 86607.69, 128036.40, 14739.34, 62809.36, 10667.97, 41216.46, 118740.33, 101663.02, 0.07, -0.29, 0.95
229, 86595.30, 128030.54, 14735.90, 62815.11, 10639.74, 41199.83, 118721.33, 101648.78, 0.00, 0.00, 0.00
230, 86600.96, 128031.86, 14735.90, 62815.64, 10632.25, 41207.43, 118725.29, 101656.24, 0.00, 0.00, 0.00
231, 86613.07, 128036.76, 14731.83, 62798.79, 10641.96, 41226.50, 118747.20, 101668.38, 0.00, 0.00, 0.00
232, 86616.13, 128050.93, 14736.37, 62797.20, 10652.21, 41236.53, 118754.77, 101669.68, 0.00, 0.00, 0.00
233, 86607.27, 128040.38, 14733.96, 62802.86, 10640.39, 41214.11, 118729.06, 101657.83, 0.00, 0.00, 0.00
234, 86616.47, 128034.88, 14741.33, 62808.91, 10639.61, 41220.84, 118736.22, 101665.92, 0.00, 0.00, 0.00
235, 86622.69, 128038.55, 14727.65, 62776.57, 10614.31, 41209.75, 118738.99, 101675.71, 0.00, 0.00, 0.00
236, 86604.60, 128031.88, 14727.23, 62788.17, 10620.34, 41198.84, 118718.23, 101657.41, 0.00, 0.00, 0.00
237, 86599.44, 128038.86, 14752.04, 62842.91, 10687.24, 41234.83, 118734.14, 101652.51, 0.00, 0.00, 0.00
238, 86608.29, 128040.91, 14734.69, 62809.79, 10665.09, 41223.66, 118737.76, 101662.46, 0.07, -0.28, 0.96
239, 86598.88, 128038.79, 14734.27, 62819.02, 10649.00, 41207.21, 118726.41, 101653.31, 0.00, 0.00, 0.00
240, 86608.23, 128042.05, 14734.11, 62818.26, 10579.46, 41200.84, 118735.13, 101660.89, 0.00, 0.00, 0.00
241, 86613.55, 128048.22, 14741.78, 62821.79, 10667.26, 41218.80, 118739.52, 101664.49, 0.00, 0.00, 0.00
242, 86615.66, 128043.38, 14727.34, 62784.28, 10694.93, 41214.52, 118730.90, 101661.63, 0.00, 0.00, 0.00
243, 86603.30, 128033.27, 14726.89, 62784.46, 10683.04, 41217.31, 118725.66, 101649.07, 0.00, 0.00, 0.00
244, 86610.81, 128036.09, 14734.20, 62821.97, 10670.90, 41207.21, 118717.76, 101647.62, 0.00, 0.00, 0.00
245, 86630.27, 128044.55, 14728.57, 62814.48, 10630.58, 41192.90, 118718.70, 101664.67, 0.00, 0.00, 0.00
246, 86608.18, 128042.77, 14724.50, 62801.58, 10656.37, 41202.33, 118720.80, 101657.81, 0.00, 0.00, 0.00
247, 86603.24, 128037.91, 14734.20, 62817.18, 10672.15, 41225.94, 118743.21, 101663.95, 0.08, -0.28, 0.95
248, 86606.62, 128029.52, 14726.07, 62799.55, 10673.58, 41219.43, 118738.97, 101668.25, 0.00, 0.00, 0.00
249, 86636.52, 128045.31, 14743.14, 62832.52, 10688.83, 41249.11, 118768.05, 101698.89, 0.00, 0.00, 0.00
250, 86608.24, 128030.07, 14722.80, 62794.47, 10650.47, 41213.06, 118734.27, 101666.84, 0.00, 0.00, 0.00
251, 86599.22, 128027.63, 14719.20, 62802.54, 10641.02, 41202.06, 118723.45, 101658.93, 0.00, 0.00, 0.00
252, 86608.89, 128033.07, 14725.69, 62814.82, 10653.98, 41217.64, 118736.44, 101671.58, 0.00, 0.00, 0.00
253, 86605.63, 128030.01, 14720.63, 62791.70, 10652.04, 41218.02, 118739.59, 101671.27, 0.00, 0.00, 0.00
254, 86615.60, 128031.10, 14724.10, 62803.35, 10640.37, 41213.26, 118740.42, 101677.81, 0.00, 0.00, 0.00
255, 86602.13, 128024.98, 14717.13, 62807.02, 10621.48, 41198.24, 118719.92, 101664.63, 0.00, 0.00, 0.00
0, 86594.81, 128022.27, 14717.48, 62802.48, 10625.01, 41194.82, 118717.55, 101655.64, 0.00, 0.00, 0.00
1, 86583.26, 128015.56, 14706.53, 62778.45, 10631.14, 41196.41, 118706.53, 101644.35, 0.07, -0.28, 0.95
2, 86594.61, 128023.66, 14715.67, 62790.50, 10642.94, 41214.69, 118728.20, 101659.15, 0.00, 0.00, 0.00
3, 86611.02, 128032.38, 14719.94, 62804.02, 10655.55, 41220.88, 118745.47, 101678.51, 0.00, 0.00, 0.00
4, 86591.52, 128019.23, 14706.02, 62785.67, 10623.47, 41197.86, 118717.46, 101654.34, 0.00, 0.00, 0.00
5, 86582.34, 128015.84, 14710.33, 62788.71, 10629.68, 41190.78, 118708.63, 101644.51, 0.00, 0.00, 0.00
6, 86579.14, 128013.06, 14709.08, 62795.86, 10612.45, 41176.14, 118703.38, 101641.89, 0.00, 0.00, 0.00
7, 86604.42, 128023.88, 14721.86, 62823.31, 10620.30, 41209.26, 118737.02, 101671.09, 0.00, 0.00, 0.00
8, 86592.64, 128016.21, 14705.39, 62795.61, 10612.94, 41201.44, 118723.81, 101658.16, 0.00, 0.00, 0.00
9, 86592.73, 128017.09, 14709.86, 62796.55, 10634.98, 41212.39, 118733.76, 101659.15, 0.00, 0.00, 0.00
10, 86587.23, 128016.98, 14717.01, 62803.80, 10675.89, 41231.90, 118733.67, 101650.05, 0.00, 0.00, 0.00
11, 86587.44, 128016.41, 14720.17, 62808.80, 10640.75, 41210.20, 118722.92, 101647.86, 0.07, -0.28, 0.96
12, 86581.94, 128010.94, 14710.00, 62793.51, 10618.55, 41191.31, 118703.98, 101639.19, 0.00, 0.00, 0.00
13, 86590.45, 128013.27, 14705.21, 62785.13, 10615.16, 41193.86, 118705.04, 101650.21, 0.00, 0.00, 0.00
14, 86584.53, 128009.06, 14700.88, 62776.84, 10620.41, 41183.42, 118706.13, 101644.73, 0.00, 0.00, 0.00
15, 86599.17, 128023.57, 14715.05, 62785.67, 10653.02, 41206.78, 118727.30, 101666.70, 0.00, 0.00, 0.00
16, 86598.12, 128023.14, 14705.06, 62767.23, 10624.90, 41204.81, 118731.21, 101668.34, 0.00, 0.00, 0.00
17, 86587.33, 128015.99, 14711.49, 62798.79, 10613.95, 41188.32, 118712.81, 101654.41, 0.00, 0.00, 0.00
18, 86575.48, 128004.55, 14692.47, 62764.12, 10611.11, 41169.30, 118687.38, 101639.52, 0.00, 0.00, 0.00
19, 86592.04, 128011.66, 14705.35, 62786.43, 10619.11, 41180.14, 118709.30, 101661.74, 0.00, 0.00, 0.00
20, 86588.51, 128011.32, 14702.26, 62794.96, 10631.61, 41177.14, 118711.85, 101658.66, 0.00, 0.00, 0.00
21, 86589.85, 128013.09, 14703.78, 62797.22, 10651.46, 41201.33, 118713.30, 101660.18, 0.07, -0.29, 0.96
22, 86571.74, 128011.05, 14707.02, 62801.45, 10652.39, 41195.79, 118704.37, 101643.98, 0.00, 0.00, 0.00
23, 86577.31, 128014.70, 14703.56, 62790.27, 10625.84, 41186.53, 118709.57, 101648.94, 0.00, 0.00, 0.00
24, 86602.75, 128020.20, 14698.04, 62768.66, 10603.20, 41181.77, 118728.51, 101679.38, 0.00, 0.00, 0.00
25, 86603.93, 128023.21, 14706.78, 62789.16, 10669.87, 41214.27, 118739.37, 101682.80, 0.00, 0.00, 0.00
26, 86578.14, 128008.23, 14704.59, 62801.56, 10639.07, 41199.94, 118716.28, 101654.45, 0.00, 0.00, 0.00
27, 86587.03, 128008.93, 14693.63, 62770.63, 10615.87, 41187.51, 118716.46, 101662.52, 0.00, 0.00, 0.00
28, 86597.72, 128015.84, 14708.54, 62790.21, 10608.36, 41183.13, 118720.03, 101671.51, 0.00, 0.00, 0.00
29, 86579.28, 128007.90, 14705.32, 62797.74, 10611.33, 41180.76, 118704.88, 101651.64, 0.00, 0.00, 0.00
30, 86593.45, 128016.51, 14709.15, 62805.47, 10634.80, 41204.28, 118727.27, 101665.61, 0.00, 0.00, 0.00
31, 86605.67, 128022.16, 14715.56, 62803.32, 10637.22, 41213.06, 118734.45, 101675.18, 0.07, -0.29, 0.96
32, 86616.96, 128024.40, 14714.38, 62803.32, 10639.18, 41221.31, 118739.75, 101690.22, 0.00, 0.00, 0.00
33, 86611.84, 128022.09, 14708.01, 62794.52, 10623.74, 41208.32, 118729.53, 101684.16, 0.00, 0.00, 0.00
34, 86594.90, 128013.80, 14696.43, 62778.14, 10605.63, 41187.83, 118711.83, 101665.09, 0.00, 0.00, 0.00
35, 86592.58, 128012.55, 14694.91, 62771.32, 10608.18, 41190.11, 118709.59, 101663.38, 0.00, 0.00, 0.00
36, 86602.86, 128021.47, 14706.58, 62784.91, 10619.27, 41205.42, 118719.52, 101671.84, 0.00, 0.00, 0.00
37, 86592.09, 128023.16, 14710.89, 62800.78, 10590.01, 41190.44, 118708.61, 101661.56, 0.00, 0.00, 0.00
38, 86607.06, 128039.41, 14717.44, 62809.16, 10619.27, 41218.34, 118737.85, 101681.79, 0.00, 0.00, 0.00
39, 86618.93, 128036.47, 14726.65, 62813.25, 10654.90, 41237.67, 118756.52, 101698.38, 0.00, 0.00, 0.00
40, 86600.34, 128017.91, 14704.16, 62780.84, 10627.65, 41205.75, 118723.66, 101675.71, 0.00, 0.00, 0.00
41, 86598.16, 128017.76, 14695.67, 62770.76, 10619.83, 41199.27, 118712.75, 101670.46, 0.11, -0.29, 0.97
42, 86592.47, 128017.22, 14699.31, 62788.15, 10612.00, 41196.14, 118708.13, 101664.83, 0.00, 0.00, 0.00
43, 86602.41, 128026.12, 14706.91, 62786.56, 10609.61, 41201.39, 118715.48, 101676.02, 0.00, 0.00, 0.00
44, 86622.26, 128035.99, 14707.80, 62780.46, 10613.46, 41216.82, 118731.21, 101695.41, 0.00, 0.00, 0.00
45, 86621.99, 128041.43, 14731.99, 62806.45, 10627.94, 41229.73, 118737.52, 101698.71, 0.00, 0.00, 0.00
46, 86614.52, 128039.91, 14725.35, 62812.25, 10634.58, 41231.97, 118740.30, 101692.70, 0.00, 0.00, 0.00
47, 86607.51, 128037.59, 14718.44, 62805.89, 10614.35, 41220.21, 118723.43, 101682.95, 0.00, 0.00, 0.00
48, 86604.24, 128035.13, 14712.90, 62784.15, 10613.59, 41219.72, 118717.22, 101679.34, 0.00, 0.00, 0.00
49, 86603.15, 128036.73, 14725.87, 62810.97, 10622.13, 41233.74, 118732.10, 101682.38, 0.00, 0.00, 0.00
50, 86599.39, 128035.17, 14724.30, 62816.71, 10613.93, 41221.27, 118719.01, 101673.34, 0.00, 0.00, 0.00
51, 86611.24, 128043.39, 14726.54, 62815.44, 10615.60, 41227.30, 118725.73, 101683.63, 0.10, -0.29, 0.99
52, 86604.02, 128045.67, 14722.54, 62802.95, 10612.47, 41231.23, 118724.17, 101680.63, 0.00, 0.00, 0.00
53, 86611.87, 128044.45, 14729.33, 62810.37, 10622.96, 41251.33, 118737.83, 101688.37, 0.00, 0.00, 0.00
54, 86607.38, 128023.28, 14727.61, 62806.95, 10629.66, 41254.64, 118735.73, 101684.43, 0.00, 0.00, 0.00
55, 86603.38, 128002.58, 14722.89, 62797.47, 10613.08, 41244.40, 118726.67, 101682.17, 0.00, 0.00, 0.00
56, 86605.88, 127987.83, 14718.56, 62793.40, 10599.15, 41241.83, 118724.41, 101683.60, 0.00, 0.00, 0.00
57, 86607.93, 127982.48, 14723.38, 62799.05, 10597.14, 41249.25, 118730.92, 101685.10, 0.00, 0.00, 0.00
58, 86616.52, 127989.02, 14733.15, 62807.04, 10620.92, 41256.60, 118736.28, 101691.02, 0.00, 0.00, 0.00
59, 86608.63, 127984.97, 14723.85, 62791.48, 10588.60, 41244.53, 118721.78, 101680.79, 0.00, 0.00, 0.00
60, 86602.14, 127984.27, 14722.38, 62793.09, 10601.86, 41241.16, 118723.77, 101674.80, 0.00, 0.00, 0.00
61, 86611.73, 127995.56, 14730.09, 62803.44, 10682.93, 41265.21, 118737.07, 101683.85, 0.11, -0.27, 0.98
62, 86618.48, 128002.60, 14735.48, 62817.47, 10672.71, 41267.15, 118744.71, 101692.52, 0.00, 0.00, 0.00
63, 86609.84, 128000.75, 14731.03, 62796.66, 10647.79, 41256.91, 118740.66, 101687.94, 0.00, 0.00, 0.00
64, 86608.63, 128003.01, 14740.62, 62807.84, 10666.57, 41266.88, 118738.07, 101685.23, 0.00, 0.00, 0.00
65, 86612.23, 128004.01, 14739.14, 62808.38, 10643.57, 41263.22, 118737.16, 101686.71, 0.00, 0.00, 0.00
66, 86607.30, 128001.64, 14730.80, 62790.79, 10627.72, 41251.39, 118729.06, 101680.49, 0.00, 0.00, 0.00
67, 86602.70, 128004.34, 14737.15, 62823.84, 10630.44, 41254.93, 118728.75, 101676.25, 0.00, 0.00, 0.00
68, 86608.34, 128013.38, 14740.53, 62828.43, 10635.12, 41263.87, 118737.45, 101683.65, 0.00, 0.00, 0.00
69, 86601.25, 128011.79, 14734.56, 62818.41, 10623.92, 41260.71, 118733.09, 101675.18, 0.00, 0.00, 0.00
70, 86592.06, 128001.15, 14727.81, 62807.93, 10626.60, 41254.10, 118726.95, 101665.23, 0.00, 0.00, 0.00
71, 86591.93, 127997.55, 14730.56, 62812.16, 10623.22, 41252.45, 118724.59, 101663.02, 0.08, -0.28, 0.95
72, 86596.29, 128001.98, 14730.49, 62810.57, 10629.53, 41253.56, 118727.74, 101663.02, 0.00, 0.00, 0.00
73, 86593.65, 128002.34, 14725.08, 62802.66, 10622.64, 41245.79, 118722.88, 101659.42, 0.00, 0.00, 0.00
74, 86588.87, 128005.91, 14726.36, 62802.57, 10619.98, 41246.48, 118718.76, 101656.96, 0.00, 0.00, 0.00
75, 86583.84, 128002.96, 14723.85, 62795.61, 10615.60, 41239.77, 118716.86, 101653.07, 0.00, 0.00, 0.00
76, 86574.83, 127994.31, 14714.82, 62782.49, 10605.61, 41234.61, 118710.06, 101645.29, 0.00, 0.00, 0.00
77, 86571.23, 127993.77, 14718.02, 62790.36, 10600.05, 41230.92, 118708.23, 101642.41, 0.00, 0.00, 0.00
78, 86571.23, 127997.48, 14720.43, 62794.18, 10602.01, 41235.23, 118710.29, 101641.05, 0.00, 0.00, 0.00
79, 86568.15, 127999.30, 14717.33, 62789.85, 10610.26, 41240.49, 118710.13, 101638.95, 0.00, 0.00, 0.00
80, 86559.99, 127999.80, 14713.46, 62787.64, 10590.79, 41230.09, 118700.52, 101628.80, 0.00, 0.00, 0.00
81, 86563.52, 128005.77, 14714.11, 62787.10, 10599.67, 41227.32, 118700.30, 101627.79, 0.06, -0.29, 0.95
82, 86561.80, 128001.75, 14717.04, 62789.16, 10618.11, 41229.87, 118703.25, 101626.98, 0.00, 0.00, 0.00
83, 86559.59, 127991.70, 14715.67, 62788.04, 10610.26, 41229.00, 118703.34, 101625.63, 0.00, 0.00, 0.00
84, 86558.60, 127978.55, 14716.92, 62787.14, 10596.13, 41226.99, 118701.62, 101624.59, 0.00, 0.00, 0.00
85, 86544.77, 127971.17, 14708.14, 62775.77, 10599.55, 41218.36, 118688.50, 101610.42, 0.00, 0.00, 0.00
86, 86544.03, 127972.47, 14706.22, 62775.61, 10603.18, 41221.15, 118683.13, 101606.09, 0.00, 0.00, 0.00
87, 86543.85, 127974.13, 14702.06, 62761.53, 10575.42, 41211.30, 118679.91, 101606.22, 0.00, 0.00, 0.00
88, 86545.30, 127978.26, 14705.01, 62776.08, 10579.15, 41219.90, 118685.19, 101609.24, 0.00, 0.00, 0.00
89, 86544.97, 127982.53, 14710.98, 62791.32, 10605.32, 41223.43, 118687.85, 101610.20, 0.00, 0.00, 0.00
90, 86539.89, 127981.57, 14709.66, 62787.07, 10607.87, 41218.05, 118680.02, 101604.68, 0.00, 0.00, 0.00
91, 86535.18, 127983.05, 14701.97, 62768.05, 10584.13, 41208.55, 118674.03, 101600.43, 0.09, -0.28, 0.98
92, 86538.77, 127986.73, 14703.87, 62767.14, 10598.66, 41216.95, 118681.01, 101603.94, 0.00, 0.00, 0.00
93, 86546.80, 127987.00, 14717.42, 62797.74, 10614.75, 41217.09, 118687.27, 101611.98, 0.00, 0.00, 0.00
94, 86551.34, 127990.55, 14715.23, 62794.68, 10629.37, 41220.59, 118692.36, 101617.15, 0.00, 0.00, 0.00
95, 86547.56, 127989.23, 14713.15, 62789.63, 10612.21, 41210.36, 118685.52, 101612.48, 0.00, 0.00, 0.00
96, 86543.18, 127989.51, 14709.08, 62779.63, 10602.30, 41202.15, 118675.87, 101604.99, 0.00, 0.00, 0.00
97, 86536.85, 127985.26, 14700.63, 62766.13, 10590.26, 41195.11, 118667.80, 101596.01, 0.00, 0.00, 0.00
98, 86532.49, 127978.46, 14698.19, 62760.54, 10578.54, 41197.30, 118663.59, 101589.59, 0.00, 0.00, 0.00
99, 86532.02, 127975.00, 14699.54, 62765.80, 10572.71, 41190.64, 118659.73, 101588.97, 0.00, 0.00, 0.00
100, 86533.05, 127978.75, 14702.22, 62775.45, 10575.71, 41193.93, 118664.36, 101593.05, 0.00, 0.00, 0.00
101, 86532.74, 127981.23, 14701.46, 62773.33, 10572.17, 41200.07, 118667.89, 101596.25, 0.10, -0.28, 0.96
102, 86537.08, 127985.93, 14704.65, 62778.31, 10599.89, 41210.80, 118673.37, 101603.88, 0.00, 0.00, 0.00
103, 86538.24, 127990.20, 14710.46, 62782.27, 10610.78, 41219.92, 118677.88, 101608.52, 0.00, 0.00, 0.00
104, 86533.95, 127988.37, 14708.56, 62774.49, 10593.23, 41218.05, 118672.20, 101601.70, 0.00, 0.00, 0.00
105, 86529.43, 127983.11, 14702.02, 62766.71, 10582.83, 41213.82, 118666.55, 101595.60, 0.00, 0.00, 0.00
106, 86529.43, 127980.98, 14699.49, 62766.42, 10572.13, 41209.93, 118663.38, 101593.75, 0.00, 0.00, 0.00
107, 86536.34, 127984.61, 14706.89, 62780.71, 10582.61, 41213.15, 118663.84, 101598.11, 0.00, 0.00, 0.00
108, 86532.77, 127982.46, 14701.84, 62770.85, 10591.04, 41212.61, 118665.34, 101594.58, 0.00, 0.00, 0.00
109, 86531.22, 127981.57, 14702.78, 62777.60, 10577.02, 41208.59, 118665.59, 101593.26, 0.00, 0.00, 0.00
110, 86522.95, 127975.94, 14695.00, 62765.20, 10570.77, 41198.58, 118657.61, 101584.95, 0.00, 0.00, 0.00
111, 86517.56, 127974.80, 14687.08, 62740.16, 10563.61, 41195.56, 118649.27, 101579.17, 0.12, -0.27, 1.02
112, 86518.75, 127974.88, 14684.74, 62724.69, 10560.60, 41193.37, 118651.03, 101579.49, 0.00, 0.00, 0.00
113, 86525.68, 127978.02, 14688.36, 62757.66, 10585.47, 41204.34, 118660.65, 101588.88, 0.00, 0.00, 0.00
114, 86527.49, 127980.14, 14701.99, 62800.87, 10574.10, 41203.27, 118661.14, 101591.29, 0.00, 0.00, 0.00
115, 86521.39, 127974.75, 14694.17, 62785.36, 10550.16, 41187.51, 118650.56, 101584.18, 0.00, 0.00, 0.00
116, 86514.19, 127969.08, 14687.62, 62772.39, 10577.31, 41191.67, 118644.38, 101575.17, 0.00, 0.00, 0.00
117, 86511.51, 127966.75, 14686.06, 62759.92, 10602.01, 41194.09, 118640.04, 101570.37, 0.00, 0.00, 0.00
118, 86512.71, 127969.01, 14684.94, 62757.53, 10588.56, 41188.39, 118638.90, 101568.98, 0.00, 0.00, 0.00
119, 86507.57, 127965.74, 14679.44, 62746.46, 10577.67, 41183.71, 118638.27, 101567.33, 0.00, 0.00, 0.00
120, 86503.93, 127962.01, 14677.72, 62742.37, 10568.06, 41180.36, 118632.44, 101564.52, 0.00, 0.00, 0.00
121, 86504.66, 127958.50, 14677.29, 62743.31, 10556.71, 41179.22, 118630.45, 101563.89, 0.07, -0.29, 0.92
122, 86503.15, 127956.49, 14668.94, 62734.64, 10558.43, 41175.89, 118632.08, 101564.40, 0.00, 0.00, 0.00
123, 86500.04, 127957.77, 14672.76, 62742.11, 10555.23, 41175.51, 118627.21, 101563.35, 0.00, 0.00, 0.00
124, 86496.87, 127955.22, 14673.34, 62737.97, 10551.45, 41169.77, 118622.89, 101559.93, 0.00, 0.00, 0.00
125, 86491.52, 127951.64, 14666.05, 62733.10, 10543.67, 41166.86, 118618.36, 101553.41, 0.00, 0.00, 0.00
126, 86491.46, 127946.73, 14662.57, 62730.68, 10542.85, 41168.98, 118615.49, 101551.26, 0.00, 0.00, 0.00
127, 86482.45, 127942.37, 14660.26, 62724.78, 10534.22, 41158.52, 118605.64, 101544.51, 0.00, 0.00, 0.00
128, 86476.02, 127943.15, 14655.55, 62718.97, 10526.46, 41156.27, 118612.52, 101540.87, 0.00, 0.00, 0.00
129, 86474.52, 127942.74, 14661.63, 62714.54, 10529.68, 41155.30, 118615.49, 101539.59, 0.00, 0.00, 0.00
130, 86469.04, 127939.23, 14660.22, 62714.97, 10528.16, 41151.30, 118606.89, 101536.28, 0.00, 0.00, 0.00
131, 86468.66, 127936.71, 14658.85, 62711.95, 10524.79, 41158.25, 118607.16, 101537.80, 0.07, -0.27, 0.98
132, 86473.46, 127940.94, 14664.02, 62723.51, 10523.85, 41163.06, 118609.39, 101542.59, 0.00, 0.00, 0.00
133, 86472.19, 127945.05, 14662.14, 62722.37, 10519.83, 41162.46, 118607.59, 101540.13, 0.00, 0.00, 0.00
134, 86474.78, 127948.29, 14664.44, 62724.56, 10527.16, 41164.29, 118609.95, 101540.35, 0.00, 0.00, 0.00
135, 86474.90, 127949.31, 14660.49, 62716.55, 10536.08, 41161.16, 118607.78, 101539.86, 0.00, 0.00, 0.00
136, 86471.03, 127933.91, 14657.31, 62718.93, 10537.77, 41157.07, 118605.70, 101536.88, 0.00, 0.00, 0.00
137, 86468.57, 127934.38, 14667.10, 62748.16, 10538.31, 41163.95, 118610.78, 101538.23, 0.00, 0.00, 0.00
138, 86470.11, 127933.52, 14664.96, 62729.68, 10531.38, 41163.44, 118611.96, 101539.99, 0.00, 0.00, 0.00
139, 86468.59, 127928.59, 14654.76, 62703.55, 10519.25, 41154.75, 118606.42, 101537.58, 0.00, 0.00, 0.00
140, 86468.34, 127933.24, 14661.22, 62722.93, 10524.79, 41154.97, 118603.29, 101535.79, 0.00, 0.00, 0.00
141, 86470.24, 127936.58, 14668.73, 62751.61, 10528.79, 41163.17, 118608.30, 101536.22, 0.11, -0.26, 0.97
142, 86469.71, 127941.54, 14666.97, 62743.38, 10523.60, 41165.34, 118606.27, 101534.34, 0.00, 0.00, 0.00
143, 86465.44, 127939.86, 14671.77, 62737.43, 10524.63, 41165.63, 118606.16, 101528.55, 0.00, 0.00, 0.00
144, 86464.68, 127938.90, 14666.97, 62726.64, 10531.45, 41159.71, 118603.41, 101527.34, 0.00, 0.00, 0.00
145, 86460.81, 127935.75, 14660.98, 62722.55, 10516.99, 41155.33, 118592.01, 101521.71, 0.00, 0.00, 0.00
146, 86457.23, 127934.95, 14658.12, 62718.50, 10510.77, 41149.74, 118588.47, 101517.55, 0.00, 0.00, 0.00
147, 86460.66, 127937.96, 14663.77, 62720.69, 10520.97, 41157.00, 118590.30, 101521.69, 0.00, 0.00, 0.00
148, 86459.07, 127937.98, 14661.80, 62718.39, 10535.29, 41163.84, 118589.95, 101522.96, 0.00, 0.00, 0.00
149, 86457.28, 127935.15, 14661.60, 62706.83, 10513.34, 41156.85, 118586.80, 101522.02, 0.00, 0.00, 0.00
150, 86450.78, 127930.05, 14658.14, 62704.22, 10488.89, 41144.96, 118578.98, 101518.20, 0.00, 0.00, 0.00
151, 86456.30, 127933.54, 14667.88, 62730.48, 10533.13, 41152.78, 118583.78, 101523.25, 0.11, -0.27, 0.95
152, 86456.21, 127931.19, 14662.10, 62717.50, 10539.58, 41158.34, 118588.72, 101523.85, 0.00, 0.00, 0.00
153, 86453.26, 127928.17, 14653.94, 62699.68, 10505.14, 41147.66, 118583.63, 101522.96, 0.00, 0.00, 0.00
154, 86457.95, 127930.49, 14660.13, 62712.82, 10517.30, 41157.92, 118586.04, 101525.71, 0.00, 0.00, 0.00
155, 86462.24, 127939.84, 14663.79, 62718.30, 10549.82, 41173.61, 118592.30, 101528.70, 0.00, 0.00, 0.00
156, 86458.94, 127938.61, 14669.76, 62737.90, 10551.99, 41173.01, 118591.29, 101525.82, 0.00, 0.00, 0.00
157, 86458.71, 127931.97, 14671.51, 62735.67, 10543.79, 41168.22, 118593.23, 101526.09, 0.00, 0.00, 0.00
158, 86456.23, 127930.38, 14666.37, 62720.00, 10535.90, 41166.57, 118589.55, 101522.98, 0.00, 0.00, 0.00
159, 86453.20, 127930.61, 14661.94, 62710.77, 10526.24, 41161.61, 118584.07, 101518.16, 0.00, 0.00, 0.00
160, 86457.46, 127930.23, 14662.36, 62715.89, 10521.95, 41161.88, 118583.11, 101520.26, 0.00, 0.00, 0.00
161, 86457.66, 127930.41, 14664.29, 62710.16, 10515.89, 41158.57, 118583.40, 101520.79, 0.10, -0.27, 0.95
162, 86454.71, 127931.86, 14655.68, 62685.44, 10520.00, 41159.48, 118584.92, 101521.22, 0.00, 0.00, 0.00
163, 86455.83, 127934.95, 14665.92, 62719.55, 10526.51, 41157.83, 118585.37, 101521.27, 0.00, 0.00, 0.00
164, 86453.88, 127936.15, 14672.56, 62743.71, 10527.92, 41159.91, 118581.88, 101516.75, 0.00, 0.00, 0.00
165, 86449.37, 127933.31, 14666.07, 62724.40, 10516.21, 41152.04, 118577.70, 101512.66, 0.00, 0.00, 0.00
166, 86446.80, 127931.70, 14662.81, 62715.15, 10508.81, 41144.82, 118574.68, 101513.08, 0.00, 0.00, 0.00
167, 86447.96, 127934.48, 14667.84, 62726.23, 10517.46, 41147.55, 118574.10, 101514.49, 0.00, 0.00, 0.00
168, 86448.81, 127935.66, 14663.77, 62715.55, 10515.58, 41148.11, 118568.24, 101515.12, 0.00, 0.00, 0.00
169, 86449.46, 127937.89, 14660.87, 62707.28, 10508.05, 41147.10, 118574.73, 101514.78, 0.00, 0.00, 0.00
170, 86449.15, 127933.36, 14663.93, 62712.67, 10512.72, 41149.80, 118580.31, 101514.67, 0.00, 0.00, 0.00
171, 86452.41, 127923.50, 14665.74, 62712.22, 10519.89, 41154.52, 118574.39, 101516.84, 0.07, -0.27, 0.96
172, 86446.53, 127923.50, 14660.53, 62704.66, 10506.57, 41151.50, 118570.62, 101510.98, 0.00, 0.00, 0.00
173, 86448.45, 127929.27, 14662.74, 62707.21, 10494.95, 41145.34, 118571.20, 101512.14, 0.00, 0.00, 0.00
174, 86451.16, 127934.98, 14667.88, 62710.52, 10513.72, 41149.25, 118574.52, 101514.38, 0.00, 0.00, 0.00
175, 86443.36, 127930.72, 14665.76, 62705.83, 10511.56, 41145.56, 118565.70, 101505.26, 0.00, 0.00, 0.00
176, 86437.23, 127928.23, 14658.16, 62695.46, 10512.49, 41143.05, 118562.84, 101501.44, 0.00, 0.00, 0.00
177, 86441.19, 127929.96, 14663.64, 62705.38, 10508.52, 41140.46, 118564.09, 101507.52, 0.00, 0.00, 0.00
178, 86442.04, 127929.49, 14663.73, 62703.61, 10506.84, 41138.77, 118562.66, 101508.08, 0.00, 0.00, 0.00
179, 86450.22, 127931.08, 14666.70, 62706.43, 10512.20, 41143.50, 118569.77, 101515.07, 0.00, 0.00, 0.00
180, 86449.13, 127935.01, 14668.40, 62708.00, 10500.07, 41142.47, 118573.63, 101513.73, 0.00, 0.00, 0.00
181, 86445.19, 127930.92, 14664.42, 62701.76, 10507.02, 41141.04, 118572.36, 101509.57, 0.07, -0.28, 0.95
182, 86449.37, 127929.49, 14669.00, 62713.67, 10518.64, 41151.39, 118575.95, 101515.20, 0.00, 0.00, 0.00
183, 86453.15, 127932.77, 14670.92, 62713.54, 10518.78, 41151.37, 118575.71, 101518.00, 0.00, 0.00, 0.00
184, 86452.61, 127932.51, 14668.22, 62710.70, 10521.95, 41147.73, 118572.11, 101517.57, 0.00, 0.00, 0.00
185, 86449.13, 127926.05, 14667.46, 62712.64, 10524.45, 41148.24, 118568.55, 101510.89, 0.00, 0.00, 0.00
186, 86448.81, 127925.02, 14668.76, 62713.70, 10522.28, 41147.41, 118566.37, 101509.62, 0.00, 0.00, 0.00
187, 86446.51, 127925.27, 14668.24, 62703.28, 10520.27, 41146.97, 118566.57, 101509.62, 0.00, 0.00, 0.00
188, 86445.05, 127925.47, 14665.81, 62702.21, 10520.41, 41148.13, 118568.58, 101510.65, 0.00, 0.00, 0.00
189, 86447.88, 127928.73, 14668.20, 62713.94, 10515.02, 41150.25, 118569.81, 101512.99, 0.00, 0.00, 0.00
190, 86450.60, 127928.59, 14665.05, 62706.88, 10508.40, 41147.57, 118569.36, 101514.38, 0.00, 0.00, 0.00
191, 86453.28, 127931.75, 14668.96, 62708.27, 10493.54, 41148.80, 118569.38, 101513.23, 0.07, -0.28, 0.95
192, 86452.84, 127932.73, 14672.24, 62704.09, 10493.05, 41140.80, 118564.09, 101511.20, 0.00, 0.00, 0.00
193, 86451.23, 127930.30, 14664.26, 62692.24, 10515.89, 41145.36, 118560.02, 101509.23, 0.00, 0.00, 0.00
194, 86449.86, 127929.20, 14669.00, 62713.50, 10492.78, 41139.61, 118550.66, 101510.35, 0.00, 0.00, 0.00
195, 86443.45, 127922.25, 14667.24, 62710.57, 10470.32, 41124.66, 118545.00, 101505.88, 0.00, 0.00, 0.00
196, 86447.73, 127922.02, 14668.78, 62714.52, 10530.44, 41144.04, 118567.33, 101510.80, 0.00, 0.00, 0.00
197, 86449.21, 127924.37, 14671.64, 62708.49, 10516.03, 41137.76, 118562.39, 101513.41, 0.00, 0.00, 0.00
198, 86447.91, 127922.74, 14669.29, 62697.96, 10514.28, 41139.14, 118554.07, 101513.10, 0.00, 0.00, 0.00
199, 86443.98, 127929.80, 14677.47, 62717.34, 10524.90, 41141.25, 118551.16, 101509.28, 0.00, 0.00, 0.00
200, 86441.44, 127929.53, 14670.43, 62703.41, 10504.54, 41131.41, 118546.45, 101504.72, 0.00, 0.00, 0.00
201, 86439.24, 127921.82, 14663.91, 62693.94, 10494.79, 41126.25, 118543.81, 101499.60, 0.07, -0.28, 0.96
202, 86440.20, 127921.69, 14662.81, 62691.16, 10501.03, 41125.22, 118541.78, 101499.91, 0.00, 0.00, 0.00
203, 86438.17, 127924.02, 14665.83, 62697.58, 10511.53, 41131.19, 118539.81, 101499.24, 0.00, 0.00, 0.00
204, 86441.26, 127927.01, 14667.71, 62698.63, 10512.99, 41136.57, 118545.20, 101501.66, 0.00, 0.00, 0.00
205, 86443.55, 127927.19, 14668.42, 62703.61, 10504.11, 41134.56, 118547.30, 101505.39, 0.00, 0.00, 0.00
206, 86444.01, 127924.15, 14665.60, 62698.56, 10495.53, 41135.95, 118545.55, 101505.51, 0.00, 0.00, 0.00
207, 86440.85, 127919.61, 14660.98, 62683.57, 10502.55, 41129.71, 118541.13, 101499.29, 0.00, 0.00, 0.00
208, 86449.02, 127923.70, 14665.29, 62693.82, 10500.47, 41130.49, 118544.30, 101503.27, 0.00, 0.00, 0.00
209, 86454.22, 127929.16, 14668.87, 62701.25, 10503.13, 41133.11, 118543.45, 101506.09, 0.00, 0.00, 0.00
210, 86451.67, 127928.35, 14671.21, 62699.48, 10499.26, 41130.16, 118538.07, 101503.90, 0.00, 0.00, 0.00
211, 86444.16, 127922.78, 14654.88, 62673.53, 10484.78, 41122.31, 118527.79, 101496.90, 0.07, -0.28, 0.96
212, 86443.89, 127925.04, 14658.54, 62669.33, 10479.86, 41120.41, 118526.55, 101496.34, 0.00, 0.00, 0.00
213, 86441.37, 127925.76, 14666.25, 62697.78, 10494.43, 41119.27, 118528.84, 101496.50, 0.00, 0.00, 0.00
214, 86447.11, 127924.70, 14673.03, 62721.59, 10506.79, 41130.83, 118537.11, 101502.20, 0.00, 0.00, 0.00
215, 86437.12, 127914.54, 14659.73, 62688.68, 10488.31, 41118.67, 118528.80, 101492.88, 0.00, 0.00, 0.00
216, 86434.82, 127913.91, 14659.88, 62690.23, 10494.61, 41122.45, 118525.17, 101490.75, 0.00, 0.00, 0.00
217, 86439.52, 127919.66, 14672.36, 62708.00, 10498.48, 41124.28, 118525.77, 101496.79, 0.00, 0.00, 0.00
218, 86441.28, 127921.20, 14667.08, 62693.15, 10506.06, 41129.18, 118538.41, 101498.71, 0.00, 0.00, 0.00
219, 86445.10, 127923.77, 14674.50, 62712.13, 10501.18, 41131.66, 118553.73, 101501.19, 0.00, 0.00, 0.00
220, 86439.69, 127917.71, 14668.96, 62701.71, 10483.84, 41121.26, 118535.97, 101495.02, 0.00, 0.00, 0.00
221, 86434.06, 127914.09, 14661.76, 62690.36, 10494.08, 41119.39, 118530.24, 101493.08, 0.07, -0.28, 0.96
222, 86432.72, 127916.48, 14661.36, 62695.57, 10502.66, 41120.46, 118529.17, 101492.30, 0.00, 0.00, 0.00
223, 86437.05, 127921.48, 14665.76, 62695.66, 10500.67, 41122.85, 118531.59, 101496.98, 0.00, 0.00, 0.00
224, 86439.76, 127924.64, 14669.63, 62698.90, 10504.25, 41122.76, 118536.57, 101499.52, 0.00, 0.00, 0.00
225, 86438.82, 127925.73, 14669.76, 62697.13, 10510.42, 41127.79, 118542.09, 101498.58, 0.00, 0.00, 0.00
226, 86437.63, 127924.39, 14667.86, 62696.44, 10502.28, 41132.91, 118542.23, 101495.80, 0.00, 0.00, 0.00
227, 86435.40, 127925.13, 14665.63, 62691.25, 10493.67, 41128.82, 118543.73, 101495.63, 0.00, 0.00, 0.00
228, 86430.39, 127920.15, 14664.73, 62687.45, 10501.52, 41129.13, 118543.26, 101494.28, 0.00, 0.00, 0.00
229, 86428.52, 127919.37, 14668.44, 62690.18, 10505.48, 41126.85, 118542.56, 101494.55, 0.00, 0.00, 0.00
230, 86423.15, 127918.05, 14667.15, 62677.78, 10478.50, 41117.02, 118537.17, 101488.72, 0.00, 0.00, 0.00
231, 86422.03, 127913.62, 14659.93, 62669.11, 10473.02, 41113.89, 118532.44, 101486.84, 0.07, -0.29, 0.96
232, 86433.59, 127919.59, 14674.48, 62717.61, 10518.40, 41128.62, 118543.34, 101496.38, 0.00, 0.00, 0.00
233, 86431.60, 127921.17, 14675.62, 62717.90, 10507.17, 41127.34, 118541.73, 101493.39, 0.00, 0.00, 0.00
234, 86429.79, 127922.59, 14672.13, 62705.43, 10494.55, 41117.69, 118536.51, 101491.80, 0.00, 0.00, 0.00
235, 86430.13, 127920.66, 14667.62, 62686.05, 10479.68, 41116.90, 118532.88, 101491.18, 0.00, 0.00, 0.00
236, 86428.05, 127924.08, 14667.17, 62684.46, 10473.87, 41116.12, 118531.66, 101489.91, 0.00, 0.00, 0.00
237, 86427.04, 127924.28, 14670.92, 62702.36, 10505.41, 41125.35, 118541.11, 101492.02, 0.00, 0.00, 0.00
238, 86425.74, 127919.79, 14676.80, 62715.82, 10516.29, 41134.85, 118545.58, 101490.98, 0.00, 0.00, 0.00
239, 86425.81, 127917.15, 14676.65, 62709.92, 10508.05, 41129.09, 118539.92, 101490.62, 0.00, 0.00, 0.00
240, 86427.94, 127920.19, 14682.95, 62705.13, 10502.37, 41128.26, 118548.58, 101493.30, 0.00, 0.00, 0.00
241, 86425.63, 127918.00, 14676.71, 62700.93, 10506.75, 41135.88, 118541.63, 101489.30, 0.07, -0.29, 0.96
242, 86424.45, 127913.84, 14672.11, 62696.44, 10499.80, 41135.97, 118534.23, 101485.12, 0.00, 0.00, 0.00
243, 86422.41, 127917.76, 14672.87, 62697.38, 10497.63, 41135.30, 118536.95, 101485.79, 0.00, 0.00, 0.00
244, 86421.74, 127910.05, 14677.05, 62699.75, 10498.57, 41134.81, 118538.29, 101486.05, 0.00, 0.00, 0.00
245, 86417.77, 127903.77, 14674.66, 62690.98, 10489.65, 41130.49, 118533.17, 101482.62, 0.00, 0.00, 0.00
246, 86411.69, 127901.80, 14676.62, 62686.23, 10489.03, 41128.21, 118529.66, 101478.05, 0.00, 0.00, 0.00
247, 86405.85, 127907.36, 14679.17, 62689.73, 10480.55, 41120.04, 118522.24, 101472.70, 0.00, 0.00, 0.00
248, 86413.14, 127907.49, 14676.47, 62687.48, 10498.46, 41123.86, 118524.34, 101478.95, 0.00, 0.00, 0.00
249, 86414.48, 127909.10, 14679.17, 62691.79, 10496.56, 41126.20, 118532.52, 101480.18, 0.00, 0.00, 0.00
250, 86415.28, 127905.95, 14677.79, 62686.14, 10493.45, 41130.74, 118531.03, 101476.27, 0.00, 0.00, 0.00
251, 86412.34, 127903.02, 14672.94, 62685.78, 10502.66, 41134.38, 118532.70, 101474.23, 0.06, -0.28, 0.96
252, 86410.14, 127906.52, 14679.87, 62687.99, 10505.88, 41135.39, 118535.41, 101476.49, 0.00, 0.00, 0.00
253, 86410.90, 127910.06, 14688.31, 62705.22, 10510.93, 41140.26, 118539.30, 101482.86, 0.00, 0.00, 0.00
254, 86415.30, 127911.77, 14689.19, 62705.22, 10512.34, 41146.79, 118543.50, 101489.26, 0.00, 0.00, 0.00
255, 86413.70, 127905.80, 14684.36, 62691.05, 10501.21, 41140.87, 118536.21, 101487.34, 0.00, 0.00, 0.00
0, 86409.92, 127904.81, 14686.62, 62698.72, 10497.79, 41140.87, 118531.03, 101482.03, 0.00, 0.00, 0.00
1, 86408.06, 127904.45, 14687.08, 62694.94, 10504.13, 41144.00, 118539.66, 101478.62, 0.00, 0.00, 0.00
2, 86408.31, 127905.91, 14687.31, 62696.15, 10502.73, 41145.67, 118542.67, 101478.21, 0.00, 0.00, 0.00
3, 86412.31, 127907.54, 14695.91, 62709.76, 10507.91, 41149.18, 118540.98, 101484.02, 0.00, 0.00, 0.00
4, 86408.60, 127903.74, 14693.28, 62701.80, 10502.55, 41146.68, 118541.94, 101480.31, 0.00, 0.00, 0.00
5, 86409.67, 127901.70, 14694.35, 62707.77, 10513.12, 41150.23, 118543.86, 101480.05, 0.06, -0.29, 0.96
6, 86408.82, 127903.96, 14698.84, 62710.03, 10513.86, 41153.00, 118538.02, 101478.19, 0.00, 0.00, 0.00
7, 86408.69, 127905.15, 14698.13, 62709.56, 10507.69, 41148.98, 118546.30, 101477.45, 0.00, 0.00, 0.00
8, 86409.25, 127899.34, 14699.09, 62712.51, 10518.46, 41159.98, 118551.10, 101479.69, 0.00, 0.00, 0.00
9, 86411.84, 127898.94, 14704.07, 62720.31, 10520.29, 41161.16, 118548.55, 101479.46, 0.00, 0.00, 0.00
10, 86406.63, 127896.09, 14696.54, 62706.03, 10514.26, 41158.46, 118547.23, 101475.17, 0.00, 0.00, 0.00
11, 86404.11, 127895.02, 14693.43, 62709.56, 10515.78, 41159.98, 118548.87, 101474.48, 0.00, 0.00, 0.00
12, 86402.77, 127892.81, 14697.34, 62706.12, 10506.66, 41155.39, 118548.66, 101473.79, 0.00, 0.00, 0.00
13, 86409.85, 127896.27, 14698.73, 62705.49, 10500.16, 41153.61, 118549.24, 101476.49, 0.00, 0.00, 0.00
14, 86422.66, 127899.77, 14692.61, 62706.12, 10499.40, 41142.23, 118544.66, 101477.16, 0.00, 0.00, 0.00
15, 86423.87, 127898.31, 14694.39, 62709.05, 10501.54, 41144.15, 118548.26, 101480.88, 0.06, -0.29, 0.96
16, 86405.72, 127895.27, 14700.50, 62711.04, 10497.99, 41154.66, 118558.88, 101480.13, 0.00, 0.00, 0.00
17, 86409.67, 127892.41, 14698.55, 62702.70, 10494.99, 41146.34, 118555.93, 101485.50, 0.00, 0.00, 0.00
18, 86414.45, 127893.01, 14696.20, 62700.66, 10517.41, 41153.89, 118557.43, 101487.22, 0.00, 0.00, 0.00
19, 86417.97, 127897.26, 14704.23, 62709.11, 10508.16, 41167.29, 118568.83, 101498.95, 0.00, 0.00, 0.00
20, 86420.54, 127892.99, 14702.91, 62701.07, 10489.65, 41157.29, 118567.82, 101509.41, 0.00, 0.00, 0.00
21, 86426.02, 127894.51, 14705.95, 62722.90, 10532.86, 41165.77, 118575.28, 101520.30, 0.00, 0.00, 0.00
22, 86423.06, 127892.90, 14709.06, 62734.89, 10510.06, 41164.49, 118582.98, 101512.48, 0.00, 0.00, 0.00
23, 86414.68, 127892.20, 14711.25, 62720.29, 10510.97, 41159.48, 118569.05, 101500.27, 0.00, 0.00, 0.00
24, 86415.10, 127894.69, 14710.15, 62710.14, 10526.49, 41161.41, 118565.34, 101500.74, 0.00, 0.00, 0.00
25, 86417.85, 127892.97, 14707.09, 62708.98, 10517.97, 41157.07, 118562.50, 101499.89, 0.06, -0.29, 0.96
26, 86415.10, 127887.02, 14701.10, 62702.32, 10503.49, 41154.75, 118557.56, 101500.03, 0.00, 0.00, 0.00
27, 86417.74, 127885.88, 14702.93, 62706.23, 10526.91, 41157.52, 118558.37, 101504.61, 0.00, 0.00, 0.00
28, 86422.28, 127890.04, 14706.87, 62718.01, 10528.14, 41158.37, 118571.48, 101508.90, 0.00, 0.00, 0.00
29, 86422.93, 127886.41, 14704.72, 62711.97, 10518.40, 41158.25, 118571.62, 101512.14, 0.00, 0.00, 0.00
30, 86419.10, 127886.35, 14705.57, 62707.95, 10511.53, 41161.16, 118567.69, 101516.14, 0.00, 0.00, 0.00
31, 86419.06, 127888.25, 14708.32, 62717.38, 10521.97, 41160.65, 118565.27, 101517.30, 0.00, 0.00, 0.00
32, 86424.52, 127886.66, 14709.37, 62712.93, 10516.41, 41161.70, 118570.93, 101515.56, 0.00, 0.00, 0.00
33, 86418.39, 127883.78, 14708.45, 62708.58, 10510.59, 41160.80, 118580.38, 101509.86, 0.00, 0.00, 0.00
34, 86411.64, 127884.45, 14707.47, 62710.39, 10506.95, 41157.83, 118574.28, 101507.94, 0.00, 0.00, 0.00
35, 86408.29, 127881.75, 14702.89, 62699.77, 10498.19, 41151.71, 118567.59, 101504.95, 0.07, -0.29, 0.96
36, 86409.90, 127886.71, 14705.17, 62705.78, 10497.29, 41149.94, 118566.92, 101506.87, 0.00, 0.00, 0.00
37, 86413.34, 127887.36, 14711.43, 62715.13, 10509.54, 41151.55, 118567.48, 101507.45, 0.00, 0.00, 0.00
38, 86416.49, 127884.34, 14712.99, 62717.65, 10510.13, 41151.08, 118570.16, 101507.05, 0.00, 0.00, 0.00
39, 86422.32, 127886.06, 14714.17, 62713.79, 10511.33, 41151.01, 118575.53, 101511.54, 0.00, 0.00, 0.00
40, 86421.63, 127885.03, 14710.44, 62709.29, 10506.59, 41145.80, 118573.43, 101507.23, 0.00, 0.00, 0.00
41, 86415.15, 127881.88, 14710.76, 62707.28, 10490.21, 41139.93, 118561.43, 101498.55, 0.00, 0.00, 0.00
42, 86413.18, 127882.22, 14713.53, 62710.01, 10488.85, 41139.21, 118559.82, 101500.97, 0.00, 0.00, 0.00
43, 86416.40, 127885.59, 14715.36, 62707.37, 10501.39, 41141.47, 118576.72, 101509.46, 0.00, 0.00, 0.00
44, 86417.81, 127885.08, 14714.00, 62714.16, 10511.53, 41147.41, 118577.30, 101511.30, 0.00, 0.00, 0.00
45, 86421.52, 127885.52, 14721.57, 62720.49, 10509.43, 41149.96, 118571.17, 101509.30, 0.08, -0.29, 0.96
46, 86423.64, 127889.28, 14720.34, 62711.06, 10497.79, 41143.35, 118568.34, 101510.09, 0.00, 0.00, 0.00
47, 86426.55, 127885.03, 14715.52, 62703.41, 10506.62, 41143.66, 118570.28, 101510.91, 0.00, 0.00, 0.00
48, 86432.38, 127882.51, 14716.19, 62704.38, 10519.76, 41148.35, 118576.27, 101513.04, 0.00, 0.00, 0.00
49, 86435.40, 127882.55, 14713.55, 62702.05, 10507.87, 41146.41, 118575.09, 101512.66, 0.00, 0.00, 0.00
50, 86438.08, 127881.61, 14716.46, 62714.10, 10494.77, 41149.09, 118575.53, 101513.88, 0.00, 0.00, 0.00
51, 86437.52, 127881.10, 14714.20, 62709.23, 10508.40, 41150.34, 118578.34, 101513.26, 0.00, 0.00, 0.00
52, 86435.42, 127885.93, 14719.52, 62705.16, 10506.68, 41141.18, 118577.16, 101511.07, 0.00, 0.00, 0.00
53, 86426.44, 127887.87, 14714.67, 62702.59, 10495.06, 41136.95, 118569.65, 101506.15, 0.00, 0.00, 0.00
54, 86424.34, 127883.78, 14708.34, 62696.71, 10478.30, 41128.95, 118572.38, 101506.89, 0.00, 0.00, 0.00
55, 86428.18, 127887.71, 14716.39, 62705.00, 10498.41, 41141.29, 118579.04, 101512.81, 0.07, -0.28, 0.95
56, 86431.65, 127884.54, 14710.60, 62696.17, 10519.92, 41153.70, 118579.73, 101514.47, 0.00, 0.00, 0.00
57, 86437.57, 127884.63, 14718.87, 62712.24, 10512.09, 41156.09, 118581.23, 101517.06, 0.00, 0.00, 0.00
58, 86440.30, 127888.54, 14722.09, 62717.74, 10510.10, 41152.62, 118587.76, 101521.27, 0.00, 0.00, 0.00
59, 86437.68, 127890.11, 14721.17, 62717.65, 10502.46, 41151.93, 118581.45, 101516.23, 0.00, 0.00, 0.00
60, 86436.16, 127886.66, 14721.75, 62717.68, 10515.62, 41152.53, 118575.35, 101512.74, 0.00, 0.00, 0.00
61, 86432.00, 127886.22, 14718.65, 62707.57, 10512.45, 41153.85, 118586.26, 101510.06, 0.00, 0.00, 0.00
62, 86426.26, 127883.00, 14715.92, 62694.52, 10511.94, 41150.10, 118577.66, 101502.40, 0.00, 0.00, 0.00
63, 86425.19, 127877.95, 14710.98, 62692.93, 10511.06, 41152.42, 118577.56, 101499.96, 0.00, 0.00, 0.00
64, 86430.55, 127878.41, 14715.56, 62702.61, 10506.50, 41151.32, 118580.47, 101503.72, 0.00, 0.00, 0.00
65, 86436.72, 127884.67, 14730.58, 62738.95, 10519.54, 41161.54, 118586.48, 101509.75, 0.07, -0.28, 0.96
66, 86434.02, 127885.10, 14725.31, 62731.09, 10516.67, 41162.14, 118581.50, 101508.63, 0.00, 0.00, 0.00
67, 86431.48, 127881.03, 14716.34, 62716.29, 10499.42, 41152.71, 118574.01, 101505.95, 0.00, 0.00, 0.00
68, 86429.90, 127881.34, 14718.78, 62713.70, 10502.79, 41155.84, 118579.66, 101506.15, 0.00, 0.00, 0.00
69, 86431.27, 127886.59, 14720.81, 62710.81, 10517.30, 41167.78, 118587.38, 101508.27, 0.00, 0.00, 0.00
70, 86428.80, 127881.81, 14715.67, 62702.27, 10514.37, 41166.44, 118584.65, 101505.10, 0.00, 0.00, 0.00
71, 86429.86, 127879.04, 14718.65, 62708.91, 10512.20, 41162.37, 118585.37, 101503.42, 0.00, 0.00, 0.00
72, 86431.80, 127879.89, 14722.40, 62721.63, 10511.31, 41163.86, 118587.65, 101506.78, 0.00, 0.00, 0.00
73, 86430.10, 127878.10, 14719.03, 62715.57, 10507.64, 41162.79, 118589.68, 101508.30, 0.00, 0.00, 0.00
74, 86422.32, 127874.19, 14718.56, 62713.54, 10502.30, 41155.59, 118586.69, 101499.24, 0.00, 0.00, 0.00
75, 86420.70, 127869.52, 14714.94, 62707.68, 10503.42, 41155.19, 118588.25, 101493.99, 0.07, -0.28, 0.96
76, 86426.80, 127874.19, 14713.28, 62690.88, 10502.84, 41164.69, 118597.99, 101496.83, 0.00, 0.00, 0.00
77, 86420.47, 127872.41, 14711.76, 62690.41, 10492.11, 41155.46, 118593.16, 101492.49, 0.00, 0.00, 0.00
78, 86416.78, 127877.88, 14721.84, 62714.72, 10512.87, 41157.67, 118586.69, 101491.06, 0.00, 0.00, 0.00
79, 86421.56, 127874.91, 14720.90, 62718.90, 10524.47, 41166.28, 118589.95, 101496.88, 0.00, 0.00, 0.00
80, 86430.51, 127869.30, 14718.60, 62720.40, 10523.16, 41167.73, 118604.74, 101502.11, 0.00, 0.00, 0.00
81, 86430.80, 127868.16, 14711.54, 62706.59, 10512.54, 41161.81, 118598.98, 101508.12, 0.00, 0.00, 0.00
82, 86426.19, 127870.21, 14714.20, 62703.86, 10513.10, 41160.82, 118593.52, 101505.62, 0.00, 0.00, 0.00
83, 86427.46, 127871.94, 14717.84, 62711.48, 10511.24, 41168.76, 118590.71, 101496.63, 0.00, 0.00, 0.00
84, 86436.85, 127867.71, 14714.78, 62711.04, 10511.22, 41165.96, 118589.79, 101505.99, 0.00, 0.00, 0.00
85, 86438.62, 127867.55, 14716.92, 62714.54, 10509.97, 41165.90, 118594.33, 101507.27, 0.07, -0.28, 0.95
86, 86424.76, 127868.91, 14719.94, 62712.15, 10512.05, 41161.18, 118587.47, 101485.88, 0.00, 0.00, 0.00
87, 86416.29, 127868.24, 14713.88, 62703.30, 10517.32, 41160.58, 118582.41, 101474.75, 0.00, 0.00, 0.00
88, 86411.15, 127868.49, 14715.29, 62713.92, 10513.66, 41165.07, 118585.41, 101471.02, 0.00, 0.00, 0.00
89, 86405.72, 127869.54, 14717.97, 62720.07, 10511.78, 41167.71, 118580.76, 101463.55, 0.00, 0.00, 0.00
90, 86408.45, 127868.31, 14713.71, 62712.82, 10509.45, 41165.68, 118583.51, 101464.17, 0.00, 0.00, 0.00
91, 86411.48, 127868.16, 14715.76, 62712.49, 10512.61, 41162.10, 118590.02, 101466.01, 0.00, 0.00, 0.00
92, 86414.08, 127867.42, 14718.85, 62714.28, 10514.06, 41166.73, 118588.18, 101472.27, 0.00, 0.00, 0.00
93, 86409.00, 127861.77, 14714.47, 62709.11, 10508.18, 41164.45, 118584.47, 101468.67, 0.00, 0.00, 0.00
94, 86409.02, 127860.29, 14712.88, 62707.28, 10502.73, 41160.89, 118581.30, 101465.09, 0.00, 0.00, 0.00
95, 86409.92, 127859.82, 14712.43, 62703.14, 10502.62, 41163.33, 118579.46, 101464.42, 0.07, -0.29, 0.96
96, 86411.53, 127860.60, 14713.71, 62708.38, 10507.87, 41164.87, 118582.88, 101466.77, 0.00, 0.00, 0.00
97, 86409.61, 127860.11, 14712.59, 62708.40, 10508.38, 41162.66, 118585.48, 101467.28, 0.00, 0.00, 0.00
98, 86413.54, 127861.72, 14714.00, 62706.83, 10509.61, 41167.08, 118586.41, 101471.80, 0.00, 0.00, 0.00
99, 86413.92, 127861.32, 14717.46, 62715.62, 10507.58, 41162.99, 118588.14, 101472.42, 0.00, 0.00, 0.00
100, 86416.65, 127859.26, 14714.44, 62712.42, 10504.56, 41164.11, 118589.01, 101472.71, 0.00, 0.00, 0.00
101, 86417.97, 127857.63, 14712.23, 62710.59, 10504.11, 41165.90, 118583.35, 101476.13, 0.00, 0.00, 0.00
102, 86419.58, 127857.88, 14714.06, 62712.64, 10509.77, 41163.06, 118585.99, 101473.48, 0.00, 0.00, 0.00
103, 86416.73, 127857.70, 14710.64, 62700.35, 10504.31, 41159.11, 118588.80, 101466.30, 0.00, 0.00, 0.00
104, 86418.34, 127856.89, 14710.53, 62703.32, 10500.47, 41168.34, 118584.09, 101465.47, 0.07, -0.28, 0.96
105, 86421.38, 127856.73, 14716.90, 62719.51, 10508.31, 41172.00, 118587.63, 101467.28, 0.00, 0.00, 0.00
106, 86425.37, 127866.48, 14719.54, 62719.35, 10511.09, 41169.30, 118590.62, 101470.37, 0.00, 0.00, 0.00
107, 86423.02, 127863.73, 14717.77, 62710.43, 10508.23, 41161.94, 118582.95, 101468.22, 0.00, 0.00, 0.00
108, 86422.55, 127859.20, 14714.67, 62705.45, 10496.80, 41154.54, 118577.23, 101466.12, 0.00, 0.00, 0.00
109, 86414.55, 127851.62, 14709.84, 62706.10, 10487.42, 41146.77, 118573.88, 101461.47, 0.00, 0.00, 0.00
110, 86410.59, 127848.30, 14711.22, 62713.61, 10505.90, 41151.30, 118575.02, 101461.00, 0.00, 0.00, 0.00
111, 86413.30, 127851.95, 14721.37, 62721.90, 10509.99, 41156.91, 118579.45, 101462.12, 0.00, 0.00, 0.00
112, 86415.48, 127852.45, 14716.97, 62712.20, 10501.90, 41155.86, 118578.81, 101459.55, 0.00, 0.00, 0.00
113, 86415.62, 127852.71, 14714.96, 62708.73, 10506.17, 41154.57, 118581.23, 101461.63, 0.00, 0.00, 0.00
114, 86420.87, 127855.91, 14716.21, 62711.39, 10503.60, 41155.80, 118586.30, 101467.88, 0.07, -0.29, 0.96
115, 86426.39, 127851.70, 14709.39, 62700.84, 10497.29, 41154.05, 118588.43, 101470.30, 0.00, 0.00, 0.00
116, 86426.62, 127847.52, 14709.37, 62695.99, 10492.06, 41156.78, 118588.34, 101473.14, 0.00, 0.00, 0.00
117, 86419.64, 127853.23, 14708.14, 62691.86, 10480.49, 41149.47, 118580.23, 101469.67, 0.00, 0.00, 0.00
118, 86414.68, 127852.16, 14703.33, 62681.57, 10468.55, 41139.97, 118578.55, 101466.81, 0.00, 0.00, 0.00
119, 86416.18, 127852.20, 14701.84, 62688.82, 10473.04, 41137.07, 118582.13, 101466.61, 0.00, 0.00, 0.00
120, 86418.28, 127855.51, 14707.49, 62695.50, 10486.68, 41145.78, 118589.88, 101468.91, 0.00, 0.00, 0.00
121, 86420.18, 127851.41, 14708.65, 62699.75, 10486.77, 41151.68, 118594.38, 101468.16, 0.00, 0.00, 0.00
122, 86424.47, 127848.71, 14714.44, 62706.61, 10481.31, 41152.53, 118591.96, 101468.96, 0.00, 0.00, 0.00
123, 86425.21, 127850.48, 14720.43, 62702.77, 10492.31, 41155.19, 118609.46, 101468.45, 0.00, 0.00, 0.00
124, 86417.95, 127847.41, 14717.68, 62700.17, 10497.16, 41154.01, 118613.13, 101462.50, 0.07, -0.29, 0.96
125, 86420.91, 127848.80, 14714.26, 62693.76, 10498.14, 41159.37, 118614.58, 101468.35, 0.00, 0.00, 0.00
126, 86424.83, 127847.70, 14715.85, 62702.05, 10501.18, 41162.50, 118619.85, 101469.77, 0.00, 0.00, 0.00
127, 86425.97, 127845.83, 14716.90, 62714.52, 10497.14, 41156.87, 118619.66, 101468.16, 0.00, 0.00, 0.00
128, 86434.62, 127846.48, 14714.96, 62706.16, 10493.16, 41157.14, 118620.50, 101473.16, 0.00, 0.00, 0.00
129, 86435.18, 127849.29, 14719.58, 62705.70, 10499.80, 41164.54, 118625.58, 101474.48, 0.00, 0.00, 0.00
130, 86430.66, 127851.26, 14723.05, 62704.87, 10506.24, 41171.38, 118633.18, 101474.81, 0.00, 0.00, 0.00
131, 86437.05, 127849.07, 14718.74, 62706.66, 10496.00, 41165.43, 118629.78, 101480.98, 0.00, 0.00, 0.00
132, 86447.09, 127850.92, 14721.35, 62711.26, 10504.89, 41165.23, 118633.51, 101489.88, 0.00, 0.00, 0.00
133, 86451.67, 127856.02, 14726.45, 62716.31, 10508.36, 41172.79, 118645.16, 101499.55, 0.00, 0.00, 0.00
134, 86449.98, 127856.69, 14726.96, 62717.90, 10500.40, 41174.30, 118650.74, 101501.34, 0.07, -0.29, 0.95
135, 86451.20, 127855.02, 14723.07, 62711.50, 10492.04, 41168.40, 118650.01, 101502.30, 0.00, 0.00, 0.00
136, 86454.27, 127852.71, 14723.63, 62711.64, 10498.26, 41163.82, 118647.37, 101502.73, 0.00, 0.00, 0.00
137, 86460.77, 127859.20, 14726.94, 62713.50, 10519.54, 41171.15, 118654.09, 101510.42, 0.00, 0.00, 0.00
138, 86464.30, 127863.55, 14723.38, 62704.80, 10504.58, 41168.58, 118657.67, 101513.57, 0.00, 0.00, 0.00
139, 86458.51, 127863.06, 14720.08, 62695.77, 10489.20, 41161.61, 118661.25, 101510.09, 0.00, 0.00, 0.00
140, 86458.96, 127858.97, 14718.65, 62690.29, 10484.69, 41160.42, 118665.52, 101508.95, 0.00, 0.00, 0.00
141, 86461.69, 127858.91, 14722.62, 62710.97, 10500.58, 41162.52, 118663.69, 101508.12, 0.00, 0.00, 0.00
142, 86460.97, 127859.20, 14723.41, 62714.10, 10509.50, 41171.93, 118668.09, 101509.66, 0.00, 0.00, 0.00
143, 86457.05, 127858.10, 14723.03, 62709.40, 10497.74, 41171.40, 118670.44, 101506.98, 0.00, 0.00, 0.00
144, 86461.10, 127859.44, 14722.04, 62702.90, 10500.20, 41175.49, 118677.27, 101510.45, 0.08, -0.28, 0.96
145, 86462.34, 127858.08, 14721.06, 62697.16, 10498.61, 41172.65, 118682.20, 101511.88, 0.00, 0.00, 0.00
146, 86465.30, 127854.34, 14718.74, 62699.19, 10493.58, 41170.70, 118685.88, 101513.55, 0.00, 0.00, 0.00
147, 86470.11, 127857.59, 14720.05, 62707.95, 10493.50, 41170.95, 118687.16, 101515.65, 0.00, 0.00, 0.00
148, 86473.04, 127858.37, 14718.13, 62699.73, 10492.71, 41173.95, 118699.96, 101518.29, 0.00, 0.00, 0.00
149, 86468.84, 127854.14, 14719.50, 62700.75, 10488.06, 41165.90, 118704.43, 101515.49, 0.00, 0.00, 0.00
150, 86462.71, 127852.69, 14718.96, 62701.69, 10486.30, 41161.99, 118691.31, 101510.35, 0.00, 0.00, 0.00
151, 86462.09, 127849.91, 14714.02, 62694.20, 10480.64, 41162.79, 118691.34, 101508.86, 0.00, 0.00, 0.00
152, 86462.11, 127849.60, 14716.12, 62704.91, 10491.17, 41165.12, 118697.98, 101511.54, 0.00, 0.00, 0.00
153, 86459.74, 127850.43, 14715.47, 62703.48, 10485.78, 41167.66, 118699.59, 101510.35, 0.00, 0.00, 0.00
154, 86460.19, 127851.73, 14718.31, 62701.43, 10484.71, 41164.94, 118701.69, 101509.69, 0.08, -0.29, 0.96
155, 86461.10, 127845.63, 14717.82, 62698.83, 10486.23, 41163.06, 118702.20, 101508.45, 0.00, 0.00, 0.00
156, 86458.91, 127841.31, 14716.86, 62700.73, 10485.11, 41162.17, 118700.88, 101505.99, 0.00, 0.00, 0.00
157, 86458.98, 127841.27, 14714.80, 62699.77, 10481.45, 41165.95, 118702.16, 101507.49, 0.00, 0.00, 0.00
158, 86461.75, 127841.00, 14710.11, 62694.61, 10484.40, 41163.66, 118708.30, 101510.06, 0.00, 0.00, 0.00
159, 86460.44, 127840.69, 14707.92, 62688.06, 10489.41, 41167.80, 118711.18, 101508.43, 0.00, 0.00, 0.00
160, 86458.65, 127840.44, 14710.04, 62691.52, 10484.17, 41165.68, 118711.54, 101508.39, 0.00, 0.00, 0.00
161, 86458.22, 127839.10, 14711.31, 62692.57, 10489.14, 41164.38, 118713.48, 101508.41, 0.00, 0.00, 0.00
162, 86456.08, 127838.38, 14710.15, 62691.99, 10487.39, 41165.72, 118715.27, 101507.47, 0.00, 0.00, 0.00
163, 86455.36, 127838.05, 14707.80, 62681.57, 10480.44, 41158.81, 118715.95, 101507.78, 0.00, 0.00, 0.00
164, 86456.68, 127835.01, 14704.76, 62675.72, 10470.92, 41152.98, 118717.04, 101507.85, 0.07, -0.29, 0.96
165, 86455.07, 127831.73, 14701.70, 62663.00, 10458.63, 41147.06, 118719.41, 101506.55, 0.00, 0.00, 0.00
166, 86454.09, 127831.03, 14699.24, 62668.21, 10464.75, 41153.43, 118721.60, 101507.07, 0.00, 0.00, 0.00
167, 86460.75, 127839.99, 14704.07, 62692.84, 10472.40, 41166.70, 118728.84, 101514.06, 0.00, 0.00, 0.00
168, 86458.78, 127839.39, 14702.96, 62687.75, 10451.99, 41155.84, 118730.38, 101514.13, 0.00, 0.00, 0.00
169, 86459.14, 127835.57, 14704.56, 62681.33, 10457.29, 41158.23, 118732.64, 101514.13, 0.00, 0.00, 0.00
170, 86461.55, 127835.19, 14707.27, 62688.32, 10473.22, 41168.31, 118736.40, 101515.67, 0.00, 0.00, 0.00
171, 86454.82, 127828.26, 14705.73, 62678.74, 10463.66, 41162.10, 118732.48, 101511.13, 0.00, 0.00, 0.00
172, 86453.20, 127826.02, 14705.73, 62680.84, 10461.47, 41154.84, 118731.52, 101507.70, 0.00, 0.00, 0.00
173, 86454.73, 127823.68, 14696.45, 62669.11, 10464.59, 41150.19, 118723.01, 101501.81, 0.00, 0.00, 0.00
174, 86466.80, 127823.99, 14692.27, 62665.82, 10461.31, 41145.38, 118722.27, 101503.49, 0.07, -0.28, 0.96
175, 86455.05, 127824.91, 14697.72, 62681.33, 10462.43, 41157.23, 118733.85, 101504.68, 0.00, 0.00, 0.00
176, 86447.67, 127822.27, 14699.13, 62676.73, 10459.57, 41157.59, 118730.65, 101496.98, 0.00, 0.00, 0.00
177, 86454.51, 127819.48, 14701.68, 62672.01, 10465.31, 41151.88, 118723.52, 101502.51, 0.00, 0.00, 0.00
178, 86449.57, 127817.69, 14703.38, 62672.52, 10464.17, 41155.68, 118736.40, 101501.19, 0.00, 0.00, 0.00
179, 86442.58, 127816.84, 14697.39, 62664.14, 10450.54, 41149.16, 118733.31, 101499.78, 0.00, 0.00, 0.00
180, 86445.16, 127817.09, 14698.37, 62666.89, 10446.85, 41148.62, 118733.87, 101509.37, 0.00, 0.00, 0.00
181, 86442.44, 127816.52, 14700.88, 62672.30, 10460.79, 41155.33, 118742.66, 101513.95, 0.00, 0.00, 0.00
182, 86445.13, 127818.65, 14711.38, 62681.96, 10473.67, 41160.02, 118747.62, 101514.04, 0.00, 0.00, 0.00
183, 86432.94, 127814.45, 14701.46, 62669.95, 10458.51, 41147.53, 118738.12, 101499.96, 0.00, 0.00, 0.00
184, 86424.94, 127812.70, 14695.06, 62661.91, 10455.88, 41145.05, 118729.80, 101491.84, 0.07, -0.29, 0.96
185, 86428.20, 127814.96, 14703.18, 62669.57, 10465.49, 41154.77, 118733.27, 101494.30, 0.00, 0.00, 0.00
186, 86425.99, 127809.48, 14697.41, 62660.61, 10451.74, 41147.75, 118735.34, 101494.91, 0.00, 0.00, 0.00
187, 86426.28, 127807.59, 14697.10, 62662.06, 10451.43, 41146.27, 118734.43, 101493.44, 0.00, 0.00, 0.00
188, 86430.86, 127805.98, 14698.06, 62674.04, 10458.20, 41155.28, 118735.50, 101496.23, 0.00, 0.00, 0.00
189, 86431.40, 127804.72, 14699.87, 62679.50, 10464.82, 41152.80, 118737.83, 101499.52, 0.00, 0.00, 0.00
190, 86428.90, 127800.70, 14697.01, 62667.72, 10450.76, 41149.92, 118738.03, 101500.48, 0.00, 0.00, 0.00
191, 86427.42, 127796.05, 14693.30, 62648.85, 10445.66, 41147.68, 118736.58, 101498.58, 0.00, 0.00, 0.00
192, 86428.76, 127800.32, 14698.98, 62671.56, 10459.59, 41152.27, 118739.55, 101498.98, 0.00, 0.00, 0.00
193, 86425.61, 127800.25, 14702.02, 62681.51, 10448.30, 41147.13, 118735.34, 101493.41, 0.00, 0.00, 0.00
194, 86430.98, 127804.27, 14705.44, 62676.37, 10450.20, 41143.28, 118735.99, 101494.09, 0.07, -0.29, 0.96
195, 86428.59, 127798.11, 14701.55, 62670.33, 10465.94, 41149.40, 118735.99, 101494.71, 0.00, 0.00, 0.00
196, 86423.53, 127788.14, 14701.17, 62674.47, 10460.42, 41145.34, 118731.66, 101492.12, 0.00, 0.00, 0.00
197, 86423.69, 127790.73, 14703.63, 62681.91, 10446.18, 41147.08, 118733.98, 101492.30, 0.00, 0.00, 0.00
198, 86424.60, 127794.89, 14700.70, 62683.48, 10445.80, 41147.73, 118737.88, 101491.16, 0.00, 0.00, 0.00
199, 86428.70, 127800.07, 14704.05, 62686.27, 10465.71, 41152.80, 118740.69, 101494.02, 0.00, 0.00, 0.00
200, 86429.55, 127796.14, 14702.62, 62682.74, 10458.78, 41145.98, 118740.35, 101493.63, 0.00, 0.00, 0.00
201, 86431.00, 127798.17, 14700.47, 62678.43, 10456.17, 41144.71, 118737.29, 101491.40, 0.00, 0.00, 0.00
202, 86428.25, 127795.70, 14700.72, 62672.64, 10465.62, 41154.07, 118731.63, 101490.95, 0.00, 0.00, 0.00
203, 86423.55, 127792.02, 14701.99, 62668.63, 10452.88, 41132.84, 118725.38, 101487.24, 0.00, 0.00, 0.00
204, 86418.05, 127789.37, 14701.46, 62662.62, 10437.44, 41133.85, 118736.93, 101480.13, 0.07, -0.29, 0.96
205, 86417.16, 127788.41, 14697.95, 62660.36, 10441.68, 41147.62, 118734.02, 101478.33, 0.00, 0.00, 0.00
206, 86419.62, 127788.23, 14697.30, 62661.44, 10452.59, 41144.89, 118728.48, 101481.19, 0.00, 0.00, 0.00
207, 86422.37, 127786.51, 14697.01, 62661.08, 10445.77, 41143.93, 118729.22, 101482.64, 0.00, 0.00, 0.00
208, 86427.45, 127788.47, 14697.52, 62663.36, 10452.41, 41145.49, 118732.40, 101487.27, 0.00, 0.00, 0.00
209, 86429.41, 127789.12, 14698.19, 62662.69, 10447.58, 41142.09, 118734.81, 101489.68, 0.00, 0.00, 0.00
210, 86428.52, 127786.75, 14697.68, 62661.37, 10453.20, 41141.87, 118733.45, 101488.83, 0.00, 0.00, 0.00
211, 86427.17, 127783.40, 14694.55, 62660.32, 10451.81, 41140.84, 118732.71, 101487.63, 0.00, 0.00, 0.00
212, 86430.82, 127784.83, 14698.64, 62662.58, 10447.54, 41134.54, 118734.56, 101490.15, 0.00, 0.00, 0.00
213, 86432.59, 127787.06, 14697.19, 62656.50, 10443.99, 41132.71, 118733.54, 101490.80, 0.00, 0.00, 0.00
214, 86436.52, 127787.82, 14697.93, 62660.34, 10440.34, 41133.89, 118735.62, 101494.44, 0.07, -0.29, 0.96
215, 86432.83, 127789.19, 14698.13, 62659.40, 10433.97, 41142.95, 118736.82, 101493.81, 0.00, 0.00, 0.00
216, 86434.75, 127794.55, 14697.19, 62653.75, 10434.31, 41146.90, 118740.91, 101496.74, 0.00, 0.00, 0.00
217, 86439.11, 127791.49, 14699.04, 62656.59, 10445.64, 41141.87, 118740.13, 101500.01, 0.00, 0.00, 0.00
218, 86437.84, 127788.74, 14700.79, 62668.21, 10452.66, 41139.97, 118735.73, 101496.95, 0.00, 0.00, 0.00
219, 86437.81, 127787.34, 14699.20, 62659.83, 10439.14, 41143.95, 118735.88, 101497.23, 0.00, 0.00, 0.00
220, 86436.74, 127785.32, 14695.06, 62650.55, 10433.88, 41142.81, 118734.70, 101497.08, 0.00, 0.00, 0.00
221, 86435.29, 127785.30, 14695.96, 62658.04, 10452.48, 41145.05, 118740.51, 101496.54, 0.00, 0.00, 0.00
222, 86432.94, 127784.67, 14697.72, 62669.89, 10435.54, 41139.99, 118740.64, 101494.53, 0.00, 0.00, 0.00
223, 86435.13, 127786.05, 14702.78, 62667.79, 10424.65, 41147.19, 118744.78, 101497.68, 0.00, 0.00, 0.00
224, 86437.55, 127787.47, 14701.28, 62668.81, 10433.84, 41148.87, 118752.16, 101502.64, 0.07, -0.29, 0.96
225, 86440.81, 127788.18, 14705.57, 62676.48, 10479.68, 41149.18, 118753.49, 101505.33, 0.00, 0.00, 0.00
226, 86442.51, 127787.06, 14707.67, 62678.40, 10477.45, 41150.03, 118751.69, 101507.09, 0.00, 0.00, 0.00
227, 86443.29, 127786.44, 14706.71, 62675.23, 10458.74, 41146.03, 118742.59, 101505.15, 0.00, 0.00, 0.00
228, 86443.71, 127786.22, 14703.63, 62669.17, 10457.24, 41143.77, 118738.43, 101504.52, 0.00, 0.00, 0.00
229, 86443.42, 127783.78, 14702.06, 62665.64, 10450.54, 41144.04, 118749.90, 101503.36, 0.00, 0.00, 0.00
230, 86443.78, 127781.63, 14703.67, 62664.61, 10445.95, 41146.34, 118751.23, 101503.98, 0.00, 0.00, 0.00
231, 86445.73, 127778.77, 14703.49, 62664.81, 10440.81, 41143.95, 118744.91, 101505.26, 0.00, 0.00, 0.00
232, 86444.88, 127776.41, 14704.50, 62668.90, 10438.80, 41140.48, 118744.84, 101504.41, 0.00, 0.00, 0.00
233, 86442.66, 127772.85, 14702.06, 62664.34, 10452.59, 41143.17, 118748.47, 101503.94, 0.00, 0.00, 0.00
234, 86441.81, 127773.02, 14706.22, 62664.12, 10445.15, 41144.96, 118749.25, 101505.80, 0.08, -0.29, 0.96
235, 86436.96, 127771.84, 14703.47, 62661.26, 10437.46, 41139.73, 118744.31, 101502.42, 0.00, 0.00, 0.00
236, 86441.37, 127770.62, 14701.70, 62665.01, 10441.80, 41141.20, 118744.04, 101503.25, 0.00, 0.00, 0.00
237, 86444.81, 127766.84, 14704.76, 62668.99, 10449.84, 41147.08, 118751.82, 101509.39, 0.00, 0.00, 0.00
238, 86436.23, 127770.59, 14709.19, 62673.46, 10451.38, 41152.89, 118758.08, 101509.84, 0.00, 0.00, 0.00
239, 86433.88, 127768.71, 14703.94, 62666.09, 10440.03, 41143.59, 118752.18, 101503.94, 0.00, 0.00, 0.00
240, 86438.20, 127764.71, 14696.25, 62656.32, 10444.17, 41140.08, 118747.13, 101504.38, 0.00, 0.00, 0.00
241, 86435.02, 127769.77, 14703.33, 62664.07, 10448.75, 41144.66, 118752.60, 101503.70, 0.00, 0.00, 0.00
242, 86429.56, 127769.14, 14702.75, 62664.25, 10446.53, 41148.91, 118752.47, 101500.48, 0.00, 0.00, 0.00
243, 86429.99, 127765.34, 14703.98, 62657.70, 10435.31, 41143.66, 118748.31, 101499.96, 0.00, 0.00, 0.00
244, 86425.88, 127764.29, 14705.50, 62653.37, 10429.64, 41133.80, 118742.07, 101492.48, 0.07, -0.29, 0.96
245, 86417.72, 127761.78, 14697.41, 62645.28, 10430.02, 41129.60, 118739.97, 101483.84, 0.00, 0.00, 0.00
246, 86419.44, 127761.80, 14703.85, 62665.93, 10444.90, 41140.04, 118750.41, 101484.25, 0.00, 0.00, 0.00
247, 86424.42, 127766.26, 14703.56, 62670.47, 10465.53, 41142.43, 118751.10, 101486.73, 0.00, 0.00, 0.00
248, 86424.02, 127767.20, 14712.39, 62693.80, 10471.93, 41149.67, 118753.63, 101487.42, 0.00, 0.00, 0.00
249, 86422.41, 127765.00, 14715.29, 62694.16, 10453.33, 41152.09, 118750.48, 101487.58, 0.00, 0.00, 0.00
250, 86418.95, 127767.22, 14711.76, 62682.63, 10437.50, 41141.07, 118743.21, 101483.40, 0.00, 0.00, 0.00
251, 86422.13, 127762.97, 14705.97, 62674.69, 10445.53, 41141.02, 118747.88, 101485.48, 0.00, 0.00, 0.00
252, 86424.13, 127759.84, 14705.12, 62670.04, 10455.79, 41143.64, 118751.53, 101488.43, 0.00, 0.00, 0.00
253, 86424.70, 127763.77, 14706.13, 62665.37, 10447.45, 41141.31, 118748.73, 101489.55, 0.00, 0.00, 0.00
254, 86419.77, 127758.90, 14703.71, 62668.10, 10432.88, 41136.33, 118758.79, 101485.03, 0.07, -0.29, 0.96
255, 86414.50, 127749.78, 14700.70, 62671.90, 10449.17, 41134.05, 118751.88, 101482.19, 0.00, 0.00, 0.00
0, 86421.48, 127745.27, 14701.50, 62672.84, 10461.02, 41141.83, 118748.40, 101488.27, 0.00, 0.00, 0.00
1, 86428.34, 127742.49, 14707.22, 62680.28, 10461.20, 41146.32, 118755.02, 101493.52, 0.00, 0.00, 0.00
2, 86427.78, 127738.78, 14710.69, 62679.45, 10457.06, 41144.60, 118753.79, 101491.53, 0.00, 0.00, 0.00
3, 86422.75, 127732.46, 14704.00, 62671.72, 10448.03, 41135.01, 118744.13, 101482.80, 0.00, 0.00, 0.00
4, 86415.35, 127725.82, 14702.78, 62664.48, 10438.91, 41132.95, 118735.66, 101476.45, 0.00, 0.00, 0.00
5, 86416.38, 127721.95, 14704.92, 62667.36, 10442.69, 41138.54, 118739.66, 101480.54, 0.00, 0.00, 0.00
6, 86416.71, 127713.70, 14701.59, 62664.16, 10441.95, 41133.69, 118737.96, 101482.19, 0.00, 0.00, 0.00
7, 86418.13, 127706.30, 14701.70, 62663.70, 10437.97, 41133.55, 118737.83, 101482.17, 0.00, 0.00, 0.00
8, 86420.27, 127700.90, 14704.41, 62669.28, 10434.26, 41136.02, 118743.13, 101483.94, 0.07, -0.28, 0.96
9, 86419.15, 127694.55, 14703.89, 62666.38, 10443.72, 41137.89, 118741.38, 101485.14, 0.00, 0.00, 0.00
10, 86418.75, 127687.11, 14703.83, 62664.84, 10439.94, 41136.71, 118739.33, 101483.53, 0.00, 0.00, 0.00
11, 86423.45, 127673.72, 14705.95, 62673.71, 10446.02, 41140.24, 118745.05, 101483.58, 0.00, 0.00, 0.00
12, 86427.55, 127667.77, 14707.09, 62673.86, 10453.31, 41149.94, 118744.22, 101486.82, 0.00, 0.00, 0.00
13, 86419.95, 127664.76, 14706.60, 62667.79, 10445.89, 41145.25, 118736.58, 101481.50, 0.00, 0.00, 0.00
14, 86415.82, 127665.13, 14706.62, 62671.18, 10437.55, 41138.25, 118743.95, 101478.80, 0.00, 0.00, 0.00
15, 86418.08, 127659.99, 14706.06, 62670.47, 10427.07, 41135.66, 118741.80, 101478.28, 0.00, 0.00, 0.00
16, 86421.85, 127660.84, 14706.17, 62669.86, 10434.35, 41137.69, 118737.78, 101479.42, 0.00, 0.00, 0.00
17, 86420.98, 127671.66, 14699.92, 62667.05, 10444.61, 41136.89, 118734.50, 101476.55, 0.00, 0.00, 0.00
18, 86421.54, 127679.82, 14692.25, 62644.47, 10423.36, 41130.38, 118729.71, 101476.54, 0.07, -0.28, 0.96
19, 86422.73, 127688.25, 14693.43, 62660.10, 10420.41, 41134.96, 118726.63, 101478.16, 0.00, 0.00, 0.00
20, 86425.12, 127699.87, 14704.21, 62701.18, 10442.91, 41144.33, 118727.79, 101479.55, 0.00, 0.00, 0.00
21, 86424.20, 127702.62, 14706.46, 62690.38, 10462.49, 41144.98, 118722.49, 101479.66, 0.00, 0.00, 0.00
22, 86420.42, 127705.68, 14705.08, 62676.73, 10457.06, 41146.07, 118723.84, 101475.27, 0.00, 0.00, 0.00
23, 86420.11, 127708.43, 14701.95, 62667.29, 10431.69, 41142.70, 118727.27, 101472.65, 0.00, 0.00, 0.00
24, 86421.23, 127713.82, 14709.03, 62666.96, 10419.31, 41135.57, 118716.44, 101471.41, 0.00, 0.00, 0.00
25, 86412.80, 127712.79, 14710.11, 62659.71, 10429.21, 41125.55, 118702.42, 101464.58, 0.00, 0.00, 0.00
26, 86411.48, 127717.69, 14713.84, 62662.13, 10464.82, 41135.07, 118703.92, 101465.38, 0.00, 0.00, 0.00
27, 86415.22, 127719.72, 14708.92, 62662.73, 10459.63, 41135.75, 118708.13, 101468.73, 0.00, 0.00, 0.00
28, 86418.19, 127720.48, 14709.26, 62664.97, 10453.20, 41133.85, 118710.20, 101470.57, 0.07, -0.28, 0.96
29, 86419.10, 127721.57, 14708.70, 62662.69, 10444.97, 41128.32, 118708.70, 101471.22, 0.00, 0.00, 0.00
30, 86421.70, 127723.67, 14706.82, 62663.80, 10444.70, 41133.36, 118708.45, 101476.11, 0.00, 0.00, 0.00
31, 86425.43, 127724.88, 14711.34, 62671.74, 10451.81, 41141.02, 118711.45, 101480.18, 0.00, 0.00, 0.00
32, 86424.60, 127722.91, 14707.60, 62669.17, 10448.05, 41136.62, 118708.41, 101475.71, 0.00, 0.00, 0.00
33, 86422.97, 127720.44, 14705.68, 62670.69, 10445.08, 41134.20, 118705.73, 101474.63, 0.00, 0.00, 0.00
34, 86422.59, 127723.32, 14708.56, 62678.89, 10450.85, 41134.03, 118707.80, 101478.77, 0.00, 0.00, 0.00
35, 86417.52, 127719.90, 14705.01, 62675.65, 10452.66, 41135.81, 118702.71, 101472.85, 0.00, 0.00, 0.00
36, 86421.97, 127721.33, 14707.47, 62683.70, 10451.70, 41138.72, 118705.51, 101473.01, 0.00, 0.00, 0.00
37, 86424.83, 127722.60, 14710.78, 62684.28, 10458.29, 41139.55, 118708.28, 101476.88, 0.00, 0.00, 0.00
38, 86425.77, 127721.51, 14711.83, 62676.41, 10452.73, 41143.39, 118706.49, 101478.08, 0.07, -0.28, 0.96
39, 86429.34, 127721.41, 14710.40, 62671.41, 10437.08, 41146.12, 118706.71, 101480.45, 0.00, 0.00, 0.00
40, 86430.23, 127724.32, 14716.16, 62684.57, 10460.48, 41155.46, 118715.14, 101487.82, 0.00, 0.00, 0.00
41, 86429.07, 127720.14, 14714.13, 62687.97, 10456.06, 41152.93, 118712.86, 101488.16, 0.00, 0.00, 0.00
42, 86434.77, 127726.18, 14720.70, 62703.59, 10431.94, 41149.70, 118713.42, 101491.24, 0.00, 0.00, 0.00
43, 86436.49, 127733.15, 14716.37, 62681.91, 10456.41, 41154.57, 118719.52, 101495.02, 0.00, 0.00, 0.00
44, 86432.25, 127732.03, 14723.25, 62691.72, 10492.65, 41162.50, 118721.91, 101495.63, 0.00, 0.00, 0.00
45, 86435.73, 127731.90, 14730.22, 62716.13, 10511.42, 41165.25, 118722.54, 101496.92, 0.00, 0.00, 0.00
46, 86439.42, 127728.66, 14720.70, 62702.12, 10497.12, 41163.82, 118722.00, 101498.75, 0.00, 0.00, 0.00
47, 86433.59, 127727.79, 14716.21, 62688.93, 10477.45, 41157.52, 118720.57, 101495.00, 0.00, 0.00, 0.00
48, 86429.70, 127729.69, 14715.27, 62684.97, 10466.27, 41147.30, 118711.63, 101489.39, 0.07, -0.29, 0.96
49, 86430.08, 127727.16, 14712.90, 62681.02, 10455.54, 41141.80, 118702.94, 101488.25, 0.00, 0.00, 0.00
50, 86429.61, 127726.05, 14719.00, 62679.14, 10447.16, 41139.95, 118701.44, 101487.60, 0.00, 0.00, 0.00
51, 86432.05, 127724.19, 14717.68, 62676.79, 10445.28, 41139.30, 118698.53, 101487.06, 0.00, 0.00, 0.00
52, 86433.90, 127726.94, 14716.19, 62678.89, 10459.28, 41144.82, 118698.98, 101488.18, 0.00, 0.00, 0.00
53, 86440.01, 127736.93, 14721.22, 62683.66, 10459.97, 41142.99, 118701.17, 101491.76, 0.00, 0.00, 0.00
54, 86443.65, 127735.45, 14719.67, 62682.13, 10453.15, 41139.73, 118699.47, 101490.53, 0.00, 0.00, 0.00
55, 86441.10, 127730.91, 14714.58, 62674.27, 10443.23, 41136.68, 118695.20, 101488.30, 0.00, 0.00, 0.00
56, 86441.99, 127730.11, 14713.95, 62674.36, 10455.39, 41143.77, 118696.61, 101490.98, 0.00, 0.00, 0.00
57, 86443.11, 127730.83, 14712.28, 62672.41, 10454.22, 41140.13, 118694.53, 101491.04, 0.00, 0.00, 0.00
58, 86443.78, 127734.20, 14714.76, 62677.22, 10451.59, 41141.16, 118694.64, 101491.80, 0.07, -0.28, 0.96
59, 86448.68, 127737.84, 14719.94, 62684.88, 10451.52, 41141.96, 118697.59, 101495.67, 0.00, 0.00, 0.00
60, 86441.70, 127735.84, 14716.79, 62677.57, 10445.82, 41136.80, 118687.87, 101488.90, 0.00, 0.00, 0.00
61, 86439.02, 127735.37, 14712.36, 62669.33, 10442.87, 41134.83, 118681.14, 101486.02, 0.00, 0.00, 0.00
62, 86441.26, 127737.04, 14714.00, 62671.18, 10447.34, 41142.05, 118690.62, 101487.31, 0.00, 0.00, 0.00
63, 86446.11, 127738.52, 14715.18, 62662.75, 10447.03, 41143.82, 118697.02, 101490.22, 0.00, 0.00, 0.00
64, 86448.09, 127739.34, 14718.80, 62675.81, 10460.75, 41140.29, 118690.40, 101490.82, 0.00, 0.00, 0.00
65, 86450.27, 127738.41, 14719.09, 62677.39, 10451.41, 41136.06, 118687.22, 101491.87, 0.00, 0.00, 0.00
66, 86454.69, 127736.82, 14708.83, 62665.48, 10445.19, 41133.29, 118682.44, 101494.53, 0.00, 0.00, 0.00
67, 86462.78, 127738.67, 14718.49, 62683.43, 10455.32, 41138.29, 118689.52, 101503.09, 0.00, 0.00, 0.00
68, 86460.50, 127738.80, 14715.78, 62674.58, 10442.53, 41131.70, 118688.41, 101501.46, 0.07, -0.29, 0.95
69, 86457.55, 127738.49, 14716.28, 62674.67, 10437.57, 41140.42, 118683.94, 101496.81, 0.00, 0.00, 0.00
70, 86453.82, 127730.70, 14710.44, 62677.89, 10394.41, 41125.31, 118671.09, 101489.73, 0.00, 0.00, 0.00
71, 86457.73, 127738.92, 14709.37, 62678.85, 10404.20, 41128.82, 118676.23, 101492.63, 0.00, 0.00, 0.00
72, 86462.45, 127744.48, 14710.98, 62681.35, 10482.70, 41145.16, 118689.30, 101496.79, 0.00, 0.00, 0.00
73, 86459.07, 127739.34, 14725.57, 62683.50, 10485.99, 41144.84, 118685.14, 101494.35, 0.00, 0.00, 0.00
74, 86461.53, 127741.60, 14732.77, 62674.69, 10481.65, 41143.19, 118683.04, 101495.60, 0.00, 0.00, 0.00
75, 86463.41, 127741.20, 14726.45, 62668.86, 10465.20, 41139.14, 118682.28, 101496.01, 0.00, 0.00, 0.00
76, 86458.84, 127740.53, 14730.67, 62686.05, 10455.43, 41137.00, 118679.69, 101491.40, 0.00, 0.00, 0.00
77, 86454.80, 127737.29, 14720.81, 62667.83, 10443.74, 41129.80, 118666.84, 101481.55, 0.00, 0.00, 0.00
78, 86461.10, 127736.84, 14712.90, 62654.82, 10433.70, 41123.27, 118665.56, 101488.00, 0.07, -0.29, 0.95
79, 86456.50, 127740.46, 14724.23, 62673.60, 10463.83, 41140.71, 118676.96, 101501.01, 0.00, 0.00, 0.00
80, 86450.04, 127737.22, 14720.01, 62667.05, 10457.35, 41132.37, 118671.98, 101496.52, 0.00, 0.00, 0.00
81, 86436.18, 127734.88, 14722.56, 62679.83, 10452.32, 41124.41, 118669.72, 101484.07, 0.00, 0.00, 0.00
82, 86417.09, 127735.43, 14727.14, 62690.34, 10461.53, 41133.85, 118674.48, 101467.28, 0.00, 0.00, 0.00
83, 86407.02, 127732.23, 14721.66, 62681.06, 10449.98, 41136.51, 118675.51, 101457.20, 0.00, 0.00, 0.00
84, 86388.44, 127729.42, 14716.63, 62669.46, 10452.70, 41132.59, 118669.95, 101438.20, 0.00, 0.00, 0.00
85, 86366.55, 127727.59, 14712.25, 62659.11, 10441.80, 41130.63, 118665.54, 101417.41, 0.00, 0.00, 0.00
86, 86340.07, 127726.54, 14716.86, 62654.55, 10431.80, 41130.18, 118663.20, 101400.83, 0.00, 0.00, 0.00
87, 86317.70, 127715.38, 14706.37, 62639.89, 10437.33, 41125.71, 118657.98, 101379.38, 0.00, 0.00, 0.00
88, 86299.70, 127714.09, 14710.17, 62668.63, 10441.10, 41136.84, 118667.15, 101362.68, 0.07, -0.29, 0.95
89, 86273.73, 127711.07, 14717.66, 62697.54, 10421.54, 41127.97, 118667.71, 101344.44, 0.00, 0.00, 0.00
90, 86250.77, 127704.88, 14722.11, 62699.59, 10449.31, 41129.02, 118670.77, 101325.35, 0.00, 0.00, 0.00
91, 86226.66, 127680.23, 14716.34, 62690.45, 10495.75, 41147.79, 118675.20, 101304.90, 0.00, 0.00, 0.00
92, 86200.35, 127586.73, 14715.52, 62689.58, 10467.48, 41135.88, 118664.76, 101281.25, 0.00, 0.00, 0.00
93, 86174.55, 127491.53, 14710.42, 62677.71, 10457.20, 41130.29, 118658.77, 101251.86, 0.00, 0.00, 0.00
94, 86156.38, 127486.37, 14715.45, 62684.73, 10454.13, 41134.81, 118659.38, 101238.96, 0.00, 0.00, 0.00
95, 86130.19, 127510.75, 14720.19, 62690.07, 10462.29, 41144.13, 118670.55, 101220.50, 0.00, 0.00, 0.00
96, 86100.91, 127525.48, 14707.31, 62683.01, 10466.03, 41135.72, 118666.99, 101193.81, 0.00, 0.00, 0.00
97, 86085.84, 127547.68, 14703.89, 62676.68, 10469.29, 41136.44, 118662.88, 101177.96, 0.00, 0.00, 0.00
98, 86054.30, 127551.77, 14711.20, 62671.34, 10442.24, 41122.61, 118648.94, 101144.84, 0.07, -0.29, 0.95
99, 86022.90, 127560.73, 14708.65, 62662.09, 10423.42, 41120.12, 118643.21, 101117.63, 0.00, 0.00, 0.00
100, 85989.48, 127564.27, 14706.11, 62669.37, 10436.14, 41125.89, 118650.45, 101097.52, 0.00, 0.00, 0.00
101, 85967.38, 127569.70, 14712.59, 62689.11, 10486.66, 41142.65, 118655.88, 101082.63, 0.00, 0.00, 0.00
102, 85960.73, 127579.87, 14708.52, 62681.80, 10489.52, 41145.78, 118657.36, 101074.16, 0.00, 0.00, 0.00
103, 85941.25, 127581.16, 14701.70, 62674.60, 10470.14, 41133.38, 118645.89, 101052.44, 0.00, 0.00, 0.00
104, 85929.29, 127584.34, 14713.84, 62672.23, 10454.38, 41124.93, 118639.39, 101038.38, 0.00, 0.00, 0.00
105, 85911.66, 127583.13, 14710.22, 62656.95, 10449.02, 41124.50, 118635.37, 101021.61, 0.00, 0.00, 0.00
106, 85889.03, 127588.52, 14709.17, 62658.71, 10442.38, 41122.58, 118634.25, 101004.16, 0.00, 0.00, 0.00
107, 85877.32, 127593.72, 14706.73, 62655.27, 10429.10, 41116.21, 118632.04, 100992.51, 0.00, 0.00, 0.00
108, 85872.96, 127599.87, 14702.55, 62660.01, 10432.43, 41115.23, 118627.70, 100984.28, 0.07, -0.29, 0.96
109, 85856.60, 127607.36, 14707.09, 62683.90, 10457.40, 41132.89, 118634.77, 100974.47, 0.00, 0.00, 0.00
110, 85848.13, 127613.50, 14707.13, 62680.19, 10444.59, 41125.29, 118632.98, 100966.45, 0.00, 0.00, 0.00
111, 85830.47, 127616.41, 14704.41, 62666.33, 10432.01, 41121.96, 118618.70, 100956.26, 0.00, 0.00, 0.00
112, 85818.02, 127619.45, 14703.51, 62661.04, 10441.95, 41123.57, 118622.54, 100948.99, 0.00, 0.00, 0.00
113, 85816.23, 127620.88, 14705.75, 62668.16, 10434.26, 41118.85, 118624.88, 100940.01, 0.00, 0.00, 0.00
114, 85814.00, 127624.63, 14704.97, 62667.05, 10439.74, 41119.07, 118615.48, 100933.68, 0.00, 0.00, 0.00
115, 85804.57, 127623.12, 14694.57, 62656.99, 10436.23, 41119.34, 118617.46, 100927.16, 0.00, 0.00, 0.00
116, 85807.07, 127620.21, 14694.64, 62659.00, 10428.41, 41114.94, 118622.45, 100928.36, 0.00, 0.00, 0.00
117, 85798.64, 127621.75, 14700.34, 62667.67, 10427.69, 41116.30, 118620.66, 100924.78, 0.00, 0.00, 0.00
118, 85796.34, 127621.73, 14694.95, 62661.39, 10435.63, 41117.33, 118617.66, 100921.16, 0.07, -0.29, 0.96
119, 85801.17, 127622.65, 14685.21, 62649.32, 10431.47, 41116.79, 118614.18, 100921.68, 0.00, 0.00, 0.00
120, 85797.37, 127623.07, 14685.27, 62654.31, 10414.68, 41115.34, 118612.79, 100919.71, 0.00, 0.00, 0.00
121, 85800.05, 127622.98, 14681.38, 62659.54, 10423.80, 41111.32, 118611.27, 100924.90, 0.00, 0.00, 0.00
122, 85791.85, 127631.50, 14705.12, 62675.27, 10435.09, 41117.60, 118614.29, 100918.37, 0.00, 0.00, 0.00
123, 85792.01, 127636.95, 14706.46, 62676.93, 10456.28, 41121.20, 118611.05, 100911.88, 0.00, 0.00, 0.00
124, 85797.91, 127628.86, 14690.64, 62666.53, 10429.90, 41112.81, 118605.21, 100917.43, 0.00, 0.00, 0.00
125, 85793.19, 127627.25, 14693.12, 62658.00, 10424.16, 41110.47, 118601.23, 100913.79, 0.00, 0.00, 0.00
126, 85788.41, 127626.98, 14700.09, 62647.13, 10454.65, 41105.17, 118592.61, 100905.36, 0.00, 0.00, 0.00
127, 85794.62, 127620.61, 14691.69, 62646.59, 10451.74, 41104.48, 118589.61, 100908.35, 0.00, 0.00, 0.00
128, 85792.14, 127623.63, 14693.54, 62655.36, 10439.69, 41109.68, 118596.52, 100907.28, 0.07, -0.29, 0.96
129, 85790.44, 127625.35, 14690.82, 62655.71, 10438.55, 41110.51, 118600.23, 100903.02, 0.00, 0.00, 0.00
130, 85797.64, 127621.86, 14686.41, 62643.78, 10436.81, 41113.11, 118592.85, 100907.22, 0.00, 0.00, 0.00
131, 85801.10, 127625.23, 14688.96, 62645.66, 10432.54, 41106.22, 118587.71, 100906.30, 0.00, 0.00, 0.00
132, 85794.51, 127628.52, 14695.24, 62657.57, 10431.80, 41101.77, 118583.13, 100897.65, 0.00, 0.00, 0.00
133, 85800.48, 127628.66, 14696.18, 62655.83, 10428.05, 41103.16, 118585.12, 100906.48, 0.00, 0.00, 0.00
134, 85806.00, 127630.94, 14693.52, 62654.38, 10426.17, 41102.20, 118586.10, 100912.83, 0.00, 0.00, 0.00
135, 85801.66, 127631.97, 14690.48, 62652.25, 10410.79, 41097.17, 118581.61, 100905.80, 0.00, 0.00, 0.00
136, 85812.16, 127633.04, 14692.38, 62656.59, 10424.05, 41101.10, 118588.02, 100916.36, 0.00, 0.00, 0.00
137, 85815.88, 127630.55, 14689.99, 62651.85, 10431.80, 41102.51, 118590.44, 100923.51, 0.00, 0.00, 0.00
138, 85824.95, 127629.26, 14682.57, 62645.84, 10417.10, 41096.43, 118586.82, 100928.56, 0.07, -0.29, 0.96
139, 85833.96, 127639.43, 14691.22, 62657.86, 10427.27, 41106.60, 118593.45, 100938.35, 0.00, 0.00, 0.00
140, 85833.45, 127643.88, 14690.55, 62659.45, 10438.55, 41111.11, 118597.32, 100939.85, 0.00, 0.00, 0.00
141, 85835.41, 127639.01, 14688.02, 62657.61, 10439.78, 41115.29, 118600.16, 100940.36, 0.00, 0.00, 0.00
142, 85842.50, 127630.80, 14692.43, 62658.75, 10427.83, 41108.63, 118593.57, 100940.92, 0.00, 0.00, 0.00
143, 85854.39, 127633.13, 14695.11, 62656.83, 10411.35, 41106.04, 118594.28, 100949.15, 0.00, 0.00, 0.00
144, 85855.66, 127635.16, 14686.73, 62648.20, 10398.57, 41090.42, 118585.05, 100950.22, 0.00, 0.00, 0.00
145, 85863.80, 127638.05, 14688.85, 62654.60, 10418.80, 41092.21, 118584.45, 100957.82, 0.00, 0.00, 0.00
146, 85874.21, 127639.43, 14685.63, 62647.04, 10419.91, 41118.74, 118595.54, 100968.86, 0.00, 0.00, 0.00
147, 85884.36, 127639.12, 14679.64, 62649.16, 10400.91, 41107.96, 118596.20, 100976.48, 0.00, 0.00, 0.00
148, 85900.79, 127644.17, 14691.31, 62669.91, 10465.51, 41127.25, 118605.30, 100989.78, 0.07, -0.28, 0.96
149, 85913.30, 127649.20, 14699.69, 62678.78, 10458.00, 41130.27, 118610.63, 100997.00, 0.00, 0.00, 0.00
150, 85915.52, 127654.59, 14702.71, 62671.92, 10447.23, 41123.32, 118600.52, 101000.38, 0.00, 0.00, 0.00
151, 85908.86, 127650.23, 14696.83, 62656.50, 10434.73, 41114.82, 118590.38, 100999.35, 0.00, 0.00, 0.00
152, 85908.95, 127649.45, 14694.39, 62655.47, 10446.60, 41112.81, 118590.22, 101001.18, 0.00, 0.00, 0.00
153, 85924.80, 127654.59, 14696.81, 62663.36, 10469.91, 41120.08, 118594.41, 101009.63, 0.00, 0.00, 0.00
154, 85936.06, 127655.34, 14699.69, 62668.77, 10455.09, 41117.39, 118592.83, 101020.13, 0.00, 0.00, 0.00
155, 85940.15, 127650.61, 14694.46, 62661.08, 10446.22, 41113.44, 118584.96, 101025.57, 0.00, 0.00, 0.00
156, 85955.20, 127645.58, 14689.21, 62656.25, 10445.04, 41109.84, 118595.89, 101030.82, 0.00, 0.00, 0.00
157, 85962.26, 127650.72, 14695.18, 62666.49, 10440.14, 41102.40, 118593.23, 101030.71, 0.00, 0.00, 0.00
158, 85954.93, 127653.29, 14691.15, 62654.11, 10430.20, 41096.68, 118578.10, 101031.55, 0.07, -0.28, 0.96
159, 85953.50, 127654.83, 14690.75, 62649.97, 10425.28, 41096.09, 118579.15, 101039.23, 0.00, 0.00, 0.00
160, 85965.21, 127662.48, 14697.90, 62655.49, 10421.46, 41096.56, 118582.77, 101046.16, 0.00, 0.00, 0.00
161, 85976.36, 127660.09, 14693.21, 62653.21, 10413.48, 41098.84, 118585.57, 101059.27, 0.00, 0.00, 0.00
162, 85980.90, 127656.02, 14690.10, 62655.47, 10417.23, 41098.17, 118586.08, 101063.74, 0.00, 0.00, 0.00
163, 85993.06, 127660.15, 14697.86, 62658.44, 10426.66, 41102.80, 118591.27, 101069.31, 0.00, 0.00, 0.00
164, 86000.16, 127656.06, 14689.03, 62652.00, 10427.83, 41106.78, 118587.91, 101073.49, 0.00, 0.00, 0.00
165, 86005.69, 127657.38, 14689.92, 62644.18, 10429.86, 41107.72, 118584.52, 101073.40, 0.00, 0.00, 0.00
166, 86014.94, 127664.15, 14696.79, 62636.98, 10421.34, 41104.16, 118584.25, 101075.52, 0.00, 0.00, 0.00
167, 86022.49, 127665.02, 14697.70, 62654.48, 10418.53, 41107.49, 118584.12, 101082.25, 0.00, 0.00, 0.00
168, 86018.88, 127659.84, 14694.57, 62656.21, 10405.83, 41102.06, 118582.46, 101081.60, 0.07, -0.28, 0.97
169, 86016.73, 127660.22, 14699.89, 62657.19, 10411.62, 41103.43, 118584.13, 101087.33, 0.00, 0.00, 0.00
170, 86020.64, 127656.93, 14701.77, 62657.77, 10425.28, 41107.02, 118587.09, 101096.55, 0.00, 0.00, 0.00
171, 86021.83, 127663.84, 14700.09, 62660.90, 10434.00, 41113.35, 118585.41, 101097.05, 0.00, 0.00, 0.00
172, 86023.81, 127669.56, 14696.72, 62665.19, 10439.07, 41109.42, 118580.88, 101097.23, 0.00, 0.00, 0.00
173, 86032.73, 127672.04, 14692.99, 62658.62, 10444.54, 41104.92, 118580.76, 101102.91, 0.00, 0.00, 0.00
174, 86032.58, 127667.28, 14693.72, 62651.02, 10448.17, 41106.76, 118581.68, 101103.84, 0.00, 0.00, 0.00
175, 86034.12, 127665.43, 14692.18, 62645.41, 10427.60, 41099.67, 118578.86, 101105.56, 0.00, 0.00, 0.00
176, 86040.53, 127667.30, 14695.47, 62653.82, 10424.41, 41100.68, 118579.48, 101108.80, 0.00, 0.00, 0.00
177, 86042.34, 127668.66, 14700.32, 62654.22, 10414.15, 41101.48, 118579.89, 101106.81, 0.00, 0.00, 0.00
178, 86038.19, 127668.53, 14696.74, 62648.07, 10428.03, 41106.58, 118577.66, 101108.67, 0.07, -0.28, 0.97
179, 86036.89, 127672.65, 14697.41, 62654.87, 10471.93, 41115.79, 118581.12, 101111.31, 0.00, 0.00, 0.00
180, 86043.40, 127676.89, 14699.18, 62656.39, 10460.59, 41117.69, 118581.92, 101117.39, 0.00, 0.00, 0.00
181, 86056.07, 127672.09, 14702.51, 62667.61, 10450.71, 41116.77, 118581.59, 101120.36, 0.00, 0.00, 0.00
182, 86053.56, 127670.68, 14698.37, 62666.45, 10445.22, 41115.72, 118581.27, 101122.28, 0.00, 0.00, 0.00
183, 86048.31, 127669.54, 14691.58, 62664.05, 10439.40, 41111.83, 118576.38, 101124.18, 0.00, 0.00, 0.00
184, 86051.33, 127669.34, 14693.30, 62666.98, 10446.07, 41114.11, 118578.73, 101124.72, 0.00, 0.00, 0.00
185, 86052.13, 127666.72, 14691.64, 62659.09, 10447.79, 41114.47, 118576.83, 101120.48, 0.00, 0.00, 0.00
186, 86052.34, 127669.92, 14697.19, 62658.78, 10440.30, 41105.21, 118567.93, 101116.83, 0.00, 0.00, 0.00
187, 86050.75, 127672.58, 14702.44, 62666.60, 10430.75, 41100.34, 118560.78, 101114.91, 0.00, 0.00, 0.00
188, 86053.21, 127675.71, 14700.54, 62658.40, 10422.69, 41096.95, 118558.32, 101114.57, 0.08, -0.28, 0.97
189, 86059.09, 127670.73, 14695.38, 62655.40, 10419.73, 41093.88, 118567.02, 101115.94, 0.00, 0.00, 0.00
190, 86058.05, 127669.67, 14693.68, 62650.75, 10397.90, 41089.37, 118566.59, 101114.95, 0.00, 0.00, 0.00
191, 86058.77, 127674.19, 14698.26, 62658.57, 10440.34, 41103.56, 118564.63, 101116.96, 0.00, 0.00, 0.00
192, 86066.13, 127680.27, 14709.57, 62663.40, 10449.22, 41113.04, 118567.77, 101122.59, 0.00, 0.00, 0.00
193, 86068.41, 127681.52, 14702.53, 62658.64, 10430.69, 41108.30, 118566.01, 101126.30, 0.00, 0.00, 0.00
194, 86069.50, 127682.03, 14699.40, 62659.36, 10427.56, 41105.30, 118568.09, 101130.51, 0.00, 0.00, 0.00
195, 86074.09, 127682.95, 14699.94, 62665.21, 10423.74, 41103.52, 118570.01, 101139.83, 0.00, 0.00, 0.00
196, 86085.53, 127676.71, 14688.94, 62650.39, 10433.21, 41087.64, 118562.39, 101155.88, 0.00, 0.00, 0.00
197, 86085.10, 127678.08, 14690.10, 62650.71, 10425.28, 41091.89, 118558.07, 101142.29, 0.00, 0.00, 0.00
198, 86071.27, 127687.98, 14704.12, 62669.21, 10441.21, 41104.07, 118560.98, 101123.91, 0.08, -0.29, 0.97
199, 86078.89, 127690.93, 14699.38, 62666.98, 10445.71, 41114.16, 118561.09, 101128.03, 0.00, 0.00, 0.00
200, 86092.84, 127690.91, 14700.36, 62664.41, 10448.46, 41108.34, 118559.08, 101140.66, 0.00, 0.00, 0.00
201, 86105.71, 127690.66, 14706.93, 62660.99, 10429.64, 41100.81, 118553.94, 101150.36, 0.00, 0.00, 0.00
202, 86108.53, 127685.97, 14700.27, 62652.23, 10422.26, 41091.13, 118543.12, 101147.20, 0.00, 0.00, 0.00
203, 86117.76, 127689.61, 14699.40, 62655.78, 10444.61, 41093.73, 118542.23, 101153.89, 0.00, 0.00, 0.00
204, 86126.19, 127695.42, 14705.82, 62664.39, 10463.95, 41105.62, 118550.05, 101165.87, 0.00, 0.00, 0.00
205, 86123.66, 127700.23, 14709.71, 62670.29, 10458.76, 41105.21, 118549.91, 101165.13, 0.00, 0.00, 0.00
206, 86120.58, 127701.70, 14708.50, 62674.80, 10447.52, 41105.06, 118549.80, 101162.78, 0.00, 0.00, 0.00
207, 86121.02, 127693.48, 14709.77, 62670.47, 10446.56, 41107.85, 118550.19, 101164.95, 0.00, 0.00, 0.00
208, 86116.02, 127688.76, 14708.63, 62669.08, 10442.82, 41107.89, 118548.13, 101161.84, 0.08, -0.29, 0.97
209, 86118.83, 127696.67, 14710.33, 62672.95, 10444.72, 41112.84, 118552.33, 101164.23, 0.00, 0.00, 0.00
210, 86124.13, 127701.03, 14710.93, 62672.37, 10441.48, 41110.76, 118550.95, 101166.31, 0.00, 0.00, 0.00
211, 86128.48, 127696.72, 14709.35, 62673.06, 10432.86, 41105.17, 118548.24, 101170.97, 0.00, 0.00, 0.00
212, 86128.94, 127693.86, 14708.18, 62669.55, 10439.58, 41106.29, 118547.30, 101171.57, 0.00, 0.00, 0.00
213, 86128.20, 127697.03, 14708.81, 62667.11, 10437.26, 41102.27, 118544.23, 101168.64, 0.00, 0.00, 0.00
214, 86124.91, 127701.59, 14711.72, 62666.36, 10418.91, 41095.40, 118538.72, 101167.21, 0.00, 0.00, 0.00
215, 86128.24, 127705.08, 14706.62, 62652.30, 10427.96, 41100.81, 118542.90, 101170.38, 0.00, 0.00, 0.00
216, 86133.25, 127705.70, 14709.08, 62659.40, 10438.80, 41105.28, 118548.30, 101170.66, 0.00, 0.00, 0.00
217, 86136.91, 127706.42, 14714.29, 62684.23, 10445.75, 41103.98, 118546.43, 101170.50, 0.00, 0.00, 0.00
218, 86134.75, 127707.96, 14714.29, 62686.40, 10428.81, 41099.22, 118544.77, 101170.27, 0.08, -0.28, 0.96
219, 86130.95, 127709.84, 14709.88, 62682.65, 10415.04, 41098.62, 118542.23, 101170.67, 0.00, 0.00, 0.00
220, 86142.19, 127714.66, 14717.71, 62689.38, 10445.95, 41108.75, 118544.73, 101180.42, 0.00, 0.00, 0.00
221, 86143.44, 127706.98, 14715.09, 62677.33, 10465.02, 41114.47, 118554.07, 101181.88, 0.00, 0.00, 0.00
222, 86143.27, 127707.09, 14710.46, 62683.10, 10448.95, 41107.05, 118558.48, 101180.76, 0.00, 0.00, 0.00
223, 86145.84, 127707.98, 14714.58, 62691.34, 10464.77, 41114.47, 118549.91, 101183.69, 0.00, 0.00, 0.00
224, 86138.91, 127708.79, 14716.48, 62671.14, 10453.24, 41102.98, 118538.47, 101176.30, 0.00, 0.00, 0.00
225, 86137.36, 127712.92, 14721.39, 62651.09, 10442.33, 41090.21, 118529.48, 101174.36, 0.00, 0.00, 0.00
226, 86149.92, 127714.27, 14725.02, 62669.11, 10451.18, 41097.32, 118538.13, 101184.02, 0.00, 0.00, 0.00
227, 86155.78, 127710.53, 14716.59, 62675.72, 10459.70, 41098.93, 118539.81, 101188.58, 0.07, -0.28, 0.96
228, 86157.84, 127708.84, 14715.07, 62672.41, 10446.38, 41091.65, 118539.08, 101191.24, 0.00, 0.00, 0.00
229, 86160.95, 127712.90, 14714.35, 62664.92, 10434.26, 41092.00, 118542.09, 101198.48, 0.00, 0.00, 0.00
230, 86162.41, 127714.76, 14710.64, 62660.30, 10423.94, 41090.29, 118542.14, 101201.54, 0.00, 0.00, 0.00
231, 86157.84, 127711.00, 14708.14, 62656.77, 10421.19, 41084.98, 118538.74, 101197.09, 0.00, 0.00, 0.00
232, 86159.47, 127707.27, 14707.07, 62657.68, 10419.27, 41082.41, 118536.77, 101197.01, 0.00, 0.00, 0.00
233, 86164.01, 127708.41, 14704.27, 62658.78, 10419.24, 41082.19, 118538.59, 101198.55, 0.00, 0.00, 0.00
234, 86167.29, 127715.43, 14710.91, 62665.06, 10413.52, 41075.31, 118540.15, 101201.34, 0.00, 0.00, 0.00
235, 86162.66, 127711.74, 14712.68, 62668.77, 10419.82, 41084.54, 118538.72, 101201.50, 0.00, 0.00, 0.00
236, 86160.67, 127707.09, 14710.91, 62671.92, 10429.46, 41097.04, 118533.04, 101201.01, 0.00, 0.00, 0.00
237, 86161.95, 127703.36, 14711.45, 62670.40, 10418.39, 41092.07, 118537.20, 101199.29, 0.06, -0.28, 0.96
238, 86162.09, 127701.91, 14707.54, 62664.70, 10414.28, 41084.49, 118546.79, 101192.47, 0.00, 0.00, 0.00
239, 86161.52, 127706.33, 14711.11, 62663.88, 10412.09, 41090.37, 118538.02, 101195.15, 0.00, 0.00, 0.00
240, 86156.02, 127706.15, 14708.99, 62652.77, 10402.93, 41093.08, 118531.54, 101195.15, 0.00, 0.00, 0.00
241, 86156.09, 127714.78, 14719.12, 62692.19, 10460.57, 41101.66, 118534.52, 101197.59, 0.00, 0.00, 0.00
242, 86158.77, 127717.17, 14724.73, 62701.98, 10448.68, 41110.76, 118538.29, 101198.50, 0.00, 0.00, 0.00
243, 86150.93, 127708.16, 14717.21, 62680.50, 10410.95, 41098.26, 118528.66, 101191.30, 0.00, 0.00, 0.00
244, 86151.40, 127707.65, 14719.09, 62688.55, 10461.80, 41104.14, 118529.02, 101191.69, 0.00, 0.00, 0.00
245, 86155.58, 127709.80, 14721.51, 62705.80, 10490.23, 41113.20, 118534.94, 101194.93, 0.00, 0.00, 0.00
246, 86155.78, 127709.19, 14719.92, 62697.96, 10484.89, 41111.34, 118534.74, 101196.60, 0.00, 0.00, 0.00
247, 86150.95, 127706.35, 14711.54, 62686.16, 10463.50, 41101.70, 118530.36, 101193.85, 0.07, -0.28, 0.96
248, 86154.41, 127704.52, 14708.97, 62689.02, 10456.91, 41105.71, 118534.29, 101197.03, 0.00, 0.00, 0.00
249, 86155.65, 127709.57, 14712.77, 62690.63, 10453.44, 41102.42, 118532.30, 101198.41, 0.00, 0.00, 0.00
250, 86154.26, 127715.72, 14717.30, 62693.31, 10446.76, 41102.69, 118530.49, 101203.17, 0.00, 0.00, 0.00
251, 86154.30, 127714.42, 14716.57, 62690.20, 10432.81, 41098.60, 118526.18, 101203.47, 0.00, 0.00, 0.00
252, 86154.10, 127708.27, 14713.62, 62683.66, 10426.66, 41089.08, 118522.38, 101198.39, 0.00, 0.00, 0.00
253, 86157.68, 127713.68, 14717.51, 62689.78, 10447.00, 41100.52, 118525.02, 101198.93, 0.00, 0.00, 0.00
254, 86153.48, 127711.70, 14715.65, 62683.63, 10427.33, 41095.09, 118522.45, 101192.16, 0.00, 0.00, 0.00
255, 86152.59, 127709.28, 14713.37, 62674.87, 10418.68, 41092.07, 118519.09, 101189.95, 0.00, 0.00, 0.00
0, 86151.73, 127708.27, 14710.02, 62668.21, 10441.35, 41092.65, 118520.08, 101192.13, 0.00, 0.00, 0.00
1, 86150.80, 127707.52, 14713.75, 62684.46, 10416.27, 41094.20, 118523.98, 101193.67, 0.06, -0.28, 0.97
2, 86150.02, 127711.36, 14719.32, 62696.71, 10406.30, 41090.24, 118522.34, 101195.62, 0.00, 0.00, 0.00
3, 86156.90, 127713.17, 14714.35, 62688.50, 10431.58, 41095.85, 118521.33, 101201.16, 0.00, 0.00, 0.00
4, 86160.02, 127714.17, 14712.99, 62692.48, 10444.68, 41096.05, 118519.59, 101204.23, 0.00, 0.00, 0.00
5, 86166.53, 127718.91, 14721.15, 62702.50, 10440.70, 41098.29, 118535.12, 101212.63, 0.00, 0.00, 0.00
6, 86172.03, 127712.32, 14711.81, 62688.01, 10454.67, 41096.32, 118537.51, 101225.44, 0.00, 0.00, 0.00
7, 86148.34, 127712.23, 14716.32, 62695.84, 10449.17, 41095.49, 118517.26, 101200.56, 0.00, 0.00, 0.00
8, 86128.13, 127713.82, 14721.66, 62700.38, 10443.61, 41100.07, 118518.20, 101177.72, 0.00, 0.00, 0.00
9, 86141.30, 127715.74, 14721.31, 62703.88, 10473.98, 41105.19, 118524.62, 101183.95, 0.00, 0.00, 0.00
10, 86138.14, 127712.30, 14716.81, 62705.76, 10463.61, 41103.96, 118519.74, 101175.46, 0.00, 0.00, 0.00
11, 86130.90, 127707.05, 14711.29, 62696.62, 10467.30, 41099.16, 118515.63, 101159.97, 0.07, -0.28, 0.96
12, 86118.34, 127709.02, 14709.82, 62683.43, 10451.18, 41092.43, 118505.41, 101137.77, 0.00, 0.00, 0.00
13, 86107.52, 127705.75, 14705.44, 62680.91, 10427.85, 41077.23, 118493.79, 101128.09, 0.00, 0.00, 0.00
14, 86095.25, 127708.61, 14706.35, 62682.61, 10423.47, 41076.56, 118497.05, 101127.98, 0.00, 0.00, 0.00
15, 86076.74, 127711.70, 14710.44, 62682.85, 10434.08, 41086.95, 118495.29, 101113.50, 0.00, 0.00, 0.00
16, 86067.40, 127704.66, 14704.92, 62674.69, 10436.77, 41084.70, 118502.30, 101102.88, 0.00, 0.00, 0.00
17, 86066.38, 127696.56, 14701.97, 62666.98, 10438.73, 41080.11, 118499.13, 101087.86, 0.00, 0.00, 0.00
18, 86043.64, 127699.65, 14720.93, 62680.08, 10413.74, 41071.60, 118487.20, 101079.91, 0.00, 0.00, 0.00
19, 86030.59, 127696.47, 14716.03, 62669.33, 10399.62, 41070.08, 118483.76, 101077.06, 0.00, 0.00, 0.00
20, 86019.91, 127690.28, 14704.52, 62657.88, 10354.74, 41061.11, 118481.54, 101063.25, 0.00, 0.00, 0.00
21, 86013.06, 127688.83, 14700.81, 62640.34, 10344.88, 41051.59, 118487.73, 101053.89, 0.07, -0.29, 0.96
22, 86019.88, 127686.15, 14691.00, 62625.90, 10408.04, 41070.23, 118482.34, 101052.44, 0.00, 0.00, 0.00
23, 86012.37, 127693.57, 14701.81, 62675.34, 10439.74, 41072.98, 118479.73, 101055.05, 0.00, 0.00, 0.00
24, 86005.02, 127702.64, 14719.00, 62710.30, 10503.93, 41091.60, 118484.65, 101055.66, 0.00, 0.00, 0.00
25, 86014.25, 127705.41, 14712.39, 62694.65, 10439.02, 41076.20, 118481.32, 101031.02, 0.00, 0.00, 0.00
26, 85999.49, 127704.52, 14709.44, 62682.07, 10440.12, 41072.40, 118476.34, 101019.63, 0.00, 0.00, 0.00
27, 85985.23, 127701.16, 14704.03, 62672.68, 10429.50, 41073.36, 118475.24, 101021.70, 0.00, 0.00, 0.00
28, 85979.70, 127701.28, 14704.12, 62667.76, 10418.39, 41072.51, 118470.27, 101019.91, 0.00, 0.00, 0.00
29, 85983.41, 127707.49, 14702.66, 62664.36, 10428.72, 41073.27, 118474.26, 101027.00, 0.00, 0.00, 0.00
30, 85989.52, 127696.74, 14700.36, 62669.84, 10419.91, 41076.83, 118477.34, 101031.87, 0.00, 0.00, 0.00
31, 86006.36, 127697.44, 14700.83, 62665.44, 10410.39, 41075.11, 118474.84, 101039.60, 0.07, -0.29, 0.96
32, 86005.17, 127700.52, 14695.62, 62658.64, 10403.04, 41072.76, 118469.27, 101039.23, 0.00, 0.00, 0.00
33, 86003.50, 127698.66, 14697.10, 62657.61, 10394.25, 41073.96, 118466.34, 101037.88, 0.00, 0.00, 0.00
34, 86006.72, 127696.70, 14690.86, 62651.51, 10388.06, 41068.16, 118462.09, 101044.92, 0.00, 0.00, 0.00
35, 86017.53, 127698.33, 14693.34, 62653.43, 10396.15, 41072.51, 118476.31, 101054.71, 0.00, 0.00, 0.00
36, 86022.45, 127693.59, 14692.78, 62652.88, 10391.28, 41074.04, 118477.45, 101061.38, 0.00, 0.00, 0.00
37, 86029.25, 127691.45, 14690.88, 62651.54, 10388.33, 41073.63, 118473.77, 101066.60, 0.00, 0.00, 0.00
38, 86032.63, 127691.31, 14689.86, 62648.72, 10368.84, 41068.38, 118472.31, 101065.82, 0.00, 0.00, 0.00
39, 86033.70, 127690.17, 14690.08, 62648.81, 10372.17, 41062.57, 118470.97, 101070.65, 0.00, 0.00, 0.00
40, 86040.40, 127688.98, 14693.50, 62651.16, 10376.10, 41065.32, 118473.52, 101078.41, 0.00, 0.00, 0.00
41, 86044.31, 127687.94, 14691.02, 62638.66, 10352.57, 41055.64, 118465.18, 101075.45, 0.07, -0.28, 0.96
42, 86049.19, 127689.84, 14696.03, 62652.77, 10386.94, 41057.96, 118463.99, 101073.83, 0.00, 0.00, 0.00
43, 86048.31, 127692.63, 14697.28, 62656.88, 10391.59, 41055.64, 118468.48, 101074.23, 0.00, 0.00, 0.00
44, 86047.24, 127696.05, 14692.87, 62646.30, 10374.20, 41056.75, 118465.20, 101074.90, 0.00, 0.00, 0.00
45, 86039.95, 127696.70, 14688.36, 62645.30, 10375.34, 41046.38, 118456.22, 101073.04, 0.00, 0.00, 0.00
46, 86047.17, 127696.59, 14700.92, 62678.11, 10443.16, 41063.46, 118460.62, 101078.81, 0.00, 0.00, 0.00
47, 86056.65, 127687.06, 14694.01, 62667.50, 10435.45, 41060.80, 118457.94, 101080.53, 0.00, 0.00, 0.00
