%OpenBCI Raw EEG Data
%Sample Rate = 250.0 Hz
%First Column = SampleIndex
%Other Columns = EEG data in microvolts followed by Accel Data (in G) interleaved with Aux Data
55, 86207.34, 130327.38, 18257.73, 70271.38, 14235.07, 55070.07, 122896.75, 101163.52, 0.00, 0.00, 0.00
56, 86200.59, 130337.06, 18262.20, 70276.19, 14235.69, 55072.55, 122897.95, 101162.92, 0.00, 0.00, 0.00
57, 86201.91, 130326.42, 18255.63, 70267.58, 14225.39, 55068.37, 122892.34, 101160.30, 0.00, 0.00, 0.00
58, 86203.97, 130324.10, 18258.33, 70267.45, 14221.34, 55068.39, 122890.73, 101161.02, 0.00, 0.00, 0.00
59, 86205.22, 130327.72, 18255.65, 70266.59, 14232.94, 55073.96, 122891.88, 101162.25, 0.00, 0.00, 0.00
60, 86214.84, 130327.90, 18254.87, 70266.82, 14241.95, 55076.51, 122892.32, 101166.36, 0.00, 0.00, 0.00
61, 86218.63, 130326.29, 18260.53, 70274.62, 14235.62, 55078.70, 122896.05, 101173.76, 0.00, 0.00, 0.00
62, 86211.15, 130331.38, 18260.57, 70273.84, 14237.03, 55079.26, 122901.06, 101171.05, 0.00, 0.00, 0.00
63, 86208.71, 130339.48, 18259.50, 70267.09, 14227.40, 55072.04, 122897.15, 101164.62, 0.00, 0.00, 0.00
64, 86210.88, 130333.89, 18258.56, 70266.35, 14225.63, 55070.96, 122891.30, 101168.04, 0.07, -0.28, 0.96
65, 86209.52, 130326.58, 18256.97, 70265.74, 14222.53, 55069.58, 122888.86, 101167.37, 0.00, 0.00, 0.00
66, 86207.52, 130321.13, 18260.73, 70264.27, 14218.06, 55064.95, 122885.22, 101164.73, 0.00, 0.00, 0.00
67, 86209.42, 130318.45, 18257.22, 70257.97, 14224.02, 55064.93, 122881.70, 101164.13, 0.00, 0.00, 0.00
68, 86210.25, 130324.50, 18256.41, 70258.75, 14227.60, 55069.42, 122885.69, 101167.08, 0.00, 0.00, 0.00
69, 86209.76, 130328.28, 18257.42, 70265.16, 14223.04, 55071.19, 122888.34, 101170.43, 0.00, 0.00, 0.00
70, 86211.05, 130328.52, 18258.76, 70269.95, 14230.66, 55074.96, 122887.52, 101171.63, 0.00, 0.00, 0.00
71, 86206.98, 130324.73, 18257.24, 70263.78, 14228.70, 55073.82, 122880.79, 101171.08, 0.00, 0.00, 0.00
72, 86208.59, 130322.42, 18249.66, 70252.07, 14216.80, 55068.80, 122885.38, 101166.31, 0.00, 0.00, 0.00
73, 86222.37, 130325.59, 18257.33, 70275.02, 14223.96, 55069.80, 122891.70, 101167.88, 0.00, 0.00, 0.00
74, 86221.02, 130328.32, 18260.86, 70273.30, 14226.84, 55067.07, 122877.48, 101165.53, 0.07, -0.29, 0.96
75, 86216.27, 130335.38, 18263.28, 70282.73, 14222.48, 55066.56, 122876.21, 101165.29, 0.00, 0.00, 0.00
76, 86204.62, 130335.77, 18258.51, 70275.58, 14235.96, 55073.94, 122877.59, 101163.95, 0.00, 0.00, 0.00
77, 86202.27, 130338.25, 18262.69, 70280.68, 14219.20, 55069.15, 122874.82, 101162.34, 0.00, 0.00, 0.00
78, 86201.35, 130338.18, 18263.41, 70283.45, 14212.89, 55063.16, 122871.71, 101159.37, 0.00, 0.00, 0.00
79, 86206.12, 130334.29, 18259.68, 70278.48, 14227.11, 55069.69, 122876.09, 101165.69, 0.00, 0.00, 0.00
80, 86209.34, 130329.64, 18261.58, 70277.19, 14238.62, 55078.00, 122876.99, 101172.44, 0.00, 0.00, 0.00
81, 86212.20, 130331.81, 18266.20, 70287.25, 14231.44, 55079.26, 122878.51, 101174.45, 0.00, 0.00, 0.00
82, 86213.88, 130333.04, 18265.15, 70286.02, 14230.30, 55077.13, 122880.88, 101170.45, 0.00, 0.00, 0.00
83, 86212.93, 130332.59, 18262.31, 70280.77, 14228.40, 55075.14, 122878.63, 101166.88, 0.00, 0.00, 0.00
84, 86213.49, 130333.38, 18260.14, 70276.30, 14224.99, 55075.23, 122877.46, 101167.12, 0.07, -0.29, 0.96
85, 86215.03, 130338.00, 18264.19, 70284.01, 14224.34, 55078.74, 122876.70, 101167.70, 0.00, 0.00, 0.00
86, 86211.39, 130338.49, 18261.75, 70284.41, 14226.55, 55079.59, 122875.34, 101165.80, 0.00, 0.00, 0.00
87, 86211.15, 130336.55, 18254.69, 70277.99, 14227.20, 55079.86, 122873.26, 101164.23, 0.00, 0.00, 0.00
88, 86210.18, 130339.19, 18257.71, 70267.71, 14216.56, 55075.46, 122869.03, 101161.78, 0.00, 0.00, 0.00
89, 86210.70, 130347.05, 18264.41, 70266.20, 14216.11, 55072.39, 122865.70, 101162.00, 0.00, 0.00, 0.00
90, 86217.80, 130341.69, 18272.24, 70282.80, 14227.24, 55082.54, 122872.41, 101172.44, 0.00, 0.00, 0.00
91, 86217.78, 130335.38, 18267.39, 70275.72, 14223.17, 55080.39, 122871.65, 101172.89, 0.00, 0.00, 0.00
92, 86217.56, 130339.84, 18258.85, 70271.96, 14216.18, 55078.23, 122867.89, 101167.10, 0.00, 0.00, 0.00
93, 86211.97, 130339.21, 18255.38, 70265.50, 14216.16, 55077.18, 122866.59, 101164.75, 0.00, 0.00, 0.00
94, 86203.95, 130339.30, 18259.90, 70277.70, 14214.19, 55072.91, 122864.16, 101161.60, 0.08, -0.29, 0.96
95, 86203.84, 130340.17, 18258.74, 70273.52, 14209.00, 55070.36, 122862.53, 101159.84, 0.00, 0.00, 0.00
96, 86204.73, 130340.13, 18258.22, 70276.59, 14215.02, 55073.54, 122864.98, 101161.33, 0.00, 0.00, 0.00
97, 86202.98, 130336.80, 18254.71, 70266.71, 14221.16, 55077.22, 122867.49, 101161.40, 0.00, 0.00, 0.00
98, 86201.69, 130334.45, 18251.47, 70258.13, 14219.46, 55075.99, 122864.92, 101161.96, 0.00, 0.00, 0.00
99, 86206.61, 130342.59, 18264.26, 70291.52, 14222.82, 55079.14, 122865.05, 101167.97, 0.00, 0.00, 0.00
100, 86210.70, 130341.42, 18265.71, 70279.98, 14207.35, 55075.12, 122863.34, 101170.98, 0.00, 0.00, 0.00
101, 86209.49, 130337.02, 18255.70, 70250.14, 14205.27, 55072.33, 122861.37, 101167.99, 0.00, 0.00, 0.00
102, 86210.45, 130340.04, 18257.57, 70267.69, 14218.26, 55078.18, 122864.41, 101168.98, 0.00, 0.00, 0.00
103, 86209.60, 130338.60, 18266.78, 70300.39, 14218.86, 55072.64, 122857.84, 101161.91, 0.00, 0.00, 0.00
104, 86216.84, 130336.66, 18260.23, 70290.38, 14234.28, 55080.35, 122861.99, 101166.63, 0.09, -0.28, 0.96
105, 86217.07, 130336.46, 18254.45, 70266.95, 14224.72, 55079.86, 122863.51, 101170.34, 0.00, 0.00, 0.00
106, 86218.41, 130336.98, 18256.26, 70265.52, 14212.98, 55078.52, 122864.38, 101176.82, 0.00, 0.00, 0.00
107, 86225.07, 130337.87, 18264.04, 70290.18, 14192.78, 55072.77, 122864.63, 101181.00, 0.00, 0.00, 0.00
108, 86233.63, 130337.22, 18266.94, 70302.09, 14218.57, 55082.59, 122864.88, 101179.10, 0.00, 0.00, 0.00
109, 86226.26, 130341.13, 18273.56, 70293.40, 14241.91, 55089.20, 122860.29, 101173.47, 0.00, 0.00, 0.00
110, 86217.85, 130341.60, 18275.61, 70282.51, 14243.29, 55082.95, 122853.77, 101168.28, 0.00, 0.00, 0.00
111, 86222.30, 130342.41, 18264.48, 70268.07, 14232.20, 55082.77, 122856.34, 101172.66, 0.00, 0.00, 0.00
112, 86223.17, 130341.31, 18259.54, 70267.04, 14233.03, 55084.78, 122857.45, 101175.62, 0.00, 0.00, 0.00
113, 86224.06, 130345.00, 18266.02, 70281.51, 14231.38, 55083.64, 122858.95, 101175.64, 0.00, 0.00, 0.00
114, 86229.80, 130348.66, 18267.16, 70288.70, 14241.55, 55090.95, 122865.08, 101180.53, 0.08, -0.29, 0.96
115, 86229.30, 130342.14, 18268.24, 70289.71, 14236.47, 55091.44, 122867.94, 101184.06, 0.00, 0.00, 0.00
116, 86228.20, 130336.05, 18262.96, 70281.86, 14227.02, 55087.46, 122863.13, 101183.46, 0.00, 0.00, 0.00
117, 86234.13, 130335.61, 18263.30, 70281.23, 14230.08, 55088.35, 122860.49, 101183.93, 0.00, 0.00, 0.00
118, 86238.19, 130333.27, 18265.04, 70284.48, 14230.28, 55091.04, 122867.27, 101186.57, 0.00, 0.00, 0.00
119, 86232.49, 130338.54, 18266.98, 70287.61, 14231.15, 55090.03, 122864.92, 101182.01, 0.00, 0.00, 0.00
120, 86220.35, 130342.38, 18264.24, 70284.41, 14230.46, 55088.75, 122852.60, 101179.15, 0.00, 0.00, 0.00
121, 86216.29, 130343.14, 18266.16, 70287.27, 14232.81, 55090.21, 122847.28, 101173.94, 0.00, 0.00, 0.00
122, 86217.63, 130343.63, 18265.80, 70294.49, 14229.75, 55090.16, 122859.09, 101172.44, 0.00, 0.00, 0.00
123, 86217.70, 130340.26, 18261.26, 70286.94, 14223.26, 55085.67, 122858.46, 101174.34, 0.00, 0.00, 0.00
124, 86224.47, 130342.59, 18264.79, 70288.16, 14227.87, 55088.20, 122852.18, 101175.48, 0.08, -0.29, 0.96
125, 86233.41, 130348.13, 18269.94, 70284.41, 14232.83, 55093.34, 122856.38, 101180.11, 0.00, 0.00, 0.00
126, 86229.61, 130349.13, 18270.25, 70278.55, 14227.94, 55087.53, 122852.07, 101176.87, 0.00, 0.00, 0.00
127, 86220.91, 130337.09, 18264.82, 70274.69, 14213.88, 55080.08, 122846.03, 101174.88, 0.00, 0.00, 0.00
128, 86210.83, 130327.63, 18261.62, 70278.29, 14197.69, 55074.23, 122843.15, 101172.95, 0.00, 0.00, 0.00
129, 86212.27, 130334.42, 18266.65, 70293.40, 14230.66, 55086.68, 122844.42, 101173.02, 0.00, 0.00, 0.00
130, 86225.00, 130340.57, 18263.48, 70284.48, 14233.72, 55094.39, 122854.93, 101181.36, 0.00, 0.00, 0.00
131, 86230.05, 130343.01, 18260.97, 70275.65, 14230.75, 55094.72, 122861.34, 101185.30, 0.00, 0.00, 0.00
132, 86224.65, 130340.93, 18267.74, 70274.75, 14231.27, 55092.58, 122854.37, 101183.57, 0.00, 0.00, 0.00
133, 86226.66, 130346.49, 18271.77, 70291.34, 14225.86, 55087.88, 122853.19, 101188.09, 0.00, 0.00, 0.00
134, 86227.08, 130341.69, 18266.98, 70289.55, 14212.11, 55080.69, 122848.85, 101186.21, 0.07, -0.29, 0.96
135, 86225.07, 130340.02, 18268.77, 70281.57, 14194.05, 55075.43, 122845.70, 101185.54, 0.00, 0.00, 0.00
136, 86220.17, 130346.41, 18274.09, 70291.77, 14204.04, 55081.87, 122850.64, 101190.55, 0.00, 0.00, 0.00
137, 86218.30, 130345.16, 18268.62, 70280.52, 14223.04, 55089.96, 122856.38, 101192.22, 0.00, 0.00, 0.00
138, 86219.39, 130346.41, 18262.80, 70279.23, 14221.54, 55089.89, 122853.84, 101189.45, 0.00, 0.00, 0.00
139, 86226.97, 130347.95, 18266.16, 70294.65, 14241.99, 55098.43, 122855.45, 101191.95, 0.00, 0.00, 0.00
140, 86226.73, 130349.09, 18268.01, 70293.35, 14246.44, 55102.05, 122858.33, 101190.70, 0.00, 0.00, 0.00
141, 86225.67, 130350.14, 18266.09, 70287.09, 14252.72, 55105.21, 122861.19, 101189.74, 0.00, 0.00, 0.00
142, 86223.21, 130343.27, 18260.64, 70276.66, 14242.78, 55099.86, 122856.13, 101186.55, 0.00, 0.00, 0.00
143, 86217.20, 130340.44, 18258.85, 70270.17, 14235.62, 55093.76, 122849.84, 101180.89, 0.00, 0.00, 0.00
144, 86216.33, 130345.27, 18265.64, 70283.74, 14223.00, 55092.45, 122851.22, 101182.08, 0.07, -0.29, 0.96
145, 86214.50, 130342.45, 18260.64, 70278.82, 14210.48, 55086.03, 122846.88, 101181.52, 0.00, 0.00, 0.00
146, 86211.79, 130342.54, 18252.43, 70257.21, 14211.33, 55084.22, 122844.69, 101180.29, 0.00, 0.00, 0.00
147, 86214.37, 130347.50, 18261.02, 70271.60, 14221.16, 55093.38, 122851.46, 101184.11, 0.00, 0.00, 0.00
148, 86215.39, 130340.86, 18265.31, 70291.09, 14221.07, 55096.11, 122854.68, 101187.77, 0.00, 0.00, 0.00
149, 86211.48, 130344.10, 18264.59, 70289.64, 14215.64, 55090.59, 122849.36, 101182.50, 0.00, 0.00, 0.00
150, 86201.96, 130344.33, 18262.11, 70269.68, 14204.04, 55087.13, 122847.62, 101179.59, 0.00, 0.00, 0.00
151, 86209.47, 130340.13, 18265.15, 70284.05, 14192.06, 55084.17, 122848.27, 101185.36, 0.00, 0.00, 0.00
152, 86207.63, 130341.73, 18266.02, 70281.62, 14199.30, 55084.82, 122844.02, 101184.16, 0.00, 0.00, 0.00
153, 86211.59, 130349.58, 18266.43, 70275.42, 14238.75, 55102.01, 122852.96, 101193.23, 0.00, 0.00, 0.00
154, 86215.08, 130351.21, 18266.92, 70284.84, 14228.87, 55097.32, 122849.45, 101192.09, 0.08, -0.29, 0.95
155, 86213.72, 130343.39, 18259.59, 70280.68, 14221.36, 55089.05, 122844.42, 101189.49, 0.00, 0.00, 0.00
156, 86211.21, 130340.84, 18261.91, 70279.52, 14220.74, 55088.80, 122845.18, 101192.98, 0.00, 0.00, 0.00
157, 86206.48, 130338.27, 18263.10, 70263.80, 14202.10, 55086.54, 122839.33, 101186.03, 0.00, 0.00, 0.00
158, 86201.17, 130345.16, 18269.15, 70274.53, 14183.03, 55079.46, 122834.81, 101178.99, 0.00, 0.00, 0.00
159, 86200.35, 130360.35, 18277.22, 70288.55, 14231.47, 55095.21, 122847.04, 101184.63, 0.00, 0.00, 0.00
160, 86195.30, 130344.35, 18268.33, 70267.22, 14224.78, 55096.51, 122841.30, 101180.40, 0.00, 0.00, 0.00
161, 86191.23, 130331.61, 18264.37, 70264.25, 14205.63, 55090.66, 122836.13, 101179.55, 0.00, 0.00, 0.00
162, 86193.45, 130334.34, 18265.76, 70269.91, 14207.86, 55088.64, 122833.80, 101181.83, 0.00, 0.00, 0.00
163, 86198.92, 130334.72, 18267.81, 70286.53, 14188.64, 55087.44, 122834.30, 101182.72, 0.00, 0.00, 0.00
164, 86212.11, 130347.03, 18279.44, 70307.16, 14233.97, 55100.82, 122837.02, 101186.97, 0.08, -0.29, 0.96
165, 86210.88, 130350.23, 18280.37, 70300.44, 14223.11, 55097.43, 122830.05, 101184.35, 0.00, 0.00, 0.00
166, 86207.52, 130351.52, 18278.61, 70292.16, 14216.42, 55094.37, 122836.65, 101182.84, 0.00, 0.00, 0.00
167, 86203.12, 130348.26, 18280.28, 70288.61, 14214.66, 55094.25, 122842.03, 101177.05, 0.00, 0.00, 0.00
168, 86203.45, 130348.02, 18285.09, 70295.74, 14235.40, 55100.94, 122834.55, 101174.36, 0.00, 0.00, 0.00
169, 86206.56, 130350.83, 18281.13, 70294.24, 14232.34, 55099.08, 122834.08, 101177.20, 0.00, 0.00, 0.00
170, 86210.02, 130348.35, 18279.19, 70295.09, 14220.76, 55095.06, 122833.31, 101178.50, 0.00, 0.00, 0.00
171, 86208.30, 130353.31, 18279.05, 70292.08, 14190.76, 55085.45, 122830.25, 101174.43, 0.00, 0.00, 0.00
172, 86199.97, 130346.83, 18274.54, 70282.95, 14217.68, 55093.09, 122826.32, 101165.55, 0.00, 0.00, 0.00
173, 86198.74, 130343.63, 18289.16, 70293.62, 14227.76, 55096.80, 122820.89, 101162.07, 0.00, 0.00, 0.00
174, 86198.74, 130346.12, 18289.81, 70300.41, 14220.16, 55092.98, 122820.91, 101164.30, 0.07, -0.29, 0.96
175, 86202.36, 130350.20, 18288.58, 70300.19, 14221.14, 55098.93, 122827.26, 101171.23, 0.00, 0.00, 0.00
176, 86203.01, 130352.33, 18291.10, 70295.97, 14206.95, 55097.81, 122827.55, 101175.88, 0.00, 0.00, 0.00
177, 86200.84, 130351.48, 18290.41, 70302.05, 14194.16, 55091.71, 122821.80, 101171.79, 0.00, 0.00, 0.00
178, 86205.11, 130350.09, 18295.21, 70308.21, 14221.99, 55099.64, 122825.00, 101169.73, 0.00, 0.00, 0.00
179, 86203.12, 130353.70, 18291.44, 70297.38, 14209.03, 55100.45, 122824.27, 101168.51, 0.00, 0.00, 0.00
180, 86202.59, 130355.01, 18285.20, 70283.36, 14206.61, 55101.03, 122823.70, 101168.04, 0.00, 0.00, 0.00
181, 86214.27, 130356.38, 18286.05, 70294.85, 14222.28, 55109.57, 122830.52, 101176.82, 0.00, 0.00, 0.00
182, 86220.63, 130356.33, 18291.95, 70313.87, 14230.19, 55113.50, 122835.70, 101183.28, 0.00, 0.00, 0.00
183, 86209.31, 130346.09, 18286.79, 70305.91, 14221.07, 55110.10, 122833.63, 101173.49, 0.00, 0.00, 0.00
184, 86197.51, 130346.61, 18289.65, 70290.94, 14201.16, 55103.84, 122828.73, 101167.77, 0.07, -0.29, 0.96
185, 86185.87, 130343.81, 18289.89, 70288.81, 14201.38, 55097.54, 122818.41, 101162.34, 0.00, 0.00, 0.00
186, 86187.30, 130345.20, 18291.84, 70288.84, 14208.71, 55101.16, 122821.63, 101165.47, 0.00, 0.00, 0.00
187, 86197.02, 130349.83, 18291.21, 70298.70, 14226.04, 55109.43, 122827.62, 101171.68, 0.00, 0.00, 0.00
188, 86202.41, 130347.52, 18290.99, 70301.33, 14218.86, 55110.35, 122830.12, 101173.89, 0.00, 0.00, 0.00
189, 86205.69, 130349.20, 18292.73, 70307.79, 14205.49, 55108.27, 122832.15, 101178.48, 0.00, 0.00, 0.00
190, 86216.91, 130345.06, 18282.63, 70298.29, 14215.17, 55108.47, 122833.16, 101195.30, 0.00, 0.00, 0.00
191, 86221.25, 130347.30, 18284.58, 70297.44, 14211.53, 55106.30, 122830.90, 101191.89, 0.00, 0.00, 0.00
192, 86206.48, 130347.23, 18288.55, 70297.87, 14206.66, 55106.01, 122827.88, 101171.50, 0.00, 0.00, 0.00
193, 86204.30, 130348.10, 18289.78, 70305.76, 14222.26, 55110.41, 122831.93, 101174.74, 0.00, 0.00, 0.00
194, 86209.91, 130348.22, 18286.90, 70303.95, 14219.64, 55116.32, 122832.98, 101178.34, 0.07, -0.29, 0.95
195, 86206.27, 130354.88, 18287.46, 70297.33, 14206.48, 55109.14, 122827.37, 101170.23, 0.00, 0.00, 0.00
196, 86208.84, 130356.82, 18287.62, 70292.75, 14209.29, 55107.87, 122822.41, 101169.96, 0.00, 0.00, 0.00
197, 86202.49, 130350.88, 18291.06, 70292.57, 14205.00, 55103.26, 122818.96, 101164.93, 0.00, 0.00, 0.00
198, 86194.42, 130347.01, 18288.31, 70295.20, 14213.09, 55106.86, 122819.52, 101158.90, 0.00, 0.00, 0.00
199, 86197.09, 130345.73, 18282.83, 70287.38, 14202.54, 55100.29, 122816.02, 101157.55, 0.00, 0.00, 0.00
200, 86201.42, 130344.95, 18280.24, 70284.90, 14197.00, 55096.40, 122816.98, 101157.84, 0.00, 0.00, 0.00
201, 86200.08, 130350.67, 18284.24, 70301.35, 14204.26, 55101.25, 122820.89, 101158.11, 0.00, 0.00, 0.00
202, 86204.87, 130355.05, 18287.28, 70299.84, 14214.95, 55105.50, 122821.13, 101167.19, 0.00, 0.00, 0.00
203, 86203.34, 130346.67, 18286.47, 70292.63, 14209.32, 55102.17, 122818.27, 101168.15, 0.00, 0.00, 0.00
204, 86197.13, 130344.57, 18282.43, 70288.66, 14210.48, 55103.22, 122818.30, 101163.19, 0.07, -0.29, 0.96
205, 86203.43, 130346.65, 18283.57, 70302.47, 14200.06, 55102.48, 122828.82, 101167.26, 0.00, 0.00, 0.00
206, 86213.78, 130345.29, 18282.18, 70298.65, 14213.72, 55110.41, 122836.71, 101173.76, 0.00, 0.00, 0.00
207, 86213.29, 130348.48, 18285.49, 70318.56, 14226.13, 55115.89, 122834.01, 101175.37, 0.00, 0.00, 0.00
208, 86208.06, 130348.41, 18282.36, 70310.83, 14217.00, 55111.44, 122829.11, 101169.60, 0.00, 0.00, 0.00
209, 86208.15, 130350.34, 18284.96, 70298.00, 14206.10, 55104.43, 122819.99, 101166.30, 0.00, 0.00, 0.00
210, 86203.01, 130345.69, 18283.53, 70292.28, 14199.33, 55097.47, 122813.76, 101162.16, 0.00, 0.00, 0.00
211, 86205.60, 130344.51, 18283.68, 70303.32, 14206.48, 55101.52, 122818.16, 101165.51, 0.00, 0.00, 0.00
212, 86209.45, 130344.48, 18283.79, 70303.45, 14209.29, 55107.46, 122821.94, 101168.84, 0.00, 0.00, 0.00
213, 86210.70, 130343.84, 18280.46, 70294.83, 14203.04, 55106.35, 122822.14, 101170.83, 0.00, 0.00, 0.00
214, 86227.08, 130341.49, 18277.09, 70293.20, 14206.52, 55105.50, 122824.71, 101187.41, 0.08, -0.29, 0.96
215, 86212.76, 130341.31, 18280.73, 70296.81, 14213.67, 55111.04, 122823.48, 101172.80, 0.00, 0.00, 0.00
216, 86188.84, 130343.61, 18275.93, 70293.15, 14212.89, 55110.79, 122817.47, 101144.91, 0.00, 0.00, 0.00
217, 86189.77, 130342.70, 18271.28, 70300.55, 14191.03, 55102.75, 122812.69, 101142.58, 0.00, 0.00, 0.00
218, 86181.64, 130342.31, 18282.07, 70308.15, 14171.25, 55093.14, 122806.72, 101138.82, 0.00, 0.00, 0.00
219, 86167.67, 130343.92, 18287.55, 70308.80, 14188.24, 55094.21, 122800.10, 101126.80, 0.00, 0.00, 0.00
220, 86151.76, 130345.18, 18292.91, 70302.13, 14203.59, 55101.54, 122795.48, 101106.30, 0.00, 0.00, 0.00
221, 86150.28, 130347.79, 18287.50, 70301.84, 14210.63, 55103.87, 122794.31, 101097.23, 0.00, 0.00, 0.00
222, 86147.95, 130345.04, 18283.30, 70296.59, 14209.76, 55099.37, 122792.43, 101090.74, 0.00, 0.00, 0.00
223, 86130.48, 130341.24, 18283.62, 70301.11, 14207.17, 55096.85, 122790.09, 101075.34, 0.00, 0.00, 0.00
224, 86107.97, 130340.08, 18288.06, 70301.73, 14202.14, 55096.36, 122791.41, 101059.97, 0.08, -0.29, 0.97
225, 86091.25, 130339.25, 18285.56, 70293.87, 14198.92, 55092.60, 122789.35, 101038.42, 0.00, 0.00, 0.00
226, 86088.10, 130336.68, 18279.23, 70290.22, 14192.73, 55087.84, 122787.47, 101028.95, 0.00, 0.00, 0.00
227, 86086.53, 130339.37, 18282.09, 70307.59, 14192.87, 55089.80, 122787.98, 101028.52, 0.00, 0.00, 0.00
228, 86081.28, 130341.73, 18278.88, 70300.08, 14198.59, 55091.77, 122781.01, 101023.47, 0.00, 0.00, 0.00
229, 86069.28, 130340.23, 18277.74, 70296.14, 14199.53, 55091.82, 122780.32, 101006.93, 0.00, 0.00, 0.00
230, 86056.59, 130335.99, 18278.34, 70302.88, 14194.65, 55090.54, 122786.15, 100999.55, 0.00, 0.00, 0.00
231, 86054.41, 130327.12, 18268.77, 70298.38, 14189.33, 55087.35, 122776.92, 100992.27, 0.00, 0.00, 0.00
232, 86049.92, 130328.57, 18270.18, 70292.32, 14183.81, 55082.65, 122777.55, 100984.26, 0.00, 0.00, 0.00
233, 86045.41, 130324.10, 18270.03, 70284.63, 14185.85, 55085.20, 122774.02, 100978.56, 0.00, 0.00, 0.00
234, 86036.71, 130329.48, 18275.54, 70301.06, 14184.89, 55086.39, 122773.32, 100975.92, 0.08, -0.28, 0.97
235, 86038.48, 130329.87, 18274.58, 70292.28, 14185.33, 55082.27, 122766.51, 100974.34, 0.00, 0.00, 0.00
236, 86037.67, 130329.75, 18274.74, 70292.68, 14172.03, 55081.74, 122765.41, 100968.73, 0.00, 0.00, 0.00
237, 86030.48, 130333.15, 18278.83, 70291.95, 14183.95, 55086.34, 122764.63, 100965.76, 0.00, 0.00, 0.00
238, 86026.48, 130331.70, 18282.99, 70297.48, 14197.85, 55086.61, 122760.54, 100955.80, 0.00, 0.00, 0.00
239, 86036.76, 130331.72, 18285.09, 70305.31, 14179.03, 55082.88, 122752.27, 100958.98, 0.00, 0.00, 0.00
240, 86036.47, 130332.21, 18277.33, 70288.66, 14163.83, 55072.75, 122753.23, 100964.46, 0.00, 0.00, 0.00
241, 86032.45, 130336.10, 18278.16, 70289.71, 14161.17, 55075.28, 122764.59, 100963.34, 0.00, 0.00, 0.00
242, 86037.72, 130334.09, 18272.91, 70287.54, 14163.18, 55076.33, 122753.95, 100960.23, 0.00, 0.00, 0.00
243, 86052.11, 130336.46, 18276.93, 70294.40, 14194.72, 55085.34, 122756.13, 100966.00, 0.00, 0.00, 0.00
244, 86057.23, 130336.68, 18278.81, 70295.16, 14198.90, 55093.79, 122766.64, 100976.44, 0.08, -0.28, 0.95
245, 86062.22, 130337.69, 18282.47, 70310.20, 14207.37, 55101.81, 122770.33, 100983.68, 0.00, 0.00, 0.00
246, 86073.01, 130327.41, 18281.33, 70312.06, 14195.68, 55093.79, 122763.20, 100986.38, 0.00, 0.00, 0.00
247, 86071.73, 130332.86, 18271.46, 70297.40, 14181.04, 55086.14, 122757.95, 100987.99, 0.00, 0.00, 0.00
248, 86074.42, 130340.33, 18272.93, 70288.55, 14184.17, 55088.40, 122758.19, 100997.36, 0.00, 0.00, 0.00
249, 86074.46, 130336.66, 18276.98, 70274.87, 14188.64, 55092.09, 122762.95, 100996.78, 0.00, 0.00, 0.00
250, 86078.78, 130335.68, 18275.52, 70291.54, 14181.15, 55088.20, 122756.60, 100991.57, 0.00, 0.00, 0.00
251, 86089.44, 130337.71, 18277.87, 70306.80, 14178.22, 55087.13, 122756.55, 100998.57, 0.00, 0.00, 0.00
252, 86095.38, 130336.62, 18275.70, 70299.38, 14177.22, 55087.95, 122753.90, 101005.05, 0.00, 0.00, 0.00
253, 86097.60, 130336.55, 18278.25, 70293.98, 14178.00, 55089.14, 122762.17, 101013.34, 0.00, 0.00, 0.00
254, 86095.43, 130333.71, 18276.71, 70288.19, 14181.33, 55092.53, 122767.55, 101016.90, 0.07, -0.28, 0.96
255, 86100.50, 130333.33, 18282.81, 70301.69, 14191.30, 55098.52, 122762.80, 101021.57, 0.00, 0.00, 0.00
0, 86102.05, 130337.80, 18287.30, 70307.74, 14191.32, 55095.84, 122757.81, 101019.91, 0.00, 0.00, 0.00
1, 86105.53, 130336.37, 18278.94, 70294.65, 14184.04, 55091.17, 122758.46, 101023.80, 0.00, 0.00, 0.00
2, 86107.59, 130334.41, 18275.66, 70286.35, 14177.13, 55092.45, 122769.52, 101028.83, 0.00, 0.00, 0.00
3, 86117.54, 130333.80, 18281.76, 70297.93, 14170.83, 55094.34, 122763.69, 101036.09, 0.00, 0.00, 0.00
4, 86119.73, 130341.06, 18292.76, 70319.93, 14198.83, 55096.64, 122761.74, 101039.74, 0.00, 0.00, 0.00
5, 86116.87, 130341.13, 18286.65, 70309.82, 14197.72, 55095.17, 122763.33, 101039.63, 0.00, 0.00, 0.00
6, 86116.13, 130338.59, 18283.86, 70300.03, 14186.23, 55094.21, 122758.48, 101043.16, 0.00, 0.00, 0.00
7, 86111.86, 130338.41, 18282.47, 70296.77, 14184.04, 55092.62, 122757.79, 101044.92, 0.07, -0.29, 0.96
8, 86121.00, 130336.73, 18281.63, 70294.52, 14188.80, 55098.01, 122761.38, 101052.30, 0.00, 0.00, 0.00
9, 86126.39, 130333.53, 18281.00, 70298.58, 14167.41, 55090.54, 122757.43, 101053.02, 0.00, 0.00, 0.00
10, 86131.93, 130340.10, 18283.19, 70296.16, 14181.76, 55096.13, 122760.47, 101055.12, 0.00, 0.00, 0.00
11, 86139.35, 130344.44, 18288.22, 70312.06, 14195.06, 55104.22, 122767.47, 101066.47, 0.00, 0.00, 0.00
12, 86140.89, 130344.71, 18287.37, 70314.65, 14176.44, 55099.82, 122764.18, 101071.50, 0.00, 0.00, 0.00
13, 86148.78, 130349.49, 18288.89, 70313.04, 14190.70, 55097.79, 122762.82, 101072.64, 0.00, 0.00, 0.00
14, 86155.42, 130352.24, 18290.70, 70311.01, 14192.13, 55100.49, 122764.92, 101073.24, 0.00, 0.00, 0.00
15, 86157.55, 130350.97, 18292.47, 70309.80, 14185.71, 55098.25, 122761.92, 101077.40, 0.00, 0.00, 0.00
16, 86163.83, 130352.80, 18290.30, 70303.21, 14202.21, 55106.68, 122764.34, 101086.34, 0.00, 0.00, 0.00
17, 86163.80, 130349.29, 18288.82, 70294.29, 14203.62, 55110.37, 122761.84, 101088.63, 0.07, -0.29, 0.96
18, 86167.00, 130352.22, 18294.97, 70306.38, 14199.75, 55113.21, 122764.13, 101088.40, 0.00, 0.00, 0.00
19, 86161.52, 130354.34, 18297.74, 70313.73, 14193.78, 55110.13, 122773.08, 101088.35, 0.00, 0.00, 0.00
20, 86152.67, 130350.63, 18289.67, 70304.13, 14190.32, 55109.54, 122769.26, 101086.37, 0.00, 0.00, 0.00
21, 86156.14, 130350.97, 18291.39, 70313.51, 14196.64, 55116.54, 122770.44, 101090.37, 0.00, 0.00, 0.00
22, 86161.55, 130352.58, 18299.06, 70327.37, 14196.51, 55112.00, 122768.70, 101090.90, 0.00, 0.00, 0.00
23, 86168.68, 130349.18, 18294.59, 70316.91, 14201.36, 55115.09, 122769.19, 101091.41, 0.00, 0.00, 0.00
24, 86167.34, 130352.27, 18290.83, 70310.07, 14194.94, 55114.01, 122771.78, 101092.60, 0.00, 0.00, 0.00
25, 86172.09, 130357.67, 18296.02, 70314.12, 14204.78, 55120.34, 122775.63, 101093.95, 0.00, 0.00, 0.00
26, 86167.02, 130356.24, 18298.21, 70320.35, 14206.63, 55123.67, 122775.70, 101093.96, 0.00, 0.00, 0.00
27, 86171.85, 130355.84, 18296.80, 70313.76, 14209.05, 55131.16, 122780.43, 101098.79, 0.07, -0.28, 0.96
28, 86176.27, 130356.35, 18298.50, 70314.07, 14203.55, 55132.54, 122784.70, 101102.95, 0.00, 0.00, 0.00
29, 86171.59, 130357.11, 18296.76, 70320.24, 14204.49, 55131.94, 122784.07, 101102.95, 0.00, 0.00, 0.00
30, 86170.02, 130355.62, 18292.42, 70314.20, 14200.67, 55126.62, 122776.09, 101096.22, 0.00, 0.00, 0.00
31, 86169.08, 130351.19, 18292.53, 70307.95, 14190.36, 55119.38, 122774.46, 101094.55, 0.00, 0.00, 0.00
32, 86168.59, 130352.15, 18295.44, 70303.86, 14186.63, 55115.58, 122771.49, 101095.84, 0.00, 0.00, 0.00
33, 86171.52, 130355.86, 18292.58, 70306.38, 14188.28, 55114.66, 122770.28, 101094.48, 0.00, 0.00, 0.00
34, 86173.41, 130355.46, 18289.74, 70302.00, 14185.56, 55110.97, 122765.74, 101091.70, 0.00, 0.00, 0.00
35, 86162.98, 130356.22, 18289.63, 70298.49, 14173.51, 55106.12, 122761.12, 101088.53, 0.00, 0.00, 0.00
36, 86164.70, 130359.21, 18289.78, 70302.54, 14174.83, 55103.15, 122759.64, 101090.23, 0.00, 0.00, 0.00
37, 86170.71, 130357.38, 18288.51, 70300.84, 14180.75, 55107.20, 122759.66, 101093.47, 0.07, -0.28, 0.96
38, 86169.95, 130355.46, 18292.47, 70305.76, 14159.03, 55099.55, 122759.53, 101096.29, 0.00, 0.00, 0.00
39, 86174.38, 130358.25, 18292.80, 70300.93, 14185.29, 55107.57, 122761.50, 101099.38, 0.00, 0.00, 0.00
40, 86177.44, 130363.95, 18291.79, 70302.34, 14214.86, 55123.04, 122768.34, 101104.24, 0.00, 0.00, 0.00
41, 86176.77, 130358.79, 18289.52, 70312.28, 14196.44, 55115.55, 122766.02, 101106.19, 0.00, 0.00, 0.00
42, 86182.52, 130355.50, 18301.14, 70332.35, 14204.13, 55118.46, 122763.82, 101108.05, 0.00, 0.00, 0.00
43, 86176.55, 130355.46, 18293.23, 70315.66, 14203.24, 55113.88, 122760.65, 101099.64, 0.00, 0.00, 0.00
44, 86169.64, 130355.68, 18288.60, 70302.91, 14191.93, 55109.52, 122761.37, 101093.30, 0.00, 0.00, 0.00
45, 86173.68, 130359.05, 18301.92, 70325.52, 14191.19, 55110.70, 122756.54, 101097.02, 0.00, 0.00, 0.00
46, 86181.64, 130360.64, 18295.62, 70318.23, 14194.34, 55113.92, 122757.85, 101110.10, 0.00, 0.00, 0.00
47, 86184.28, 130359.84, 18298.66, 70314.02, 14199.12, 55119.96, 122763.51, 101109.25, 0.07, -0.28, 0.96
48, 86186.91, 130361.31, 18305.74, 70330.97, 14199.08, 55121.39, 122771.45, 101107.53, 0.00, 0.00, 0.00
49, 86181.64, 130358.25, 18301.16, 70318.95, 14188.80, 55114.68, 122762.73, 101098.75, 0.00, 0.00, 0.00
50, 86180.57, 130355.91, 18299.78, 70317.29, 14194.92, 55117.81, 122766.75, 101095.91, 0.00, 0.00, 0.00
51, 86179.23, 130356.17, 18297.65, 70315.92, 14195.12, 55118.82, 122763.45, 101097.20, 0.00, 0.00, 0.00
52, 86182.60, 130352.40, 18292.64, 70312.51, 14195.37, 55117.50, 122763.51, 101099.20, 0.00, 0.00, 0.00
53, 86180.59, 130355.44, 18295.39, 70313.63, 14192.64, 55116.67, 122761.88, 101102.26, 0.00, 0.00, 0.00
54, 86177.21, 130357.80, 18301.29, 70312.28, 14192.89, 55118.19, 122763.55, 101101.81, 0.00, 0.00, 0.00
55, 86175.13, 130358.90, 18303.91, 70311.45, 14193.83, 55121.10, 122766.64, 101098.63, 0.00, 0.00, 0.00
56, 86173.26, 130361.92, 18302.81, 70313.22, 14189.45, 55120.94, 122764.76, 101098.68, 0.00, 0.00, 0.00
57, 86174.64, 130364.34, 18303.04, 70319.16, 14191.01, 55119.55, 122765.25, 101101.54, 0.06, -0.28, 0.96
58, 86171.31, 130357.90, 18298.79, 70314.92, 14186.05, 55111.60, 122760.09, 101097.63, 0.00, 0.00, 0.00
59, 86180.55, 130357.27, 18299.62, 70321.18, 14199.35, 55119.63, 122763.45, 101099.84, 0.00, 0.00, 0.00
60, 86186.05, 130360.51, 18301.14, 70325.49, 14204.11, 55121.97, 122764.78, 101101.02, 0.00, 0.00, 0.00
61, 86179.52, 130357.56, 18293.07, 70309.94, 14191.82, 55116.92, 122759.42, 101099.64, 0.00, 0.00, 0.00
62, 86172.55, 130357.36, 18294.03, 70308.10, 14176.39, 55111.44, 122768.92, 101097.18, 0.00, 0.00, 0.00
63, 86171.02, 130357.63, 18299.17, 70314.85, 14178.38, 55114.84, 122773.92, 101096.98, 0.00, 0.00, 0.00
64, 86178.11, 130360.04, 18299.91, 70322.01, 14197.34, 55129.32, 122770.75, 101097.70, 0.00, 0.00, 0.00
65, 86179.61, 130368.00, 18304.02, 70335.87, 14199.48, 55126.66, 122772.95, 101102.88, 0.00, 0.00, 0.00
66, 86182.87, 130371.15, 18308.34, 70355.24, 14204.73, 55129.26, 122776.66, 101106.73, 0.00, 0.00, 0.00
67, 86181.48, 130372.52, 18310.28, 70342.50, 14189.07, 55132.05, 122777.48, 101106.73, 0.07, -0.29, 0.96
68, 86175.31, 130371.06, 18303.46, 70339.20, 14190.21, 55124.36, 122769.88, 101100.83, 0.00, 0.00, 0.00
69, 86176.01, 130367.35, 18299.78, 70323.08, 14196.24, 55125.68, 122770.71, 101097.96, 0.00, 0.00, 0.00
70, 86172.97, 130369.02, 18302.75, 70325.38, 14180.15, 55127.47, 122775.49, 101102.55, 0.00, 0.00, 0.00
71, 86178.00, 130369.90, 18301.23, 70328.40, 14181.87, 55121.90, 122771.52, 101105.30, 0.00, 0.00, 0.00
72, 86197.24, 130369.98, 18294.37, 70321.18, 14193.83, 55119.33, 122767.40, 101109.72, 0.00, 0.00, 0.00
73, 86186.00, 130373.77, 18303.64, 70327.30, 14198.83, 55129.04, 122777.37, 101116.65, 0.00, 0.00, 0.00
74, 86168.95, 130373.18, 18308.22, 70335.55, 14204.09, 55136.19, 122786.91, 101112.38, 0.00, 0.00, 0.00
75, 86179.61, 130370.39, 18304.83, 70328.82, 14199.55, 55131.87, 122783.11, 101119.31, 0.00, 0.00, 0.00
76, 86180.75, 130371.10, 18307.62, 70323.41, 14186.05, 55127.31, 122781.01, 101114.95, 0.00, 0.00, 0.00
77, 86177.41, 130370.93, 18309.27, 70324.98, 14188.84, 55133.68, 122789.69, 101117.84, 0.07, -0.29, 0.96
78, 86183.90, 130372.52, 18314.55, 70334.66, 14205.27, 55142.63, 122799.97, 101124.54, 0.00, 0.00, 0.00
79, 86190.56, 130370.99, 18313.37, 70332.11, 14202.03, 55143.74, 122803.92, 101131.00, 0.00, 0.00, 0.00
80, 86178.02, 130371.40, 18314.86, 70342.46, 14201.36, 55145.93, 122804.95, 101133.02, 0.00, 0.00, 0.00
81, 86174.73, 130370.79, 18312.00, 70346.26, 14204.73, 55143.34, 122799.88, 101140.73, 0.00, 0.00, 0.00
82, 86177.77, 130372.00, 18312.45, 70345.81, 14204.82, 55145.26, 122807.27, 101144.52, 0.00, 0.00, 0.00
83, 86171.90, 130371.89, 18313.88, 70351.63, 14201.94, 55147.68, 122815.43, 101139.02, 0.00, 0.00, 0.00
84, 86179.47, 130365.96, 18311.17, 70344.94, 14183.39, 55140.79, 122807.05, 101140.34, 0.00, 0.00, 0.00
85, 86185.51, 130366.52, 18315.22, 70340.58, 14197.58, 55141.77, 122804.68, 101140.08, 0.00, 0.00, 0.00
86, 86181.64, 130370.08, 18318.46, 70343.82, 14215.37, 55151.54, 122808.03, 101142.34, 0.00, 0.00, 0.00
87, 86185.10, 130373.63, 18311.51, 70337.63, 14205.05, 55148.37, 122808.15, 101142.45, 0.07, -0.29, 0.97
88, 86189.09, 130375.11, 18310.68, 70336.94, 14188.33, 55143.20, 122807.34, 101140.88, 0.00, 0.00, 0.00
89, 86189.28, 130370.14, 18307.22, 70328.89, 14202.43, 55147.52, 122805.66, 101142.89, 0.00, 0.00, 0.00
90, 86198.27, 130371.09, 18310.21, 70331.05, 14206.81, 55150.58, 122804.15, 101147.79, 0.00, 0.00, 0.00
91, 86189.42, 130375.15, 18318.51, 70348.34, 14202.77, 55151.27, 122816.38, 101145.82, 0.00, 0.00, 0.00
92, 86180.75, 130372.73, 18314.97, 70346.75, 14203.59, 55149.91, 122816.10, 101147.90, 0.00, 0.00, 0.00
93, 86180.10, 130372.67, 18312.07, 70339.17, 14203.24, 55147.56, 122808.99, 101143.00, 0.00, 0.00, 0.00
94, 86186.34, 130371.02, 18313.07, 70337.49, 14197.60, 55146.02, 122808.80, 101137.80, 0.00, 0.00, 0.00
95, 86188.05, 130373.50, 18323.24, 70346.10, 14194.54, 55144.23, 122807.38, 101137.13, 0.00, 0.00, 0.00
96, 86188.39, 130377.09, 18320.81, 70347.09, 14195.32, 55144.23, 122806.54, 101139.88, 0.00, 0.00, 0.00
97, 86184.81, 130373.98, 18314.19, 70342.37, 14181.58, 55138.49, 122805.15, 101141.88, 0.07, -0.29, 0.97
98, 86183.88, 130373.72, 18315.11, 70345.63, 14188.17, 55141.48, 122806.88, 101145.62, 0.00, 0.00, 0.00
99, 86186.49, 130375.35, 18317.12, 70346.93, 14196.78, 55147.61, 122817.20, 101148.16, 0.00, 0.00, 0.00
100, 86182.27, 130375.42, 18312.98, 70337.77, 14181.98, 55140.43, 122811.30, 101142.78, 0.00, 0.00, 0.00
101, 86182.16, 130381.21, 18318.51, 70346.57, 14196.17, 55145.21, 122806.47, 101140.63, 0.00, 0.00, 0.00
102, 86182.36, 130374.62, 18313.16, 70340.27, 14189.92, 55143.00, 122809.17, 101137.82, 0.00, 0.00, 0.00
103, 86182.53, 130373.27, 18313.46, 70334.79, 14196.02, 55142.00, 122815.08, 101132.90, 0.00, 0.00, 0.00
104, 86177.26, 130378.97, 18323.04, 70339.62, 14196.00, 55140.61, 122808.44, 101128.63, 0.00, 0.00, 0.00
105, 86172.45, 130379.22, 18321.57, 70337.49, 14195.10, 55143.94, 122812.55, 101134.48, 0.00, 0.00, 0.00
106, 86175.49, 130378.57, 18319.51, 70340.52, 14188.08, 55142.64, 122807.70, 101134.48, 0.00, 0.00, 0.00
107, 86177.51, 130377.12, 18318.15, 70337.02, 14180.26, 55138.49, 122801.24, 101127.36, 0.07, -0.29, 0.96
108, 86179.96, 130375.28, 18311.00, 70324.60, 14182.61, 55139.00, 122799.48, 101129.19, 0.00, 0.00, 0.00
109, 86178.91, 130374.50, 18314.01, 70336.60, 14185.22, 55138.82, 122797.64, 101130.40, 0.00, 0.00, 0.00
110, 86180.14, 130375.95, 18314.95, 70337.23, 14183.70, 55137.17, 122797.02, 101131.13, 0.00, 0.00, 0.00
111, 86183.65, 130376.18, 18313.61, 70339.13, 14183.05, 55140.43, 122800.13, 101135.07, 0.00, 0.00, 0.00
112, 86186.24, 130378.68, 18320.00, 70345.99, 14191.75, 55144.32, 122801.44, 101139.27, 0.00, 0.00, 0.00
113, 86181.35, 130380.54, 18317.28, 70336.69, 14177.06, 55138.31, 122796.30, 101132.48, 0.00, 0.00, 0.00
114, 86175.92, 130386.46, 18320.00, 70341.97, 14188.53, 55143.92, 122804.75, 101132.68, 0.00, 0.00, 0.00
115, 86175.02, 130387.22, 18319.85, 70337.20, 14190.25, 55140.59, 122801.24, 101131.91, 0.00, 0.00, 0.00
116, 86182.09, 130379.69, 18318.73, 70339.82, 14175.90, 55136.75, 122802.36, 101132.79, 0.00, 0.00, 0.00
117, 86185.48, 130374.68, 18320.16, 70336.73, 14178.92, 55140.93, 122798.55, 101134.24, 0.07, -0.28, 0.96
118, 86184.26, 130370.50, 18318.10, 70327.99, 14199.48, 55141.48, 122790.65, 101132.61, 0.00, 0.00, 0.00
119, 86186.05, 130375.51, 18315.24, 70335.02, 14196.60, 55142.18, 122792.95, 101134.95, 0.00, 0.00, 0.00
120, 86187.23, 130378.26, 18315.02, 70344.24, 14194.97, 55144.57, 122801.42, 101136.16, 0.00, 0.00, 0.00
121, 86185.04, 130380.41, 18322.13, 70341.67, 14204.26, 55154.13, 122804.03, 101139.34, 0.00, 0.00, 0.00
122, 86179.16, 130378.66, 18312.87, 70327.03, 14172.03, 55139.67, 122785.08, 101134.84, 0.00, 0.00, 0.00
123, 86181.80, 130382.64, 18324.72, 70365.93, 14203.97, 55146.31, 122787.59, 101144.16, 0.00, 0.00, 0.00
124, 86179.59, 130379.29, 18324.43, 70365.32, 14217.65, 55153.29, 122796.77, 101143.00, 0.00, 0.00, 0.00
125, 86175.27, 130374.84, 18322.42, 70354.39, 14209.85, 55149.62, 122796.77, 101139.41, 0.00, 0.00, 0.00
126, 86181.95, 130378.30, 18323.58, 70349.01, 14207.53, 55150.22, 122793.62, 101136.39, 0.00, 0.00, 0.00
127, 86181.51, 130381.25, 18324.92, 70353.01, 14200.31, 55151.77, 122798.98, 101131.94, 0.07, -0.29, 0.96
128, 86183.36, 130379.13, 18321.63, 70346.68, 14194.43, 55149.55, 122794.65, 101133.05, 0.00, 0.00, 0.00
129, 86177.66, 130377.68, 18319.38, 70345.45, 14199.82, 55157.04, 122799.95, 101134.40, 0.00, 0.00, 0.00
130, 86172.39, 130374.99, 18319.33, 70350.52, 14211.98, 55159.03, 122805.38, 101137.10, 0.00, 0.00, 0.00
131, 86177.51, 130372.31, 18322.06, 70351.78, 14212.45, 55157.98, 122792.95, 101139.90, 0.00, 0.00, 0.00
132, 86180.63, 130370.34, 18321.23, 70347.93, 14202.70, 55152.77, 122793.35, 101136.08, 0.00, 0.00, 0.00
133, 86182.53, 130372.40, 18324.14, 70349.95, 14205.76, 55157.87, 122808.48, 101136.30, 0.00, 0.00, 0.00
134, 86188.68, 130372.13, 18321.90, 70345.88, 14210.37, 55161.73, 122800.63, 101138.76, 0.00, 0.00, 0.00
135, 86188.19, 130368.53, 18320.81, 70346.52, 14203.15, 55156.01, 122799.02, 101140.43, 0.00, 0.00, 0.00
136, 86188.32, 130371.51, 18319.73, 70347.66, 14198.30, 55154.96, 122800.95, 101149.17, 0.00, 0.00, 0.00
137, 86186.18, 130378.37, 18319.33, 70350.84, 14200.80, 55155.52, 122799.09, 101152.66, 0.07, -0.29, 0.96
138, 86186.34, 130375.51, 18317.59, 70345.74, 14184.75, 55154.18, 122797.28, 101146.22, 0.00, 0.00, 0.00
139, 86195.81, 130372.76, 18316.25, 70337.67, 14213.14, 55165.20, 122804.55, 101147.74, 0.00, 0.00, 0.00
140, 86197.55, 130375.28, 18323.94, 70351.53, 14226.17, 55170.88, 122816.88, 101152.73, 0.00, 0.00, 0.00
141, 86193.29, 130377.34, 18327.49, 70362.80, 14204.98, 55166.32, 122808.37, 101141.84, 0.00, 0.00, 0.00
142, 86192.64, 130374.05, 18325.70, 70368.41, 14191.64, 55163.68, 122803.63, 101141.20, 0.00, 0.00, 0.00
143, 86183.72, 130374.08, 18326.57, 70362.46, 14234.15, 55177.67, 122813.47, 101149.09, 0.00, 0.00, 0.00
144, 86172.90, 130376.20, 18326.98, 70363.24, 14224.52, 55176.22, 122812.05, 101141.26, 0.00, 0.00, 0.00
145, 86171.36, 130369.63, 18320.07, 70364.72, 14194.01, 55161.45, 122804.23, 101132.05, 0.00, 0.00, 0.00
146, 86181.80, 130370.01, 18321.19, 70355.20, 14199.46, 55161.36, 122804.23, 101135.12, 0.00, 0.00, 0.00
147, 86184.95, 130374.57, 18330.78, 70371.07, 14236.52, 55176.60, 122810.18, 101138.09, 0.08, -0.29, 0.96
148, 86183.07, 130374.75, 18330.11, 70374.84, 14239.94, 55177.31, 122820.91, 101139.90, 0.00, 0.00, 0.00
149, 86183.80, 130373.20, 18328.21, 70366.48, 14228.65, 55178.32, 122815.74, 101142.38, 0.00, 0.00, 0.00
150, 86186.00, 130374.28, 18327.63, 70359.45, 14224.22, 55181.20, 122815.03, 101144.99, 0.00, 0.00, 0.00
151, 86189.51, 130371.98, 18323.38, 70357.23, 14219.46, 55174.81, 122812.17, 101139.36, 0.00, 0.00, 0.00
152, 86204.98, 130370.05, 18320.72, 70363.42, 14210.28, 55166.18, 122806.67, 101146.71, 0.00, 0.00, 0.00
153, 86193.20, 130375.73, 18328.05, 70368.84, 14218.91, 55180.09, 122817.22, 101145.91, 0.00, 0.00, 0.00
154, 86171.83, 130377.45, 18333.19, 70371.29, 14234.60, 55189.88, 122826.09, 101126.06, 0.00, 0.00, 0.00
155, 86186.65, 130372.55, 18323.94, 70366.20, 14219.02, 55180.02, 122821.34, 101128.25, 0.00, 0.00, 0.00
156, 86195.55, 130372.91, 18323.09, 70363.24, 14210.70, 55179.44, 122823.46, 101135.00, 0.00, 0.00, 0.00
157, 86179.59, 130377.09, 18329.64, 70357.81, 14202.59, 55175.05, 122821.67, 101127.47, 0.07, -0.29, 0.95
158, 86156.00, 130374.62, 18328.50, 70356.16, 14209.43, 55174.36, 122817.91, 101121.28, 0.00, 0.00, 0.00
159, 86146.28, 130370.55, 18328.23, 70363.06, 14214.37, 55177.31, 122816.39, 101109.09, 0.00, 0.00, 0.00
160, 86140.24, 130370.93, 18324.47, 70358.82, 14218.68, 55178.66, 122816.38, 101098.57, 0.00, 0.00, 0.00
161, 86145.25, 130373.27, 18322.64, 70359.34, 14222.39, 55180.78, 122818.38, 101105.16, 0.00, 0.00, 0.00
162, 86149.37, 130374.32, 18329.64, 70366.64, 14223.44, 55182.97, 122818.05, 101104.67, 0.00, 0.00, 0.00
163, 86149.27, 130371.64, 18327.78, 70363.94, 14218.32, 55181.16, 122821.58, 101104.27, 0.00, 0.00, 0.00
164, 86148.34, 130371.06, 18326.33, 70364.83, 14219.02, 55181.71, 122823.73, 101107.46, 0.00, 0.00, 0.00
165, 86153.92, 130374.32, 18327.02, 70362.22, 14216.49, 55181.07, 122822.92, 101112.31, 0.00, 0.00, 0.00
166, 86154.20, 130375.13, 18326.42, 70358.93, 14207.71, 55178.95, 122833.54, 101114.69, 0.00, 0.00, 0.00
167, 86152.36, 130378.86, 18329.62, 70363.58, 14210.37, 55179.32, 122833.54, 101117.79, 0.07, -0.30, 0.96
168, 86153.88, 130380.31, 18329.08, 70361.61, 14214.32, 55180.44, 122822.92, 101118.48, 0.00, 0.00, 0.00
169, 86156.67, 130376.73, 18328.61, 70362.87, 14209.25, 55178.25, 122827.03, 101118.66, 0.00, 0.00, 0.00
170, 86155.78, 130377.27, 18330.06, 70363.24, 14210.93, 55181.74, 122832.04, 101118.38, 0.00, 0.00, 0.00
171, 86155.78, 130380.85, 18331.65, 70364.07, 14212.24, 55184.58, 122834.43, 101115.17, 0.00, 0.00, 0.00
172, 86165.30, 130382.93, 18329.77, 70354.37, 14216.87, 55190.88, 122832.63, 101120.98, 0.00, 0.00, 0.00
173, 86167.11, 130380.98, 18334.85, 70366.87, 14213.83, 55188.80, 122828.87, 101121.88, 0.00, 0.00, 0.00
174, 86163.94, 130379.64, 18332.86, 70365.44, 14200.35, 55183.01, 122820.55, 101123.18, 0.00, 0.00, 0.00
175, 86162.38, 130390.10, 18331.43, 70355.98, 14199.21, 55180.15, 122824.71, 101125.19, 0.00, 0.00, 0.00
176, 86164.95, 130392.16, 18332.27, 70359.31, 14201.31, 55178.25, 122837.98, 101125.84, 0.00, 0.00, 0.00
177, 86169.52, 130391.45, 18333.77, 70376.43, 14203.71, 55183.59, 122830.07, 101130.60, 0.07, -0.30, 0.96
178, 86173.80, 130392.85, 18333.55, 70374.42, 14209.74, 55192.22, 122833.18, 101129.03, 0.00, 0.00, 0.00
179, 86175.96, 130400.38, 18334.38, 70367.55, 14205.65, 55187.93, 122836.98, 101122.82, 0.00, 0.00, 0.00
180, 86166.71, 130398.04, 18338.35, 70364.43, 14210.77, 55186.79, 122838.90, 101116.94, 0.00, 0.00, 0.00
181, 86161.84, 130395.67, 18339.52, 70363.87, 14212.02, 55194.37, 122841.63, 101124.14, 0.00, 0.00, 0.00
182, 86166.15, 130395.94, 18344.05, 70375.88, 14206.34, 55190.77, 122843.80, 101131.29, 0.00, 0.00, 0.00
183, 86168.34, 130395.49, 18341.42, 70370.22, 14197.87, 55186.50, 122849.07, 101129.15, 0.00, 0.00, 0.00
184, 86170.29, 130395.06, 18343.27, 70369.41, 14199.26, 55182.97, 122841.88, 101121.39, 0.00, 0.00, 0.00
185, 86171.47, 130397.32, 18345.51, 70370.69, 14204.96, 55182.07, 122841.59, 101123.11, 0.00, 0.00, 0.00
186, 86166.91, 130396.85, 18339.34, 70365.70, 14194.27, 55178.66, 122842.28, 101123.83, 0.00, 0.00, 0.00
187, 86170.82, 130399.00, 18342.38, 70366.27, 14203.59, 55184.76, 122841.92, 101122.64, 0.08, -0.29, 0.96
188, 86172.34, 130399.54, 18338.35, 70365.52, 14206.83, 55186.32, 122841.34, 101127.65, 0.00, 0.00, 0.00
189, 86169.68, 130401.62, 18342.20, 70371.36, 14204.85, 55187.80, 122846.97, 101133.82, 0.00, 0.00, 0.00
190, 86173.93, 130404.97, 18345.78, 70374.33, 14203.86, 55190.12, 122852.42, 101131.54, 0.00, 0.00, 0.00
191, 86176.14, 130401.62, 18344.63, 70372.34, 14206.95, 55189.00, 122852.73, 101125.86, 0.00, 0.00, 0.00
192, 86178.00, 130399.94, 18346.22, 70375.25, 14207.57, 55193.05, 122851.55, 101128.66, 0.00, 0.00, 0.00
193, 86170.22, 130397.84, 18346.51, 70378.24, 14207.44, 55194.55, 122844.47, 101122.48, 0.00, 0.00, 0.00
194, 86172.59, 130398.69, 18343.41, 70372.07, 14205.27, 55192.31, 122842.66, 101124.36, 0.00, 0.00, 0.00
195, 86177.13, 130399.05, 18341.48, 70371.20, 14205.36, 55194.30, 122840.89, 101122.55, 0.00, 0.00, 0.00
196, 86180.23, 130399.49, 18343.29, 70375.70, 14201.27, 55188.80, 122832.58, 101118.30, 0.00, 0.00, 0.00
197, 86181.08, 130400.30, 18339.54, 70374.64, 14200.00, 55191.20, 122836.31, 101123.05, 0.08, -0.29, 0.96
198, 86178.84, 130398.73, 18339.34, 70378.33, 14208.31, 55197.16, 122851.15, 101122.53, 0.00, 0.00, 0.00
199, 86182.36, 130397.13, 18344.37, 70390.58, 14209.70, 55198.26, 122846.66, 101128.32, 0.00, 0.00, 0.00
200, 86176.41, 130394.66, 18333.24, 70375.07, 14198.88, 55190.16, 122832.84, 101125.16, 0.00, 0.00, 0.00
201, 86174.31, 130394.57, 18328.94, 70369.01, 14195.75, 55187.89, 122836.82, 101126.80, 0.00, 0.00, 0.00
202, 86182.40, 130398.42, 18328.83, 70371.96, 14215.66, 55203.51, 122854.98, 101134.45, 0.00, 0.00, 0.00
203, 86185.59, 130409.08, 18351.52, 70392.34, 14212.13, 55202.23, 122851.98, 101137.57, 0.00, 0.00, 0.00
204, 86184.50, 130405.34, 18350.00, 70401.16, 14215.28, 55203.20, 122849.43, 101133.21, 0.00, 0.00, 0.00
205, 86174.96, 130395.55, 18336.10, 70382.27, 14209.00, 55197.83, 122844.83, 101123.94, 0.00, 0.00, 0.00
206, 86172.32, 130398.38, 18331.51, 70376.79, 14203.35, 55200.67, 122845.61, 101120.88, 0.00, 0.00, 0.00
207, 86177.91, 130405.39, 18340.48, 70395.79, 14198.92, 55205.19, 122852.09, 101126.75, 0.08, -0.29, 0.96
208, 86171.36, 130404.03, 18335.61, 70383.79, 14202.21, 55198.04, 122851.69, 101122.44, 0.00, 0.00, 0.00
209, 86170.95, 130404.01, 18339.94, 70392.70, 14216.83, 55208.58, 122853.14, 101121.16, 0.00, 0.00, 0.00
210, 86174.82, 130404.27, 18341.97, 70395.79, 14231.02, 55209.05, 122852.85, 101124.95, 0.00, 0.00, 0.00
211, 86178.42, 130406.31, 18338.29, 70387.83, 14226.35, 55213.41, 122857.50, 101133.70, 0.00, 0.00, 0.00
212, 86181.23, 130409.30, 18338.06, 70389.71, 14216.18, 55212.03, 122865.27, 101138.22, 0.00, 0.00, 0.00
213, 86175.45, 130407.74, 18335.56, 70390.76, 14214.68, 55216.43, 122871.34, 101136.30, 0.00, 0.00, 0.00
214, 86182.02, 130409.75, 18336.39, 70387.81, 14219.75, 55223.71, 122873.37, 101144.34, 0.00, 0.00, 0.00
215, 86187.79, 130408.09, 18331.58, 70383.95, 14208.24, 55214.35, 122869.73, 101142.94, 0.00, 0.00, 0.00
216, 86187.79, 130402.73, 18328.81, 70380.48, 14207.30, 55210.10, 122861.45, 101140.61, 0.00, 0.00, 0.00
217, 86180.68, 130400.48, 18332.77, 70386.40, 14208.42, 55207.51, 122856.18, 101134.33, 0.07, -0.29, 0.96
218, 86186.05, 130402.15, 18330.80, 70383.65, 14209.25, 55208.27, 122871.80, 101137.15, 0.00, 0.00, 0.00
219, 86187.36, 130408.03, 18334.15, 70384.32, 14204.78, 55210.42, 122869.75, 101141.77, 0.00, 0.00, 0.00
220, 86185.22, 130413.04, 18337.48, 70389.40, 14209.96, 55214.77, 122866.41, 101136.70, 0.00, 0.00, 0.00
221, 86179.83, 130413.39, 18334.62, 70381.38, 14213.79, 55216.27, 122865.12, 101135.49, 0.00, 0.00, 0.00
222, 86176.45, 130412.86, 18327.94, 70374.22, 14217.94, 55221.79, 122868.97, 101137.80, 0.00, 0.00, 0.00
223, 86181.38, 130416.05, 18337.35, 70398.34, 14216.49, 55221.12, 122872.05, 101141.10, 0.00, 0.00, 0.00
224, 86187.83, 130417.02, 18344.32, 70403.09, 14216.83, 55216.16, 122869.10, 101145.91, 0.00, 0.00, 0.00
225, 86199.08, 130418.09, 18342.42, 70394.56, 14225.01, 55224.18, 122869.62, 101148.26, 0.00, 0.00, 0.00
226, 86201.09, 130423.12, 18342.45, 70394.54, 14224.83, 55224.83, 122870.75, 101147.79, 0.00, 0.00, 0.00
227, 86192.37, 130421.62, 18341.15, 70396.68, 14223.78, 55224.30, 122871.52, 101146.76, 0.07, -0.29, 0.96
228, 86193.40, 130421.73, 18343.05, 70398.65, 14232.70, 55229.97, 122875.42, 101145.64, 0.00, 0.00, 0.00
229, 86196.33, 130422.38, 18341.04, 70388.73, 14232.76, 55232.14, 122877.34, 101150.07, 0.00, 0.00, 0.00
230, 86199.19, 130421.59, 18342.64, 70396.50, 14227.78, 55231.11, 122880.01, 101148.77, 0.00, 0.00, 0.00
231, 86198.54, 130419.85, 18344.54, 70404.06, 14227.40, 55234.31, 122881.08, 101146.53, 0.00, 0.00, 0.00
232, 86197.51, 130417.53, 18340.12, 70402.96, 14216.74, 55225.39, 122873.68, 101149.62, 0.00, 0.00, 0.00
233, 86208.04, 130420.39, 18341.08, 70398.41, 14230.26, 55232.99, 122881.30, 101156.68, 0.00, 0.00, 0.00
234, 86203.91, 130422.20, 18341.57, 70400.98, 14229.54, 55231.25, 122886.51, 101155.12, 0.00, 0.00, 0.00
235, 86195.66, 130423.68, 18342.47, 70398.45, 14230.04, 55232.30, 122878.69, 101156.33, 0.00, 0.00, 0.00
236, 86192.01, 130426.29, 18345.33, 70395.41, 14224.78, 55230.44, 122879.34, 101158.83, 0.00, 0.00, 0.00
237, 86197.13, 130429.98, 18349.20, 70411.93, 14237.68, 55238.67, 122882.47, 101157.27, 0.07, -0.29, 0.96
238, 86202.05, 130430.45, 18349.22, 70419.95, 14252.21, 55251.27, 122891.52, 101152.84, 0.00, 0.00, 0.00
239, 86201.89, 130424.52, 18349.60, 70411.34, 14240.41, 55251.16, 122886.13, 101150.54, 0.00, 0.00, 0.00
240, 86197.17, 130424.13, 18345.19, 70412.33, 14246.24, 55249.18, 122882.65, 101146.87, 0.00, 0.00, 0.00
241, 86198.02, 130427.23, 18343.74, 70410.02, 14240.61, 55247.21, 122892.99, 101149.38, 0.00, 0.00, 0.00
242, 86198.23, 130426.85, 18343.21, 70404.20, 14236.34, 55247.72, 122889.28, 101154.29, 0.00, 0.00, 0.00
243, 86197.22, 130427.66, 18341.86, 70405.83, 14227.09, 55242.98, 122887.23, 101153.73, 0.00, 0.00, 0.00
244, 86196.77, 130430.23, 18343.43, 70411.10, 14247.31, 55250.20, 122887.30, 101156.46, 0.00, 0.00, 0.00
245, 86203.32, 130431.90, 18343.18, 70413.71, 14251.94, 55255.93, 122890.36, 101163.34, 0.00, 0.00, 0.00
246, 86205.76, 130431.95, 18344.68, 70410.14, 14244.01, 55253.82, 122892.55, 101164.04, 0.00, 0.00, 0.00
247, 86211.21, 130431.84, 18344.43, 70415.05, 14235.42, 55252.13, 122895.66, 101167.05, 0.07, -0.28, 0.96
248, 86222.14, 130433.09, 18348.30, 70415.03, 14237.48, 55257.00, 122900.23, 101172.42, 0.00, 0.00, 0.00
249, 86225.85, 130432.10, 18348.50, 70410.02, 14236.21, 55255.16, 122901.94, 101173.63, 0.00, 0.00, 0.00
250, 86218.56, 130431.08, 18347.05, 70406.72, 14246.35, 55254.29, 122897.77, 101168.44, 0.00, 0.00, 0.00
251, 86214.30, 130431.43, 18345.71, 70410.67, 14243.67, 55251.01, 122896.13, 101163.63, 0.00, 0.00, 0.00
252, 86221.80, 130435.95, 18347.67, 70420.06, 14244.32, 55256.62, 122897.40, 101167.39, 0.00, 0.00, 0.00
253, 86225.41, 130434.16, 18347.00, 70416.42, 14239.36, 55258.50, 122899.56, 101172.82, 0.00, 0.00, 0.00
254, 86221.00, 130431.72, 18346.89, 70412.20, 14244.14, 55257.40, 122900.02, 101166.79, 0.00, 0.00, 0.00
255, 86227.20, 130432.75, 18347.61, 70411.52, 14249.19, 55262.54, 122903.37, 101165.13, 0.00, 0.00, 0.00
0, 86235.44, 130433.22, 18348.39, 70418.25, 14242.49, 55264.06, 122905.80, 101169.13, 0.00, 0.00, 0.00
1, 86236.85, 130435.03, 18347.54, 70414.85, 14253.46, 55269.52, 122911.32, 101176.22, 0.07, -0.29, 0.96
2, 86226.59, 130434.96, 18345.98, 70415.26, 14250.85, 55268.29, 122914.56, 101178.77, 0.00, 0.00, 0.00
3, 86223.55, 130432.55, 18345.51, 70410.59, 14240.59, 55262.88, 122911.59, 101179.08, 0.00, 0.00, 0.00
4, 86226.59, 130432.35, 18343.23, 70408.38, 14235.98, 55258.23, 122906.16, 101181.05, 0.00, 0.00, 0.00
5, 86235.28, 130440.17, 18347.25, 70419.57, 14246.13, 55264.44, 122904.93, 101181.47, 0.00, 0.00, 0.00
6, 86241.21, 130443.39, 18346.33, 70413.98, 14256.46, 55269.65, 122910.14, 101183.02, 0.00, 0.00, 0.00
7, 86245.68, 130445.29, 18346.76, 70424.20, 14252.68, 55268.80, 122912.82, 101182.88, 0.00, 0.00, 0.00
8, 86244.12, 130443.46, 18350.13, 70422.92, 14253.21, 55266.50, 122925.56, 101180.94, 0.00, 0.00, 0.00
9, 86236.02, 130433.94, 18337.62, 70397.78, 14232.70, 55258.00, 122917.18, 101173.88, 0.00, 0.00, 0.00
10, 86242.08, 130433.89, 18339.54, 70405.00, 14245.39, 55261.73, 122914.77, 101176.46, 0.00, 0.00, 0.00
11, 86251.80, 130443.97, 18354.04, 70435.10, 14253.75, 55268.55, 122919.57, 101181.54, 0.07, -0.29, 0.95
12, 86240.74, 130446.70, 18349.08, 70425.74, 14242.06, 55261.09, 122912.13, 101180.87, 0.00, 0.00, 0.00
13, 86230.30, 130444.75, 18345.48, 70419.13, 14241.70, 55256.33, 122904.55, 101182.56, 0.00, 0.00, 0.00
14, 86236.52, 130447.86, 18348.75, 70419.44, 14252.79, 55265.27, 122911.45, 101188.09, 0.00, 0.00, 0.00
15, 86248.20, 130453.54, 18354.22, 70435.66, 14271.10, 55273.80, 122926.01, 101190.68, 0.00, 0.00, 0.00
16, 86259.96, 130451.93, 18353.26, 70434.84, 14263.34, 55271.70, 122922.38, 101188.83, 0.00, 0.00, 0.00
17, 86254.75, 130449.96, 18345.30, 70423.33, 14251.87, 55267.55, 122917.34, 101182.34, 0.00, 0.00, 0.00
18, 86249.19, 130450.37, 18346.24, 70424.06, 14261.22, 55273.25, 122921.73, 101183.41, 0.00, 0.00, 0.00
19, 86247.82, 130453.07, 18350.69, 70424.29, 14264.30, 55275.82, 122923.68, 101185.98, 0.00, 0.00, 0.00
20, 86245.97, 130453.70, 18349.13, 70416.55, 14256.19, 55271.01, 122921.83, 101182.79, 0.00, 0.00, 0.00
21, 86237.48, 130451.21, 18347.76, 70418.61, 14251.79, 55266.81, 122916.58, 101180.42, 0.07, -0.29, 0.96
22, 86241.14, 130451.13, 18347.18, 70418.68, 14255.54, 55270.34, 122920.40, 101183.26, 0.00, 0.00, 0.00
23, 86244.83, 130451.77, 18344.70, 70418.66, 14257.53, 55272.09, 122922.16, 101181.85, 0.00, 0.00, 0.00
24, 86252.67, 130450.84, 18343.54, 70422.50, 14254.96, 55271.93, 122922.37, 101185.52, 0.00, 0.00, 0.00
25, 86254.09, 130451.80, 18349.87, 70423.73, 14258.42, 55274.81, 122924.27, 101188.22, 0.00, 0.00, 0.00
26, 86249.26, 130458.50, 18351.07, 70421.98, 14254.11, 55278.41, 122926.97, 101188.18, 0.00, 0.00, 0.00
27, 86251.96, 130461.74, 18351.45, 70429.88, 14272.59, 55283.82, 122929.70, 101184.60, 0.00, 0.00, 0.00
28, 86241.21, 130458.14, 18351.34, 70432.83, 14265.35, 55277.56, 122919.41, 101172.53, 0.00, 0.00, 0.00
29, 86241.97, 130454.43, 18344.61, 70419.10, 14255.07, 55272.26, 122911.23, 101177.91, 0.00, 0.00, 0.00
30, 86245.14, 130453.25, 18343.18, 70414.97, 14246.38, 55268.22, 122915.77, 101174.05, 0.00, 0.00, 0.00
31, 86239.80, 130456.35, 18347.99, 70425.52, 14248.90, 55268.64, 122925.20, 101169.52, 0.07, -0.29, 0.96
32, 86236.18, 130456.60, 18349.93, 70426.05, 14256.10, 55274.36, 122921.65, 101171.88, 0.00, 0.00, 0.00
33, 86240.20, 130456.33, 18346.78, 70423.02, 14253.64, 55272.02, 122915.88, 101174.95, 0.00, 0.00, 0.00
34, 86238.33, 130453.96, 18341.60, 70413.20, 14250.40, 55268.84, 122911.92, 101176.35, 0.00, 0.00, 0.00
35, 86243.95, 130456.16, 18343.88, 70426.19, 14248.61, 55271.21, 122914.48, 101177.94, 0.00, 0.00, 0.00
36, 86250.23, 130461.25, 18346.04, 70434.23, 14257.15, 55275.68, 122924.45, 101179.37, 0.00, 0.00, 0.00
37, 86247.06, 130459.53, 18348.72, 70435.17, 14259.54, 55275.88, 122923.33, 101178.50, 0.00, 0.00, 0.00
38, 86244.67, 130456.38, 18348.05, 70428.27, 14257.01, 55274.14, 122916.46, 101176.87, 0.00, 0.00, 0.00
39, 86241.07, 130454.52, 18346.06, 70426.45, 14255.99, 55272.15, 122913.38, 101177.31, 0.00, 0.00, 0.00
40, 86252.00, 130457.70, 18347.99, 70426.39, 14252.90, 55273.36, 122918.92, 101182.81, 0.00, 0.00, 0.00
41, 86254.10, 130460.55, 18349.40, 70423.13, 14258.92, 55275.04, 122921.85, 101182.30, 0.07, -0.28, 0.96
42, 86249.63, 130465.02, 18354.09, 70432.53, 14256.19, 55275.73, 122921.72, 101182.30, 0.00, 0.00, 0.00
43, 86246.35, 130461.12, 18351.83, 70431.33, 14251.52, 55274.88, 122923.50, 101184.69, 0.00, 0.00, 0.00
44, 86244.13, 130457.25, 18350.80, 70442.37, 14258.54, 55276.87, 122920.06, 101179.62, 0.00, 0.00, 0.00
45, 86247.20, 130459.20, 18350.42, 70438.23, 14258.36, 55276.58, 122915.73, 101179.52, 0.00, 0.00, 0.00
46, 86253.39, 130461.49, 18352.14, 70439.35, 14261.62, 55281.47, 122918.30, 101184.78, 0.00, 0.00, 0.00
47, 86255.13, 130460.84, 18353.29, 70441.61, 14258.94, 55281.81, 122932.38, 101192.58, 0.00, 0.00, 0.00
48, 86262.98, 130466.13, 18355.32, 70442.99, 14264.28, 55288.34, 122932.42, 101197.20, 0.00, 0.00, 0.00
49, 86254.98, 130463.40, 18349.57, 70433.95, 14254.62, 55281.09, 122919.64, 101183.98, 0.00, 0.00, 0.00
50, 86266.87, 130467.33, 18354.09, 70440.36, 14263.68, 55285.54, 122923.66, 101188.78, 0.00, 0.00, 0.00
51, 86268.52, 130467.93, 18355.59, 70444.80, 14264.19, 55289.90, 122925.38, 101196.27, 0.07, -0.28, 0.96
52, 86264.68, 130464.02, 18351.41, 70441.23, 14255.16, 55287.89, 122925.11, 101197.70, 0.00, 0.00, 0.00
53, 86266.31, 130457.94, 18351.14, 70441.77, 14259.88, 55289.81, 122936.52, 101201.07, 0.00, 0.00, 0.00
54, 86266.02, 130466.14, 18359.97, 70442.88, 14258.49, 55290.41, 122935.88, 101199.20, 0.00, 0.00, 0.00
55, 86263.49, 130467.80, 18358.02, 70453.08, 14253.80, 55283.82, 122923.73, 101188.83, 0.00, 0.00, 0.00
56, 86264.19, 130464.45, 18351.43, 70443.66, 14267.23, 55290.86, 122929.96, 101185.77, 0.00, 0.00, 0.00
57, 86262.04, 130468.88, 18355.88, 70452.02, 14270.31, 55298.80, 122934.95, 101192.02, 0.00, 0.00, 0.00
58, 86255.02, 130466.46, 18350.54, 70443.60, 14265.53, 55293.83, 122936.34, 101184.24, 0.00, 0.00, 0.00
59, 86260.41, 130467.20, 18352.53, 70447.47, 14268.84, 55296.18, 122935.44, 101185.96, 0.00, 0.00, 0.00
60, 86264.95, 130468.38, 18356.06, 70447.91, 14263.83, 55296.11, 122934.57, 101191.62, 0.00, 0.00, 0.00
61, 86259.98, 130466.99, 18351.70, 70441.14, 14257.91, 55289.14, 122933.12, 101189.48, 0.07, -0.28, 0.96
62, 86268.05, 130470.70, 18352.05, 70447.73, 14266.29, 55295.89, 122938.41, 101196.31, 0.00, 0.00, 0.00
63, 86279.12, 130472.23, 18350.56, 70445.27, 14266.58, 55299.13, 122941.77, 101204.59, 0.00, 0.00, 0.00
64, 86283.45, 130475.80, 18354.04, 70454.02, 14262.94, 55298.82, 122942.55, 101209.08, 0.00, 0.00, 0.00
65, 86272.73, 130474.73, 18353.33, 70453.27, 14259.83, 55296.18, 122940.31, 101211.84, 0.00, 0.00, 0.00
66, 86274.84, 130470.13, 18350.16, 70451.65, 14261.82, 55298.80, 122945.95, 101208.78, 0.00, 0.00, 0.00
67, 86282.20, 130467.40, 18351.14, 70456.27, 14266.25, 55305.79, 122950.23, 101208.80, 0.00, 0.00, 0.00
68, 86284.16, 130470.46, 18354.45, 70461.21, 14268.48, 55310.38, 122951.33, 101209.95, 0.00, 0.00, 0.00
69, 86276.75, 130469.97, 18353.04, 70460.09, 14267.52, 55307.63, 122944.83, 101208.78, 0.00, 0.00, 0.00
70, 86274.78, 130472.70, 18356.17, 70463.58, 14270.76, 55306.59, 122950.86, 101212.30, 0.00, 0.00, 0.00
71, 86277.87, 130473.56, 18353.22, 70463.18, 14267.88, 55304.25, 122958.41, 101213.37, 0.07, -0.29, 0.96
72, 86274.67, 130471.02, 18345.62, 70454.28, 14254.13, 55295.96, 122937.43, 101213.70, 0.00, 0.00, 0.00
73, 86272.08, 130473.41, 18345.08, 70447.60, 14261.15, 55302.59, 122947.29, 101207.04, 0.00, 0.00, 0.00
74, 86277.20, 130475.53, 18355.05, 70461.30, 14265.06, 55304.00, 122948.23, 101208.92, 0.00, 0.00, 0.00
75, 86275.45, 130470.59, 18352.30, 70459.65, 14255.29, 55299.62, 122936.53, 101204.45, 0.00, 0.00, 0.00
76, 86282.40, 130476.65, 18354.83, 70466.06, 14262.02, 55305.32, 122936.65, 101201.59, 0.00, 0.00, 0.00
77, 86268.14, 130473.81, 18350.36, 70464.77, 14256.50, 55300.85, 122935.28, 101192.02, 0.00, 0.00, 0.00
78, 86271.34, 130475.78, 18359.57, 70467.25, 14290.63, 55318.58, 122949.03, 101202.05, 0.00, 0.00, 0.00
79, 86274.52, 130474.30, 18355.14, 70465.91, 14268.66, 55307.07, 122940.47, 101201.34, 0.00, 0.00, 0.00
80, 86266.27, 130473.84, 18350.18, 70459.16, 14269.91, 55304.67, 122939.58, 101188.29, 0.07, -0.29, 0.96
81, 86264.48, 130472.36, 18345.53, 70456.14, 14268.88, 55303.31, 122938.95, 101187.46, 0.00, 0.00, 0.00
82, 86275.56, 130471.40, 18345.51, 70459.71, 14263.16, 55304.16, 122938.75, 101199.87, 0.00, 0.00, 0.00
83, 86280.48, 130474.86, 18357.71, 70467.41, 14267.77, 55307.40, 122939.02, 101204.47, 0.00, 0.00, 0.00
84, 86285.20, 130472.29, 18353.13, 70456.34, 14258.94, 55301.88, 122936.45, 101200.88, 0.00, 0.00, 0.00
85, 86292.66, 130469.23, 18346.51, 70454.10, 14256.77, 55300.14, 122933.98, 101197.30, 0.00, 0.00, 0.00
86, 86291.88, 130470.39, 18348.57, 70461.05, 14260.70, 55305.99, 122933.98, 101203.91, 0.00, 0.00, 0.00
87, 86287.52, 130470.03, 18348.46, 70460.83, 14260.66, 55310.15, 122934.99, 101204.98, 0.00, 0.00, 0.00
88, 86282.29, 130471.28, 18353.89, 70457.03, 14257.51, 55308.61, 122931.33, 101201.34, 0.00, 0.00, 0.00
89, 86282.02, 130470.23, 18356.08, 70456.25, 14260.52, 55311.51, 122934.86, 101202.98, 0.00, 0.00, 0.00
90, 86285.98, 130471.69, 18352.03, 70454.38, 14265.51, 55314.13, 122952.27, 101206.26, 0.07, -0.28, 0.96
91, 86282.60, 130472.89, 18350.94, 70457.91, 14259.25, 55309.25, 122939.24, 101201.90, 0.00, 0.00, 0.00
92, 86287.81, 130473.74, 18360.95, 70475.92, 14265.40, 55308.63, 122929.94, 101201.03, 0.00, 0.00, 0.00
93, 86283.12, 130477.41, 18360.15, 70476.55, 14265.29, 55306.39, 122927.52, 101195.38, 0.00, 0.00, 0.00
94, 86289.33, 130478.93, 18358.96, 70477.08, 14271.68, 55311.42, 122928.11, 101196.24, 0.00, 0.00, 0.00
95, 86300.26, 130484.65, 18362.43, 70479.98, 14277.49, 55323.63, 122944.29, 101207.04, 0.00, 0.00, 0.00
96, 86286.88, 130485.37, 18358.38, 70475.67, 14278.14, 55322.18, 122940.24, 101204.70, 0.00, 0.00, 0.00
97, 86267.76, 130479.73, 18355.50, 70466.53, 14271.23, 55313.77, 122924.69, 101190.66, 0.00, 0.00, 0.00
98, 86264.09, 130474.82, 18357.33, 70477.35, 14265.40, 55313.68, 122929.20, 101192.29, 0.00, 0.00, 0.00
99, 86268.43, 130475.29, 18356.50, 70482.73, 14275.86, 55320.66, 122940.20, 101196.18, 0.00, 0.00, 0.00
100, 86275.25, 130477.52, 18358.09, 70481.89, 14280.42, 55321.23, 122943.73, 101194.34, 0.07, -0.28, 0.96
101, 86286.78, 130477.19, 18354.18, 70485.24, 14282.38, 55322.80, 122945.74, 101195.30, 0.00, 0.00, 0.00
102, 86276.19, 130479.82, 18353.60, 70486.27, 14278.03, 55318.40, 122938.01, 101193.54, 0.00, 0.00, 0.00
103, 86269.21, 130479.02, 18348.46, 70478.98, 14275.03, 55313.84, 122937.02, 101196.38, 0.00, 0.00, 0.00
104, 86275.77, 130476.83, 18345.26, 70472.99, 14266.47, 55307.42, 122940.58, 101199.77, 0.00, 0.00, 0.00
105, 86279.34, 130474.34, 18343.27, 70460.74, 14265.15, 55303.98, 122932.76, 101199.71, 0.00, 0.00, 0.00
106, 86291.39, 130479.06, 18350.74, 70470.78, 14272.79, 55308.23, 122938.88, 101202.23, 0.00, 0.00, 0.00
107, 86285.17, 130477.43, 18349.44, 70474.40, 14271.88, 55306.91, 122925.31, 101194.57, 0.00, 0.00, 0.00
108, 86280.52, 130477.99, 18354.98, 70484.10, 14273.22, 55307.16, 122927.64, 101193.59, 0.00, 0.00, 0.00
109, 86277.41, 130479.00, 18357.33, 70493.47, 14277.27, 55312.92, 122940.23, 101196.34, 0.00, 0.00, 0.00
110, 86278.98, 130481.34, 18357.17, 70487.90, 14275.81, 55311.82, 122928.06, 101195.95, 0.07, -0.29, 0.96
111, 86273.23, 130481.26, 18355.39, 70485.35, 14278.43, 55310.75, 122927.98, 101194.77, 0.00, 0.00, 0.00
112, 86279.14, 130481.21, 18359.19, 70488.30, 14280.04, 55313.50, 122932.31, 101198.77, 0.00, 0.00, 0.00
113, 86293.02, 130483.45, 18359.95, 70490.11, 14291.91, 55321.48, 122936.24, 101207.65, 0.00, 0.00, 0.00
114, 86290.92, 130480.09, 18356.21, 70483.81, 14285.98, 55314.89, 122931.10, 101201.90, 0.00, 0.00, 0.00
115, 86287.77, 130479.06, 18353.98, 70483.12, 14283.48, 55316.09, 122934.66, 101201.23, 0.00, 0.00, 0.00
116, 86289.45, 130482.53, 18354.67, 70486.11, 14290.65, 55324.61, 122942.50, 101205.37, 0.00, 0.00, 0.00
117, 86291.25, 130484.65, 18359.30, 70493.73, 14293.20, 55324.90, 122946.73, 101202.70, 0.00, 0.00, 0.00
118, 86300.91, 130486.48, 18366.61, 70495.73, 14304.62, 55335.16, 122949.70, 101208.49, 0.00, 0.00, 0.00
119, 86309.54, 130488.56, 18372.48, 70507.66, 14308.80, 55339.16, 122946.10, 101210.51, 0.00, 0.00, 0.00
120, 86305.42, 130488.67, 18369.36, 70506.56, 14301.50, 55334.82, 122941.01, 101207.47, 0.07, -0.29, 0.95
121, 86298.90, 130487.00, 18366.00, 70502.74, 14298.25, 55333.33, 122939.58, 101206.04, 0.00, 0.00, 0.00
122, 86300.77, 130489.23, 18369.85, 70509.36, 14292.38, 55332.05, 122942.97, 101201.74, 0.00, 0.00, 0.00
123, 86300.02, 130491.18, 18371.37, 70514.27, 14306.66, 55340.30, 122947.87, 101204.36, 0.00, 0.00, 0.00
124, 86290.78, 130487.42, 18369.76, 70508.76, 14309.65, 55344.13, 122952.38, 101208.41, 0.00, 0.00, 0.00
125, 86285.02, 130492.50, 18373.71, 70512.46, 14298.68, 55340.32, 122948.47, 101203.98, 0.00, 0.00, 0.00
126, 86284.28, 130493.03, 18367.75, 70504.02, 14315.08, 55342.83, 122949.99, 101204.67, 0.00, 0.00, 0.00
127, 86288.99, 130491.63, 18369.13, 70505.13, 14318.21, 55343.21, 122951.27, 101208.16, 0.00, 0.00, 0.00
128, 86292.55, 130493.66, 18372.55, 70512.04, 14318.88, 55348.35, 122952.90, 101212.98, 0.00, 0.00, 0.00
129, 86296.26, 130496.59, 18375.50, 70514.68, 14319.15, 55347.86, 122951.22, 101212.77, 0.00, 0.00, 0.00
130, 86286.60, 130489.57, 18367.01, 70506.36, 14302.05, 55335.00, 122947.80, 101201.32, 0.07, -0.29, 0.96
131, 86291.30, 130488.98, 18363.14, 70502.49, 14299.91, 55332.21, 122939.42, 101201.79, 0.00, 0.00, 0.00
132, 86294.63, 130492.07, 18362.00, 70500.57, 14310.23, 55335.63, 122938.21, 101209.81, 0.00, 0.00, 0.00
133, 86293.00, 130491.58, 18363.81, 70503.19, 14307.11, 55341.13, 122938.81, 101215.47, 0.00, 0.00, 0.00
134, 86304.62, 130490.80, 18369.87, 70508.38, 14307.93, 55342.49, 122947.63, 101220.30, 0.00, 0.00, 0.00
135, 86313.52, 130491.73, 18371.48, 70505.63, 14315.60, 55346.18, 122960.52, 101222.91, 0.00, 0.00, 0.00
136, 86303.30, 130496.27, 18370.54, 70510.72, 14315.22, 55345.91, 122955.27, 101223.80, 0.00, 0.00, 0.00
137, 86300.06, 130498.98, 18368.82, 70518.77, 14318.57, 55346.36, 122954.64, 101220.95, 0.00, 0.00, 0.00
138, 86303.34, 130499.91, 18369.02, 70509.60, 14315.87, 55343.77, 122952.72, 101223.13, 0.00, 0.00, 0.00
139, 86318.41, 130498.04, 18371.70, 70502.81, 14310.79, 55339.61, 122952.96, 101234.09, 0.00, 0.00, 0.00
140, 86311.28, 130492.12, 18362.36, 70493.58, 14305.74, 55334.71, 122949.97, 101227.54, 0.07, -0.29, 0.97
141, 86300.84, 130497.21, 18368.64, 70498.83, 14309.03, 55339.41, 122952.80, 101217.66, 0.00, 0.00, 0.00
142, 86302.48, 130494.98, 18363.66, 70493.11, 14301.38, 55332.21, 122948.70, 101218.40, 0.00, 0.00, 0.00
143, 86300.10, 130493.15, 18363.86, 70499.39, 14298.95, 55329.24, 122946.13, 101225.93, 0.00, 0.00, 0.00
144, 86298.38, 130497.88, 18368.46, 70508.27, 14307.87, 55338.27, 122950.33, 101225.99, 0.00, 0.00, 0.00
145, 86304.84, 130498.76, 18368.60, 70505.70, 14310.37, 55338.36, 122949.63, 101226.80, 0.00, 0.00, 0.00
146, 86304.53, 130501.05, 18373.27, 70509.98, 14316.56, 55344.46, 122956.90, 101228.25, 0.00, 0.00, 0.00
147, 86306.43, 130501.62, 18370.74, 70506.25, 14315.80, 55343.12, 122958.04, 101229.68, 0.00, 0.00, 0.00
148, 86314.92, 130500.45, 18362.63, 70488.77, 14318.13, 55344.06, 122955.34, 101236.26, 0.00, 0.00, 0.00
149, 86325.09, 130507.16, 18376.82, 70528.91, 14333.55, 55357.31, 122960.54, 101244.10, 0.00, 0.00, 0.00
150, 86315.39, 130506.87, 18390.37, 70537.66, 14323.96, 55349.60, 122961.70, 101236.21, 0.08, -0.29, 0.96
151, 86298.70, 130498.73, 18379.53, 70520.20, 14290.99, 55332.43, 122951.82, 101225.98, 0.00, 0.00, 0.00
152, 86291.09, 130491.80, 18373.20, 70515.08, 14306.43, 55333.53, 122942.34, 101222.02, 0.00, 0.00, 0.00
153, 86309.54, 130504.14, 18389.07, 70534.73, 14350.54, 55357.27, 122958.48, 101237.77, 0.00, 0.00, 0.00
154, 86313.78, 130510.24, 18389.70, 70536.05, 14355.09, 55361.92, 122970.82, 101245.02, 0.00, 0.00, 0.00
155, 86301.11, 130503.63, 18378.21, 70521.54, 14337.50, 55350.07, 122953.32, 101227.56, 0.00, 0.00, 0.00
156, 86304.46, 130502.24, 18377.45, 70517.43, 14332.14, 55347.19, 122945.56, 101222.87, 0.00, 0.00, 0.00
157, 86312.66, 130505.53, 18381.67, 70519.33, 14335.09, 55353.94, 122950.75, 101229.02, 0.00, 0.00, 0.00
158, 86315.86, 130507.77, 18385.74, 70525.18, 14337.48, 55356.02, 122953.27, 101236.10, 0.00, 0.00, 0.00
159, 86315.39, 130508.86, 18386.39, 70525.65, 14341.24, 55357.09, 122955.66, 101238.22, 0.00, 0.00, 0.00
160, 86309.11, 130507.18, 18382.90, 70521.45, 14334.22, 55349.00, 122951.17, 101234.02, 0.07, -0.28, 0.97
161, 86305.73, 130505.66, 18382.30, 70520.76, 14329.21, 55344.46, 122947.35, 101231.67, 0.00, 0.00, 0.00
162, 86307.10, 130504.73, 18386.28, 70522.37, 14334.67, 55348.41, 122949.21, 101234.27, 0.00, 0.00, 0.00
163, 86316.40, 130501.75, 18385.67, 70521.02, 14334.87, 55349.04, 122950.08, 101234.60, 0.00, 0.00, 0.00
164, 86320.69, 130500.56, 18386.72, 70524.42, 14332.50, 55348.86, 122952.83, 101239.16, 0.00, 0.00, 0.00
165, 86325.81, 130500.52, 18390.05, 70526.95, 14339.00, 55355.79, 122960.16, 101248.13, 0.00, 0.00, 0.00
166, 86334.17, 130493.08, 18383.62, 70517.47, 14336.50, 55354.45, 122959.80, 101251.21, 0.00, 0.00, 0.00
167, 86331.95, 130482.22, 18378.74, 70515.44, 14332.00, 55348.10, 122949.66, 101240.30, 0.00, 0.00, 0.00
168, 86320.06, 130479.71, 18383.28, 70519.66, 14326.26, 55346.36, 122944.60, 101233.62, 0.00, 0.00, 0.00
169, 86321.38, 130479.38, 18389.23, 70513.38, 14325.19, 55346.52, 122940.87, 101233.02, 0.00, 0.00, 0.00
170, 86328.40, 130475.38, 18380.38, 70501.71, 14330.84, 55352.11, 122951.31, 101235.54, 0.07, -0.28, 0.96
171, 86331.69, 130479.11, 18394.39, 70542.70, 14345.93, 55363.66, 122964.72, 101247.66, 0.00, 0.00, 0.00
172, 86319.15, 130478.26, 18387.73, 70523.80, 14338.49, 55356.48, 122951.71, 101242.80, 0.00, 0.00, 0.00
173, 86312.17, 130477.84, 18383.93, 70514.59, 14327.18, 55348.50, 122944.73, 101242.73, 0.00, 0.00, 0.00
174, 86323.28, 130487.85, 18393.76, 70529.38, 14341.42, 55359.19, 122954.69, 101250.52, 0.00, 0.00, 0.00
175, 86326.50, 130494.51, 18401.05, 70539.63, 14343.78, 55360.82, 122954.62, 101244.86, 0.00, 0.00, 0.00
176, 86323.30, 130494.62, 18401.54, 70536.60, 14339.85, 55355.23, 122950.70, 101247.61, 0.00, 0.00, 0.00
177, 86330.32, 130496.61, 18400.34, 70528.63, 14342.29, 55355.97, 122949.48, 101248.93, 0.00, 0.00, 0.00
178, 86334.80, 130496.84, 18403.22, 70530.73, 14347.88, 55360.15, 122951.82, 101244.48, 0.00, 0.00, 0.00
179, 86327.98, 130496.99, 18407.20, 70537.16, 14349.13, 55361.52, 122953.66, 101245.27, 0.00, 0.00, 0.00
180, 86320.55, 130495.02, 18407.31, 70535.35, 14351.03, 55362.99, 122954.02, 101244.57, 0.07, -0.28, 0.96
181, 86325.09, 130497.21, 18405.12, 70529.20, 14351.45, 55363.28, 122957.21, 101250.13, 0.00, 0.00, 0.00
182, 86335.71, 130499.07, 18401.25, 70524.78, 14347.38, 55362.43, 122956.45, 101254.67, 0.00, 0.00, 0.00
183, 86332.73, 130503.02, 18405.77, 70527.26, 14346.82, 55361.29, 122955.09, 101249.51, 0.00, 0.00, 0.00
184, 86323.51, 130505.86, 18405.30, 70528.40, 14348.79, 55362.48, 122955.91, 101247.81, 0.00, 0.00, 0.00
185, 86323.80, 130505.73, 18404.29, 70529.20, 14348.14, 55357.63, 122949.07, 101246.70, 0.00, 0.00, 0.00
186, 86327.11, 130506.35, 18406.91, 70525.00, 14345.62, 55355.01, 122946.08, 101247.88, 0.00, 0.00, 0.00
187, 86339.40, 130506.53, 18411.78, 70524.87, 14351.14, 55359.48, 122948.09, 101249.66, 0.00, 0.00, 0.00
188, 86344.38, 130511.25, 18414.21, 70530.81, 14353.19, 55364.42, 122948.20, 101256.88, 0.00, 0.00, 0.00
189, 86333.27, 130512.19, 18415.02, 70537.05, 14348.21, 55357.74, 122962.33, 101251.03, 0.00, 0.00, 0.00
190, 86327.38, 130509.24, 18410.60, 70527.51, 14347.58, 55354.18, 122951.13, 101246.05, 0.08, -0.29, 0.96
191, 86329.36, 130513.42, 18408.79, 70518.74, 14344.34, 55358.47, 122946.23, 101245.80, 0.00, 0.00, 0.00
192, 86314.72, 130514.20, 18403.93, 70513.27, 14333.46, 55354.96, 122944.07, 101233.80, 0.00, 0.00, 0.00
193, 86327.48, 130516.37, 18418.31, 70538.91, 14347.83, 55364.89, 122953.95, 101242.85, 0.00, 0.00, 0.00
194, 86329.54, 130514.34, 18413.28, 70537.21, 14359.74, 55369.67, 122958.57, 101246.76, 0.00, 0.00, 0.00
195, 86330.62, 130516.81, 18413.59, 70536.36, 14361.11, 55372.02, 122955.53, 101246.16, 0.00, 0.00, 0.00
196, 86338.55, 130520.68, 18419.49, 70546.75, 14357.04, 55373.79, 122957.81, 101255.68, 0.00, 0.00, 0.00
197, 86342.33, 130523.32, 18423.20, 70551.91, 14363.97, 55375.02, 122962.95, 101263.30, 0.00, 0.00, 0.00
198, 86331.35, 130517.98, 18412.96, 70527.26, 14361.31, 55369.14, 122956.52, 101252.73, 0.00, 0.00, 0.00
199, 86320.96, 130520.34, 18420.88, 70545.91, 14371.30, 55371.57, 122956.00, 101244.26, 0.00, 0.00, 0.00
200, 86321.52, 130521.71, 18421.10, 70549.10, 14370.76, 55372.73, 122954.51, 101242.24, 0.07, -0.29, 0.96
201, 86328.88, 130521.95, 18422.15, 70549.14, 14368.13, 55376.13, 122955.91, 101248.84, 0.00, 0.00, 0.00
202, 86332.90, 130522.70, 18417.59, 70541.92, 14368.39, 55376.31, 122958.38, 101251.52, 0.00, 0.00, 0.00
203, 86333.79, 130526.54, 18421.93, 70543.02, 14373.58, 55379.33, 122957.95, 101253.76, 0.00, 0.00, 0.00
204, 86331.38, 130522.09, 18420.81, 70542.20, 14369.13, 55374.86, 122957.01, 101252.39, 0.00, 0.00, 0.00
205, 86334.66, 130518.73, 18419.11, 70539.35, 14366.83, 55371.73, 122955.71, 101252.41, 0.00, 0.00, 0.00
206, 86346.59, 130521.35, 18422.96, 70542.08, 14369.02, 55373.94, 122953.34, 101265.38, 0.00, 0.00, 0.00
207, 86360.63, 130523.90, 18423.83, 70542.70, 14368.33, 55372.00, 122952.09, 101268.73, 0.00, 0.00, 0.00
208, 86350.06, 130525.53, 18418.08, 70537.81, 14368.06, 55372.96, 122962.87, 101262.49, 0.00, 0.00, 0.00
209, 86331.84, 130522.63, 18415.47, 70536.07, 14364.82, 55371.86, 122956.02, 101261.42, 0.00, 0.00, 0.00
210, 86334.37, 130523.25, 18420.92, 70540.90, 14364.77, 55370.77, 122950.13, 101259.68, 0.07, -0.29, 0.96
211, 86345.57, 130531.41, 18430.20, 70549.39, 14369.18, 55374.52, 122954.98, 101268.66, 0.00, 0.00, 0.00
212, 86350.55, 130529.89, 18427.63, 70548.20, 14369.47, 55376.11, 122955.40, 101269.38, 0.00, 0.00, 0.00
213, 86344.49, 130526.05, 18423.34, 70550.30, 14367.99, 55373.88, 122955.29, 101264.15, 0.00, 0.00, 0.00
214, 86346.89, 130529.51, 18423.69, 70552.19, 14364.30, 55370.28, 122950.98, 101269.25, 0.00, 0.00, 0.00
215, 86344.70, 130531.23, 18421.66, 70547.49, 14366.90, 55372.67, 122950.64, 101264.82, 0.00, 0.00, 0.00
216, 86343.87, 130524.70, 18418.60, 70542.98, 14369.35, 55377.59, 122954.17, 101260.91, 0.00, 0.00, 0.00
217, 86339.51, 130529.53, 18429.82, 70563.41, 14377.49, 55384.74, 122964.50, 101267.05, 0.00, 0.00, 0.00
218, 86338.73, 130530.18, 18426.33, 70561.17, 14373.80, 55381.16, 122958.30, 101262.81, 0.00, 0.00, 0.00
219, 86345.77, 130527.86, 18424.36, 70555.65, 14371.84, 55378.30, 122951.55, 101261.65, 0.00, 0.00, 0.00
220, 86348.63, 130527.57, 18430.85, 70555.65, 14375.21, 55381.23, 122953.79, 101264.75, 0.07, -0.29, 0.96
221, 86344.67, 130529.40, 18432.95, 70553.37, 14372.24, 55379.55, 122953.23, 101259.91, 0.00, 0.00, 0.00
222, 86342.69, 130527.97, 18431.40, 70549.77, 14369.73, 55376.27, 122947.06, 101254.00, 0.00, 0.00, 0.00
223, 86344.63, 130531.14, 18441.35, 70553.03, 14369.44, 55380.87, 122946.02, 101257.51, 0.00, 0.00, 0.00
224, 86349.46, 130529.49, 18439.92, 70549.66, 14366.09, 55378.48, 122951.87, 101256.95, 0.00, 0.00, 0.00
225, 86351.47, 130527.57, 18437.21, 70544.54, 14370.00, 55381.61, 122954.39, 101259.97, 0.00, 0.00, 0.00
226, 86351.55, 130531.01, 18440.77, 70558.95, 14383.15, 55388.00, 122958.59, 101266.20, 0.00, 0.00, 0.00
227, 86349.16, 130531.63, 18438.11, 70550.64, 14379.57, 55383.35, 122963.00, 101266.43, 0.00, 0.00, 0.00
228, 86351.85, 130538.72, 18446.85, 70561.08, 14377.11, 55386.82, 122954.64, 101274.12, 0.00, 0.00, 0.00
229, 86345.86, 130534.32, 18450.78, 70569.51, 14377.60, 55387.80, 122953.30, 101272.91, 0.00, 0.00, 0.00
230, 86345.39, 130530.02, 18448.17, 70563.43, 14375.39, 55386.50, 122955.00, 101265.40, 0.07, -0.28, 0.96
231, 86343.27, 130529.84, 18450.40, 70559.98, 14375.05, 55385.39, 122950.66, 101255.74, 0.00, 0.00, 0.00
232, 86340.52, 130530.80, 18451.88, 70560.21, 14382.74, 55389.18, 122951.24, 101255.32, 0.00, 0.00, 0.00
233, 86354.95, 130536.13, 18456.79, 70566.38, 14388.98, 55399.36, 122967.42, 101264.59, 0.00, 0.00, 0.00
234, 86354.98, 130536.02, 18456.75, 70566.20, 14384.31, 55395.42, 122960.77, 101261.36, 0.00, 0.00, 0.00
235, 86348.01, 130539.46, 18456.57, 70568.57, 14386.28, 55395.11, 122952.63, 101259.84, 0.00, 0.00, 0.00
236, 86339.24, 130536.98, 18456.10, 70567.72, 14375.95, 55390.32, 122948.72, 101256.57, 0.00, 0.00, 0.00
237, 86342.51, 130540.13, 18458.90, 70565.04, 14377.51, 55394.64, 122953.39, 101265.34, 0.00, 0.00, 0.00
238, 86348.48, 130541.88, 18459.57, 70567.78, 14384.75, 55398.98, 122954.88, 101267.48, 0.00, 0.00, 0.00
239, 86351.52, 130538.84, 18462.12, 70576.10, 14383.08, 55398.11, 122952.77, 101262.38, 0.00, 0.00, 0.00
240, 86346.41, 130538.05, 18455.97, 70566.04, 14384.60, 55395.45, 122948.29, 101259.32, 0.07, -0.29, 0.96
241, 86338.46, 130541.24, 18448.73, 70558.13, 14380.17, 55390.82, 122937.70, 101257.06, 0.00, 0.00, 0.00
242, 86334.82, 130543.98, 18461.13, 70570.00, 14379.55, 55391.73, 122939.59, 101251.34, 0.00, 0.00, 0.00
243, 86339.60, 130541.27, 18469.38, 70579.74, 14385.78, 55400.45, 122949.21, 101256.53, 0.00, 0.00, 0.00
244, 86350.66, 130543.17, 18474.23, 70592.57, 14408.81, 55416.23, 122966.84, 101272.95, 0.00, 0.00, 0.00
245, 86340.38, 130546.39, 18468.11, 70583.14, 14398.61, 55410.64, 122962.84, 101268.80, 0.00, 0.00, 0.00
246, 86336.23, 130548.24, 18466.27, 70568.95, 14390.70, 55401.64, 122949.99, 101254.47, 0.00, 0.00, 0.00
247, 86343.24, 130550.77, 18466.47, 70564.59, 14389.72, 55401.70, 122947.71, 101257.13, 0.00, 0.00, 0.00
248, 86340.20, 130552.38, 18468.42, 70570.22, 14382.77, 55401.01, 122944.58, 101263.32, 0.00, 0.00, 0.00
249, 86331.11, 130547.68, 18469.85, 70570.42, 14388.11, 55404.72, 122950.21, 101264.66, 0.00, 0.00, 0.00
250, 86334.30, 130549.41, 18474.07, 70580.68, 14399.40, 55411.74, 122955.84, 101266.25, 0.07, -0.28, 0.96
251, 86338.05, 130552.40, 18473.58, 70579.09, 14402.35, 55410.09, 122949.32, 101266.66, 0.00, 0.00, 0.00
252, 86338.05, 130550.86, 18473.89, 70580.59, 14399.98, 55405.86, 122943.82, 101264.77, 0.00, 0.00, 0.00
253, 86340.85, 130552.87, 18477.94, 70581.73, 14401.32, 55405.97, 122944.83, 101263.14, 0.00, 0.00, 0.00
254, 86352.95, 130553.74, 18480.38, 70585.71, 14399.35, 55405.19, 122946.23, 101262.63, 0.00, 0.00, 0.00
255, 86345.88, 130548.84, 18474.70, 70580.03, 14392.42, 55399.00, 122941.16, 101256.46, 0.00, 0.00, 0.00
0, 86338.23, 130552.35, 18482.79, 70581.35, 14392.49, 55402.29, 122942.62, 101258.67, 0.00, 0.00, 0.00
1, 86341.41, 130550.55, 18483.48, 70588.05, 14396.53, 55403.67, 122943.69, 101264.98, 0.00, 0.00, 0.00
2, 86352.74, 130547.17, 18482.46, 70589.63, 14400.33, 55406.20, 122943.51, 101275.77, 0.00, 0.00, 0.00
3, 86356.16, 130546.32, 18480.38, 70579.66, 14391.42, 55401.30, 122944.73, 101276.04, 0.00, 0.00, 0.00
4, 86353.68, 130543.98, 18473.63, 70575.38, 14393.81, 55398.11, 122950.41, 101270.77, 0.07, -0.29, 0.95
5, 86352.61, 130544.87, 18478.07, 70574.11, 14397.50, 55402.08, 122943.58, 101271.26, 0.00, 0.00, 0.00
6, 86360.30, 130547.17, 18483.39, 70578.47, 14398.05, 55403.13, 122946.68, 101272.91, 0.00, 0.00, 0.00
7, 86366.49, 130549.41, 18484.29, 70581.13, 14394.70, 55402.82, 122947.15, 101274.95, 0.00, 0.00, 0.00
8, 86357.02, 130549.34, 18484.27, 70583.52, 14390.01, 55403.89, 122947.02, 101279.69, 0.00, 0.00, 0.00
9, 86353.97, 130547.80, 18485.34, 70579.95, 14395.17, 55406.73, 122954.17, 101279.08, 0.00, 0.00, 0.00
10, 86372.79, 130546.86, 18485.50, 70584.23, 14407.91, 55413.23, 122963.94, 101288.36, 0.00, 0.00, 0.00
11, 86371.70, 130550.30, 18490.03, 70597.40, 14405.01, 55407.63, 122948.25, 101286.28, 0.00, 0.00, 0.00
12, 86360.25, 130549.85, 18484.33, 70586.43, 14405.90, 55411.18, 122940.60, 101288.96, 0.00, 0.00, 0.00
13, 86358.38, 130553.27, 18484.47, 70585.89, 14406.97, 55415.00, 122954.20, 101288.13, 0.00, 0.00, 0.00
14, 86366.71, 130560.65, 18496.49, 70599.52, 14419.15, 55420.12, 122957.08, 101285.01, 0.07, -0.28, 0.95
15, 86371.67, 130553.05, 18490.08, 70592.73, 14414.51, 55414.24, 122955.06, 101277.20, 0.00, 0.00, 0.00
16, 86358.27, 130547.44, 18489.68, 70585.16, 14409.39, 55413.08, 122953.27, 101279.08, 0.00, 0.00, 0.00
17, 86360.41, 130552.94, 18494.48, 70588.73, 14411.58, 55414.96, 122948.74, 101284.69, 0.00, 0.00, 0.00
18, 86370.24, 130556.04, 18493.59, 70588.57, 14411.26, 55417.13, 122949.86, 101289.05, 0.00, 0.00, 0.00
19, 86377.77, 130556.55, 18499.06, 70597.36, 14411.13, 55418.27, 122961.50, 101300.94, 0.00, 0.00, 0.00
20, 86381.71, 130556.31, 18497.88, 70593.53, 14412.00, 55420.28, 122956.25, 101292.05, 0.00, 0.00, 0.00
21, 86374.34, 130552.31, 18494.75, 70594.63, 14410.93, 55421.80, 122951.48, 101278.37, 0.00, 0.00, 0.00
22, 86375.70, 130555.44, 18498.50, 70598.54, 14417.88, 55432.23, 122962.40, 101290.93, 0.00, 0.00, 0.00
23, 86376.52, 130552.53, 18496.40, 70595.01, 14415.73, 55431.96, 122964.95, 101293.03, 0.00, 0.00, 0.00
24, 86375.03, 130555.04, 18505.84, 70597.38, 14419.87, 55433.96, 122961.48, 101293.90, 0.07, -0.28, 0.96
25, 86382.76, 130555.93, 18504.23, 70591.05, 14417.30, 55431.96, 122961.70, 101298.28, 0.00, 0.00, 0.00
26, 86383.74, 130556.83, 18501.46, 70587.01, 14414.73, 55430.49, 122965.91, 101297.52, 0.00, 0.00, 0.00
27, 86385.98, 130559.15, 18503.60, 70592.15, 14415.69, 55431.81, 122954.70, 101301.09, 0.00, 0.00, 0.00
28, 86382.88, 130555.59, 18504.00, 70596.48, 14416.85, 55430.56, 122949.03, 101289.56, 0.00, 0.00, 0.00
29, 86372.48, 130556.67, 18509.84, 70603.93, 14411.02, 55426.27, 122957.12, 101277.05, 0.00, 0.00, 0.00
30, 86365.17, 130557.38, 18503.33, 70596.57, 14408.47, 55425.33, 122953.23, 101276.16, 0.00, 0.00, 0.00
31, 86368.88, 130556.29, 18503.51, 70599.32, 14413.25, 55428.64, 122953.05, 101283.20, 0.00, 0.00, 0.00
32, 86375.20, 130560.67, 18503.91, 70597.18, 14413.30, 55430.40, 122956.12, 101290.08, 0.00, 0.00, 0.00
33, 86376.28, 130560.85, 18507.94, 70599.21, 14411.11, 55426.71, 122953.90, 101290.05, 0.00, 0.00, 0.00
34, 86376.05, 130558.99, 18505.57, 70597.36, 14411.91, 55425.98, 122946.98, 101291.82, 0.07, -0.29, 0.96
35, 86375.54, 130560.76, 18504.99, 70596.91, 14414.35, 55427.61, 122944.34, 101290.52, 0.00, 0.00, 0.00
36, 86376.39, 130558.28, 18501.83, 70589.78, 14406.01, 55419.09, 122950.77, 101283.82, 0.00, 0.00, 0.00
37, 86383.25, 130554.48, 18499.69, 70590.98, 14403.40, 55417.08, 122946.95, 101287.91, 0.00, 0.00, 0.00
38, 86374.13, 130558.26, 18500.49, 70587.86, 14404.63, 55420.63, 122943.44, 101284.34, 0.00, 0.00, 0.00
39, 86375.25, 130569.74, 18511.42, 70597.31, 14423.89, 55437.67, 122964.72, 101282.88, 0.00, 0.00, 0.00
40, 86372.70, 130561.30, 18503.62, 70591.57, 14419.91, 55436.32, 122968.68, 101280.45, 0.00, 0.00, 0.00
41, 86378.31, 130560.60, 18508.52, 70599.55, 14423.33, 55439.34, 122976.50, 101293.61, 0.00, 0.00, 0.00
42, 86381.53, 130559.75, 18507.56, 70606.55, 14410.48, 55431.81, 122977.02, 101301.84, 0.00, 0.00, 0.00
43, 86367.67, 130561.90, 18514.64, 70607.05, 14414.44, 55433.62, 122986.70, 101297.39, 0.00, 0.00, 0.00
44, 86368.86, 130565.77, 18514.69, 70605.34, 14424.56, 55442.18, 122982.00, 101298.84, 0.07, -0.29, 0.96
45, 86375.97, 130565.12, 18514.60, 70605.80, 14420.43, 55442.02, 122976.50, 101300.94, 0.00, 0.00, 0.00
46, 86372.93, 130566.13, 18517.77, 70606.32, 14416.20, 55442.58, 122975.31, 101300.59, 0.00, 0.00, 0.00
47, 86377.15, 130566.59, 18515.96, 70600.53, 14430.40, 55447.57, 122974.24, 101305.27, 0.00, 0.00, 0.00
48, 86381.48, 130563.87, 18513.53, 70600.02, 14418.91, 55437.78, 122975.12, 101303.49, 0.00, 0.00, 0.00
49, 86385.45, 130562.75, 18515.13, 70600.87, 14418.30, 55435.95, 122984.63, 101301.97, 0.00, 0.00, 0.00
50, 86389.18, 130563.48, 18517.26, 70609.45, 14423.02, 55442.85, 122988.30, 101301.99, 0.00, 0.00, 0.00
51, 86383.95, 130567.42, 18521.08, 70614.99, 14426.69, 55447.73, 122984.81, 101306.06, 0.00, 0.00, 0.00
52, 86376.10, 130568.72, 18520.28, 70608.63, 14422.19, 55443.07, 122981.93, 101307.73, 0.00, 0.00, 0.00
53, 86376.46, 130563.04, 18516.65, 70599.79, 14419.33, 55442.23, 122982.06, 101308.36, 0.00, 0.00, 0.00
54, 86380.80, 130560.09, 18513.30, 70597.49, 14418.69, 55445.20, 122983.27, 101306.06, 0.07, -0.29, 0.96
55, 86386.45, 130560.36, 18517.55, 70607.99, 14424.03, 55449.85, 122985.46, 101307.20, 0.00, 0.00, 0.00
56, 86395.19, 130559.75, 18521.24, 70609.13, 14423.69, 55451.41, 122987.92, 101314.22, 0.00, 0.00, 0.00
57, 86396.59, 130559.91, 18522.98, 70608.33, 14423.60, 55449.98, 122985.40, 101320.37, 0.00, 0.00, 0.00
58, 86397.40, 130558.84, 18516.83, 70600.06, 14424.03, 55449.04, 122983.61, 101320.32, 0.00, 0.00, 0.00
59, 86394.56, 130563.15, 18518.44, 70599.91, 14423.76, 55450.18, 122983.54, 101316.72, 0.00, 0.00, 0.00
60, 86393.69, 130564.60, 18526.02, 70622.26, 14425.86, 55450.83, 122984.84, 101314.40, 0.00, 0.00, 0.00
61, 86395.86, 130560.85, 18525.01, 70624.65, 14422.51, 55452.60, 122996.44, 101316.50, 0.00, 0.00, 0.00
62, 86387.09, 130563.04, 18517.26, 70607.35, 14416.67, 55447.03, 122986.76, 101313.86, 0.00, 0.00, 0.00
63, 86385.66, 130562.59, 18512.00, 70604.77, 14413.30, 55441.20, 122970.89, 101312.16, 0.00, 0.00, 0.00
64, 86391.16, 130563.55, 18521.50, 70609.13, 14417.79, 55446.70, 122972.09, 101314.15, 0.07, -0.29, 0.96
65, 86401.00, 130565.30, 18524.23, 70609.70, 14414.33, 55446.18, 122966.40, 101319.52, 0.00, 0.00, 0.00
66, 86403.08, 130562.80, 18522.20, 70605.76, 14422.08, 55449.18, 122979.72, 101323.65, 0.00, 0.00, 0.00
67, 86405.13, 130565.77, 18524.63, 70602.03, 14423.42, 55449.25, 122995.25, 101326.69, 0.00, 0.00, 0.00
68, 86406.84, 130566.80, 18521.86, 70600.24, 14416.74, 55447.70, 122979.02, 101324.95, 0.00, 0.00, 0.00
69, 86396.75, 130563.76, 18518.93, 70607.46, 14412.38, 55443.70, 122976.21, 101316.84, 0.00, 0.00, 0.00
70, 86395.41, 130564.00, 18522.96, 70612.49, 14414.37, 55443.57, 122975.49, 101317.70, 0.00, 0.00, 0.00
71, 86402.70, 130563.87, 18526.13, 70614.52, 14414.48, 55443.46, 122972.34, 101321.08, 0.00, 0.00, 0.00
72, 86402.50, 130563.93, 18523.63, 70608.60, 14417.63, 55448.33, 122972.01, 101326.51, 0.00, 0.00, 0.00
73, 86404.42, 130565.05, 18525.77, 70606.61, 14417.03, 55450.18, 122972.81, 101331.41, 0.00, 0.00, 0.00
74, 86410.57, 130565.37, 18524.86, 70605.90, 14413.12, 55446.14, 122971.72, 101323.56, 0.07, -0.28, 0.96
75, 86406.45, 130570.13, 18523.20, 70609.20, 14415.69, 55449.29, 122979.77, 101329.91, 0.00, 0.00, 0.00
76, 86397.29, 130576.59, 18523.74, 70605.98, 14413.59, 55446.94, 122976.03, 101327.90, 0.00, 0.00, 0.00
77, 86396.59, 130575.45, 18517.88, 70592.35, 14406.73, 55444.37, 122972.70, 101321.46, 0.00, 0.00, 0.00
78, 86400.60, 130574.35, 18522.71, 70603.19, 14407.69, 55447.39, 122976.19, 101328.59, 0.00, 0.00, 0.00
79, 86405.16, 130572.13, 18520.97, 70608.73, 14414.28, 55449.82, 122974.60, 101335.34, 0.00, 0.00, 0.00
80, 86411.39, 130575.69, 18527.72, 70612.71, 14419.49, 55453.80, 122973.77, 101340.88, 0.00, 0.00, 0.00
81, 86405.23, 130576.07, 18531.45, 70612.02, 14415.85, 55450.74, 122978.13, 101330.60, 0.00, 0.00, 0.00
82, 86411.55, 130578.88, 18533.44, 70616.80, 14418.46, 55451.66, 122973.10, 101322.11, 0.00, 0.00, 0.00
83, 86422.70, 130579.06, 18529.77, 70613.96, 14415.49, 55451.41, 122974.73, 101322.04, 0.00, 0.00, 0.00
84, 86414.75, 130576.79, 18527.65, 70609.02, 14414.55, 55452.57, 122971.67, 101324.09, 0.07, -0.28, 0.96
85, 86413.18, 130577.16, 18525.30, 70602.09, 14417.57, 55457.58, 122975.80, 101328.75, 0.00, 0.00, 0.00
86, 86404.64, 130578.22, 18524.99, 70600.02, 14411.02, 55456.57, 122977.91, 101330.91, 0.00, 0.00, 0.00
87, 86402.50, 130578.84, 18521.50, 70596.38, 14400.11, 55451.08, 122976.90, 101325.23, 0.00, 0.00, 0.00
88, 86404.33, 130577.91, 18520.30, 70592.02, 14390.63, 55442.63, 122971.41, 101320.41, 0.00, 0.00, 0.00
89, 86405.76, 130573.52, 18517.21, 70584.10, 14390.68, 55441.27, 122969.02, 101320.55, 0.00, 0.00, 0.00
90, 86414.86, 130571.82, 18524.32, 70597.29, 14402.08, 55447.21, 122970.48, 101320.70, 0.00, 0.00, 0.00
91, 86421.14, 130575.84, 18534.38, 70614.55, 14406.95, 55452.35, 122974.04, 101325.04, 0.00, 0.00, 0.00
92, 86412.40, 130580.30, 18531.12, 70605.45, 14407.33, 55452.48, 122974.17, 101326.11, 0.00, 0.00, 0.00
93, 86410.19, 130578.88, 18529.39, 70607.82, 14408.90, 55450.96, 122973.28, 101325.44, 0.00, 0.00, 0.00
94, 86407.44, 130578.28, 18531.25, 70610.48, 14403.24, 55448.66, 122973.23, 101320.25, 0.07, -0.29, 0.96
95, 86407.44, 130583.52, 18534.31, 70613.77, 14402.19, 55449.33, 122974.04, 101322.20, 0.00, 0.00, 0.00
96, 86413.05, 130583.80, 18534.69, 70608.76, 14409.95, 55453.31, 122975.80, 101329.20, 0.00, 0.00, 0.00
97, 86417.07, 130584.34, 18530.27, 70604.20, 14407.38, 55455.70, 122977.59, 101333.55, 0.00, 0.00, 0.00
98, 86426.05, 130582.98, 18530.94, 70610.56, 14406.24, 55457.45, 122983.95, 101349.76, 0.00, 0.00, 0.00
99, 86440.43, 130586.93, 18533.02, 70612.16, 14408.40, 55458.50, 122984.52, 101358.50, 0.00, 0.00, 0.00
100, 86421.07, 130588.12, 18539.07, 70619.13, 14408.74, 55453.71, 122968.30, 101321.91, 0.00, 0.00, 0.00
101, 86413.12, 130580.45, 18538.00, 70612.60, 14405.79, 55453.49, 122974.47, 101312.07, 0.00, 0.00, 0.00
102, 86419.71, 130579.02, 18534.71, 70611.86, 14398.79, 55454.88, 122983.85, 101323.94, 0.00, 0.00, 0.00
103, 86422.64, 130581.05, 18537.46, 70616.60, 14416.83, 55462.25, 122989.77, 101332.19, 0.00, 0.00, 0.00
104, 86422.26, 130581.19, 18537.82, 70618.05, 14419.36, 55462.86, 122983.83, 101336.86, 0.08, -0.28, 0.96
105, 86423.38, 130579.60, 18538.07, 70614.52, 14413.95, 55460.02, 122977.23, 101337.80, 0.00, 0.00, 0.00
106, 86419.17, 130581.13, 18535.83, 70608.80, 14412.29, 55459.57, 122982.29, 101331.45, 0.00, 0.00, 0.00
107, 86427.04, 130582.38, 18535.09, 70608.20, 14409.90, 55462.41, 122982.49, 101335.52, 0.00, 0.00, 0.00
108, 86440.79, 130585.28, 18539.63, 70620.76, 14418.93, 55469.52, 122985.20, 101340.48, 0.00, 0.00, 0.00
109, 86434.26, 130586.95, 18544.44, 70620.47, 14419.38, 55467.80, 122981.10, 101334.34, 0.00, 0.00, 0.00
110, 86423.02, 130582.75, 18531.72, 70604.27, 14407.24, 55458.68, 122971.72, 101319.98, 0.00, 0.00, 0.00
111, 86429.14, 130584.79, 18531.47, 70607.41, 14412.49, 55465.70, 122984.19, 101330.13, 0.00, 0.00, 0.00
112, 86426.57, 130591.49, 18537.37, 70617.61, 14420.85, 55468.94, 122983.97, 101334.02, 0.00, 0.00, 0.00
113, 86428.34, 130590.95, 18535.85, 70614.61, 14415.22, 55467.28, 122980.19, 101341.66, 0.00, 0.00, 0.00
114, 86431.80, 130586.51, 18535.76, 70612.45, 14416.41, 55469.70, 122983.52, 101345.58, 0.07, -0.28, 0.96
115, 86424.29, 130583.55, 18540.37, 70612.20, 14413.66, 55465.61, 122981.51, 101335.67, 0.00, 0.00, 0.00
116, 86422.10, 130585.39, 18543.21, 70617.18, 14411.71, 55465.54, 122982.60, 101335.43, 0.00, 0.00, 0.00
117, 86432.61, 130589.34, 18544.86, 70618.81, 14414.59, 55472.73, 122987.07, 101338.41, 0.00, 0.00, 0.00
118, 86435.22, 130593.08, 18549.91, 70628.85, 14423.29, 55478.30, 122987.66, 101343.12, 0.00, 0.00, 0.00
119, 86428.70, 130587.91, 18543.97, 70619.02, 14419.67, 55473.21, 122983.07, 101340.75, 0.00, 0.00, 0.00
120, 86423.89, 130581.99, 18542.69, 70617.61, 14416.34, 55470.61, 122990.11, 101337.24, 0.00, 0.00, 0.00
121, 86423.33, 130586.11, 18547.92, 70625.36, 14413.16, 55469.41, 122982.98, 101333.71, 0.00, 0.00, 0.00
122, 86423.42, 130582.48, 18536.03, 70610.86, 14408.47, 55464.27, 122973.35, 101335.19, 0.00, 0.00, 0.00
123, 86429.45, 130586.24, 18541.84, 70615.26, 14414.10, 55466.61, 122976.34, 101344.26, 0.00, 0.00, 0.00
124, 86432.83, 130591.25, 18554.09, 70633.88, 14422.08, 55472.76, 122983.32, 101346.77, 0.07, -0.28, 0.96
125, 86432.72, 130584.92, 18550.32, 70630.99, 14417.61, 55471.21, 122984.52, 101340.95, 0.00, 0.00, 0.00
126, 86444.38, 130578.91, 18544.59, 70619.40, 14412.83, 55466.88, 122980.48, 101341.64, 0.00, 0.00, 0.00
127, 86437.88, 130577.41, 18544.10, 70613.20, 14408.96, 55462.72, 122970.60, 101338.60, 0.00, 0.00, 0.00
128, 86421.19, 130577.27, 18542.34, 70614.95, 14406.19, 55462.86, 122972.19, 101338.05, 0.00, 0.00, 0.00
129, 86429.07, 130576.59, 18542.98, 70617.90, 14413.46, 55468.67, 122985.87, 101345.27, 0.00, 0.00, 0.00
130, 86431.71, 130581.55, 18545.76, 70623.62, 14409.48, 55464.71, 122979.67, 101341.30, 0.00, 0.00, 0.00
131, 86421.54, 130580.77, 18541.69, 70618.75, 14400.65, 55454.77, 122975.05, 101339.21, 0.00, 0.00, 0.00
132, 86426.48, 130584.72, 18547.48, 70616.24, 14410.71, 55463.55, 122977.64, 101346.52, 0.00, 0.00, 0.00
133, 86425.41, 130594.29, 18550.25, 70621.23, 14406.48, 55463.30, 122976.52, 101342.78, 0.00, 0.00, 0.00
134, 86421.41, 130595.85, 18553.00, 70629.86, 14418.95, 55467.73, 122979.02, 101342.54, 0.08, -0.28, 0.96
135, 86425.79, 130590.66, 18545.26, 70616.55, 14413.57, 55462.63, 122975.61, 101340.82, 0.00, 0.00, 0.00
136, 86424.78, 130588.45, 18541.89, 70617.34, 14410.64, 55459.95, 122969.30, 101341.40, 0.00, 0.00, 0.00
137, 86423.60, 130591.80, 18546.38, 70631.76, 14417.63, 55467.66, 122978.02, 101346.00, 0.00, 0.00, 0.00
138, 86420.52, 130590.11, 18546.40, 70625.01, 14413.03, 55463.84, 122971.56, 101338.31, 0.00, 0.00, 0.00
139, 86415.82, 130587.02, 18548.08, 70619.48, 14409.99, 55462.34, 122967.85, 101332.93, 0.00, 0.00, 0.00
140, 86417.63, 130586.24, 18547.83, 70617.45, 14410.21, 55462.81, 122964.74, 101335.38, 0.00, 0.00, 0.00
141, 86420.27, 130589.03, 18550.52, 70618.44, 14416.67, 55469.29, 122974.55, 101342.72, 0.00, 0.00, 0.00
142, 86424.11, 130590.48, 18552.71, 70628.49, 14419.29, 55474.37, 122990.31, 101349.27, 0.00, 0.00, 0.00
143, 86426.05, 130591.83, 18554.05, 70630.52, 14417.61, 55471.57, 122979.77, 101350.20, 0.00, 0.00, 0.00
144, 86421.19, 130592.74, 18551.97, 70626.33, 14424.59, 55472.69, 122981.02, 101351.92, 0.08, -0.28, 0.95
145, 86425.99, 130592.41, 18549.18, 70621.36, 14428.39, 55478.61, 122986.54, 101355.39, 0.00, 0.00, 0.00
146, 86429.48, 130590.15, 18550.74, 70615.95, 14424.56, 55478.77, 122986.54, 101359.91, 0.00, 0.00, 0.00
147, 86431.29, 130589.99, 18563.10, 70639.69, 14428.36, 55483.04, 122987.74, 101359.57, 0.00, 0.00, 0.00
148, 86429.25, 130595.00, 18562.70, 70637.10, 14424.88, 55480.25, 122983.97, 101353.89, 0.00, 0.00, 0.00
149, 86423.76, 130594.64, 18556.19, 70629.25, 14419.15, 55474.88, 122976.92, 101345.55, 0.00, 0.00, 0.00
150, 86430.84, 130595.70, 18555.52, 70627.46, 14425.46, 55477.39, 122979.36, 101349.63, 0.00, 0.00, 0.00
151, 86432.70, 130595.85, 18558.52, 70630.26, 14424.18, 55477.27, 122978.76, 101355.79, 0.00, 0.00, 0.00
152, 86429.68, 130599.79, 18564.60, 70639.60, 14424.63, 55482.04, 122980.48, 101360.77, 0.00, 0.00, 0.00
153, 86430.46, 130595.63, 18564.38, 70640.98, 14429.35, 55481.54, 122978.35, 101356.77, 0.00, 0.00, 0.00
154, 86428.56, 130592.48, 18558.41, 70629.52, 14425.21, 55478.59, 122975.29, 101358.63, 0.09, -0.28, 0.96
155, 86423.55, 130593.44, 18559.88, 70632.27, 14428.48, 55483.11, 122983.79, 101357.29, 0.00, 0.00, 0.00
156, 86427.11, 130592.95, 18560.04, 70635.38, 14425.68, 55484.02, 122996.70, 101358.85, 0.00, 0.00, 0.00
157, 86426.26, 130590.69, 18558.83, 70634.84, 14420.63, 55480.74, 122984.34, 101358.99, 0.00, 0.00, 0.00
158, 86435.80, 130592.63, 18562.07, 70634.30, 14423.80, 55481.92, 122983.63, 101367.57, 0.00, 0.00, 0.00
159, 86441.68, 130591.49, 18560.13, 70630.84, 14427.63, 55482.08, 122992.34, 101366.70, 0.00, 0.00, 0.00
160, 86433.48, 130587.89, 18557.04, 70628.80, 14425.32, 55480.29, 122976.25, 101359.66, 0.00, 0.00, 0.00
161, 86431.27, 130586.93, 18555.75, 70628.07, 14423.54, 55479.87, 122974.53, 101363.37, 0.00, 0.00, 0.00
162, 86430.68, 130587.67, 18553.58, 70621.14, 14420.32, 55478.95, 122979.98, 101363.50, 0.00, 0.00, 0.00
163, 86434.44, 130588.19, 18552.57, 70618.16, 14424.52, 55482.46, 122980.39, 101355.61, 0.08, -0.28, 0.96
164, 86435.80, 130588.21, 18559.59, 70635.78, 14431.02, 55485.61, 122979.02, 101351.79, 0.00, 0.00, 0.00
165, 86443.24, 130582.71, 18564.02, 70636.65, 14429.97, 55486.93, 122980.55, 101356.84, 0.00, 0.00, 0.00
166, 86446.06, 130588.23, 18567.59, 70637.10, 14433.35, 55489.68, 122984.30, 101360.62, 0.00, 0.00, 0.00
167, 86437.41, 130590.69, 18568.58, 70643.34, 14431.31, 55487.27, 122980.66, 101356.51, 0.00, 0.00, 0.00
168, 86446.04, 130593.52, 18569.45, 70642.48, 14434.24, 55487.69, 122979.20, 101363.62, 0.00, 0.00, 0.00
169, 86441.05, 130593.77, 18566.41, 70635.04, 14427.63, 55486.97, 122978.53, 101367.93, 0.00, 0.00, 0.00
170, 86431.60, 130591.60, 18568.46, 70636.63, 14429.30, 55487.11, 122983.41, 101360.64, 0.00, 0.00, 0.00
171, 86436.74, 130591.20, 18566.36, 70631.80, 14432.05, 55488.74, 122979.88, 101360.13, 0.00, 0.00, 0.00
172, 86442.59, 130593.73, 18569.11, 70638.98, 14431.09, 55489.72, 122979.47, 101361.56, 0.00, 0.00, 0.00
173, 86439.71, 130595.12, 18569.13, 70639.20, 14429.46, 55490.73, 122979.65, 101359.63, 0.08, -0.28, 0.95
174, 86428.67, 130595.07, 18567.13, 70635.87, 14433.75, 55488.47, 122976.73, 101357.76, 0.00, 0.00, 0.00
175, 86439.24, 130596.27, 18570.86, 70643.02, 14436.70, 55493.19, 122982.96, 101363.34, 0.00, 0.00, 0.00
176, 86445.88, 130594.47, 18575.17, 70640.41, 14431.81, 55492.74, 122980.99, 101367.26, 0.00, 0.00, 0.00
177, 86435.38, 130591.05, 18566.68, 70633.27, 14427.80, 55484.29, 122973.05, 101359.05, 0.00, 0.00, 0.00
178, 86434.06, 130590.80, 18563.14, 70629.43, 14423.87, 55480.49, 122984.34, 101358.99, 0.00, 0.00, 0.00
179, 86440.32, 130592.88, 18564.55, 70631.42, 14425.95, 55486.48, 122978.91, 101367.91, 0.00, 0.00, 0.00
180, 86440.54, 130595.25, 18571.26, 70636.92, 14430.87, 55493.97, 122977.80, 101363.21, 0.00, 0.00, 0.00
181, 86436.36, 130600.12, 18578.17, 70644.30, 14443.34, 55503.52, 122986.06, 101361.18, 0.00, 0.00, 0.00
182, 86431.20, 130594.73, 18568.24, 70629.12, 14435.54, 55496.88, 122978.76, 101355.30, 0.00, 0.00, 0.00
183, 86437.23, 130597.33, 18569.81, 70632.49, 14435.56, 55498.06, 122983.34, 101360.76, 0.08, -0.28, 0.96
184, 86433.48, 130598.02, 18572.58, 70639.65, 14435.74, 55500.45, 122978.87, 101360.33, 0.00, 0.00, 0.00
185, 86440.88, 130593.39, 18568.20, 70636.45, 14443.50, 55503.16, 122987.79, 101367.23, 0.00, 0.00, 0.00
186, 86437.05, 130597.84, 18576.06, 70654.11, 14445.64, 55507.07, 122992.91, 101367.93, 0.00, 0.00, 0.00
187, 86427.69, 130603.49, 18587.06, 70659.41, 14434.87, 55499.67, 122980.10, 101359.80, 0.00, 0.00, 0.00
188, 86435.04, 130608.70, 18584.60, 70649.01, 14446.67, 55508.84, 122988.84, 101367.70, 0.00, 0.00, 0.00
189, 86424.88, 130602.67, 18582.12, 70645.19, 14439.14, 55504.32, 122983.74, 101359.44, 0.00, 0.00, 0.00
190, 86420.80, 130597.39, 18583.13, 70641.41, 14434.78, 55503.16, 122981.55, 101361.67, 0.00, 0.00, 0.00
191, 86427.38, 130598.51, 18585.99, 70643.20, 14441.04, 55508.23, 122984.03, 101365.80, 0.00, 0.00, 0.00
192, 86432.74, 130593.68, 18584.76, 70640.92, 14432.88, 55503.07, 122971.98, 101361.56, 0.00, 0.00, 0.00
193, 86438.06, 130594.82, 18584.63, 70641.86, 14437.42, 55504.14, 122976.92, 101362.72, 0.07, -0.28, 0.96
194, 86438.95, 130601.64, 18584.76, 70640.27, 14441.69, 55506.60, 122991.61, 101367.82, 0.00, 0.00, 0.00
195, 86438.64, 130602.78, 18587.42, 70641.75, 14444.95, 55510.69, 122991.97, 101364.76, 0.00, 0.00, 0.00
196, 86430.82, 130601.66, 18588.40, 70643.42, 14445.51, 55509.37, 122983.79, 101361.20, 0.00, 0.00, 0.00
197, 86432.83, 130601.23, 18591.26, 70643.40, 14443.54, 55507.89, 122980.26, 101366.30, 0.00, 0.00, 0.00
198, 86434.41, 130600.61, 18590.53, 70638.88, 14440.88, 55508.48, 122979.31, 101365.59, 0.00, 0.00, 0.00
199, 86435.27, 130602.00, 18589.52, 70634.48, 14438.47, 55510.53, 122981.04, 101367.41, 0.00, 0.00, 0.00
200, 86433.14, 130600.59, 18591.49, 70642.41, 14434.02, 55504.61, 122975.47, 101361.31, 0.00, 0.00, 0.00
201, 86437.26, 130600.68, 18590.62, 70639.63, 14440.32, 55509.71, 122980.70, 101364.13, 0.00, 0.00, 0.00
202, 86449.64, 130595.70, 18590.44, 70637.91, 14442.42, 55514.33, 122982.06, 101367.52, 0.00, 0.00, 0.00
203, 86457.77, 130597.46, 18593.03, 70638.98, 14435.45, 55511.29, 122982.34, 101368.64, 0.07, -0.29, 0.96
204, 86443.98, 130602.47, 18597.92, 70651.41, 14442.20, 55514.40, 122979.05, 101369.02, 0.00, 0.00, 0.00
205, 86435.60, 130599.56, 18591.04, 70643.38, 14445.17, 55515.27, 122973.55, 101366.14, 0.00, 0.00, 0.00
206, 86436.23, 130599.18, 18591.58, 70649.73, 14433.44, 55511.47, 122970.48, 101366.77, 0.00, 0.00, 0.00
207, 86439.36, 130606.20, 18598.26, 70660.45, 14428.83, 55508.84, 122981.88, 101370.86, 0.00, 0.00, 0.00
208, 86436.72, 130602.22, 18593.68, 70647.80, 14440.03, 55507.79, 122976.25, 101369.02, 0.00, 0.00, 0.00
209, 86436.34, 130600.63, 18592.98, 70640.07, 14438.62, 55510.24, 122976.92, 101371.69, 0.00, 0.00, 0.00
210, 86440.77, 130601.04, 18596.05, 70643.89, 14441.60, 55512.75, 122974.06, 101366.07, 0.00, 0.00, 0.00
211, 86447.45, 130602.40, 18596.27, 70643.89, 14440.28, 55516.50, 122977.17, 101373.98, 0.00, 0.00, 0.00
212, 86453.33, 130606.89, 18595.96, 70648.70, 14434.17, 55516.84, 122992.23, 101379.41, 0.00, 0.00, 0.00
213, 86456.74, 130604.77, 18598.15, 70647.00, 14448.77, 55520.17, 122986.20, 101375.57, 0.07, -0.29, 0.96
214, 86450.94, 130603.83, 18601.68, 70651.85, 14444.21, 55518.18, 122980.92, 101368.42, 0.00, 0.00, 0.00
215, 86447.31, 130600.81, 18597.30, 70649.08, 14443.96, 55519.68, 122979.59, 101364.89, 0.00, 0.00, 0.00
216, 86447.94, 130601.48, 18601.21, 70663.72, 14442.49, 55520.28, 122979.54, 101370.27, 0.00, 0.00, 0.00
217, 86444.36, 130601.87, 18599.76, 70657.35, 14442.60, 55517.91, 122974.45, 101371.84, 0.00, 0.00, 0.00
218, 86442.75, 130601.02, 18595.04, 70651.49, 14441.53, 55516.66, 122977.66, 101371.28, 0.00, 0.00, 0.00
219, 86443.55, 130601.44, 18595.09, 70650.13, 14443.63, 55519.86, 122980.70, 101376.47, 0.00, 0.00, 0.00
220, 86446.06, 130604.28, 18596.56, 70649.59, 14447.03, 55526.89, 122977.04, 101373.43, 0.00, 0.00, 0.00
221, 86450.09, 130605.09, 18599.27, 70656.27, 14449.08, 55531.95, 122983.81, 101370.27, 0.00, 0.00, 0.00
222, 86446.71, 130604.10, 18595.04, 70646.95, 14442.42, 55527.63, 122980.86, 101368.47, 0.00, 0.00, 0.00
223, 86446.42, 130604.01, 18592.92, 70646.20, 14442.04, 55524.86, 122979.05, 101371.51, 0.07, -0.28, 0.96
224, 86446.06, 130605.93, 18589.81, 70640.23, 14449.35, 55527.92, 122983.90, 101375.57, 0.00, 0.00, 0.00
225, 86444.67, 130610.72, 18593.12, 70650.69, 14450.42, 55528.62, 122990.27, 101374.52, 0.00, 0.00, 0.00
226, 86455.02, 130619.43, 18598.95, 70658.84, 14456.39, 55535.81, 122990.45, 101381.23, 0.00, 0.00, 0.00
227, 86460.79, 130619.81, 18603.87, 70659.30, 14454.78, 55533.87, 122986.47, 101388.70, 0.00, 0.00, 0.00
228, 86449.68, 130610.05, 18595.67, 70650.98, 14445.10, 55524.50, 122975.96, 101386.17, 0.00, 0.00, 0.00
229, 86452.68, 130611.52, 18594.77, 70645.57, 14444.48, 55526.00, 122975.63, 101382.99, 0.00, 0.00, 0.00
230, 86456.12, 130611.95, 18595.71, 70639.53, 14435.96, 55521.69, 122970.42, 101376.78, 0.00, 0.00, 0.00
231, 86453.64, 130611.84, 18603.49, 70656.95, 14439.92, 55523.41, 122976.12, 101374.59, 0.00, 0.00, 0.00
232, 86452.92, 130610.00, 18597.10, 70648.88, 14449.67, 55524.55, 122987.83, 101370.05, 0.00, 0.00, 0.00
233, 86446.17, 130611.52, 18596.36, 70647.13, 14449.75, 55530.54, 122982.22, 101372.98, 0.07, -0.29, 0.96
234, 86445.19, 130614.42, 18599.18, 70650.33, 14447.21, 55530.43, 122983.81, 101377.59, 0.00, 0.00, 0.00
235, 86458.60, 130616.73, 18600.47, 70648.38, 14446.74, 55533.69, 122989.42, 101386.98, 0.00, 0.00, 0.00
236, 86468.46, 130610.98, 18602.66, 70652.72, 14459.41, 55541.04, 122990.63, 101394.62, 0.00, 0.00, 0.00
237, 86467.12, 130613.17, 18610.31, 70668.30, 14457.89, 55541.33, 122989.84, 101391.63, 0.00, 0.00, 0.00
238, 86454.84, 130610.42, 18599.69, 70655.47, 14444.84, 55529.51, 122987.27, 101369.54, 0.00, 0.00, 0.00
239, 86453.59, 130609.98, 18603.42, 70661.22, 14451.32, 55533.55, 122985.06, 101369.74, 0.00, 0.00, 0.00
240, 86455.54, 130613.38, 18606.35, 70662.89, 14454.54, 55535.57, 122980.30, 101379.53, 0.00, 0.00, 0.00
241, 86457.04, 130613.40, 18604.54, 70657.59, 14450.65, 55534.45, 122978.09, 101383.91, 0.00, 0.00, 0.00
242, 86459.43, 130613.66, 18605.39, 70659.16, 14449.71, 55533.87, 122980.59, 101383.35, 0.00, 0.00, 0.00
243, 86464.21, 130612.33, 18601.88, 70656.34, 14454.34, 55534.67, 122980.57, 101383.17, 0.07, -0.29, 0.96
244, 86464.57, 130611.01, 18600.85, 70657.84, 14451.77, 55534.89, 122980.27, 101383.84, 0.00, 0.00, 0.00
245, 86461.20, 130622.27, 18607.94, 70660.97, 14454.83, 55539.37, 122988.52, 101387.02, 0.00, 0.00, 0.00
246, 86461.88, 130619.90, 18605.66, 70661.59, 14459.70, 55539.12, 122991.21, 101391.02, 0.00, 0.00, 0.00
247, 86465.22, 130616.73, 18603.31, 70662.98, 14462.20, 55541.89, 122990.83, 101392.41, 0.00, 0.00, 0.00
248, 86462.73, 130619.43, 18607.85, 70666.36, 14459.70, 55539.77, 122993.02, 101388.42, 0.00, 0.00, 0.00
249, 86457.64, 130613.98, 18604.85, 70660.99, 14453.40, 55535.23, 122986.00, 101382.95, 0.00, 0.00, 0.00
250, 86461.59, 130614.91, 18601.21, 70658.87, 14458.31, 55538.25, 122983.74, 101383.84, 0.00, 0.00, 0.00
251, 86464.79, 130617.47, 18598.97, 70658.73, 14456.10, 55541.71, 122999.03, 101388.36, 0.00, 0.00, 0.00
252, 86461.33, 130614.34, 18594.26, 70654.40, 14456.86, 55540.71, 122993.22, 101394.41, 0.00, 0.00, 0.00
253, 86462.02, 130614.05, 18600.00, 70650.46, 14453.11, 55533.93, 122983.90, 101397.26, 0.07, -0.29, 0.96
254, 86459.54, 130616.30, 18603.38, 70654.53, 14454.25, 55536.91, 122989.89, 101394.75, 0.00, 0.00, 0.00
255, 86459.49, 130617.58, 18602.31, 70657.26, 14457.71, 55538.54, 122986.13, 101389.43, 0.00, 0.00, 0.00
0, 86460.03, 130618.07, 18603.38, 70666.80, 14457.00, 55539.19, 122991.43, 101383.95, 0.00, 0.00, 0.00
1, 86471.99, 130617.98, 18603.65, 70663.88, 14458.67, 55542.88, 122999.97, 101393.57, 0.00, 0.00, 0.00
2, 86472.86, 130619.92, 18602.19, 70653.88, 14454.60, 55541.96, 122995.30, 101400.05, 0.00, 0.00, 0.00
3, 86470.83, 130619.32, 18604.34, 70660.27, 14445.35, 55537.36, 122992.99, 101401.16, 0.00, 0.00, 0.00
4, 86465.06, 130610.34, 18598.95, 70661.08, 14446.63, 55533.96, 122991.54, 101397.79, 0.00, 0.00, 0.00
5, 86466.78, 130607.36, 18598.35, 70661.55, 14463.57, 55542.43, 122999.77, 101401.39, 0.00, 0.00, 0.00
6, 86471.27, 130608.99, 18603.98, 70670.42, 14469.87, 55550.14, 123006.59, 101412.52, 0.00, 0.00, 0.00
7, 86474.00, 130610.38, 18600.63, 70665.89, 14453.89, 55541.47, 122999.57, 101411.83, 0.07, -0.28, 0.96
8, 86490.25, 130610.78, 18595.71, 70656.45, 14460.71, 55540.64, 122996.86, 101412.32, 0.00, 0.00, 0.00
9, 86496.09, 130614.23, 18603.11, 70666.49, 14467.39, 55543.43, 122994.74, 101405.81, 0.00, 0.00, 0.00
10, 86477.16, 130619.48, 18610.98, 70679.37, 14467.88, 55550.07, 122986.71, 101391.40, 0.00, 0.00, 0.00
11, 86466.65, 130619.43, 18607.40, 70673.27, 14460.24, 55544.95, 122985.04, 101389.63, 0.00, 0.00, 0.00
12, 86468.34, 130619.19, 18603.80, 70675.59, 14454.72, 55541.56, 122995.12, 101388.74, 0.00, 0.00, 0.00
13, 86470.23, 130620.53, 18606.78, 70673.38, 14458.74, 55542.70, 122991.59, 101393.34, 0.00, 0.00, 0.00
14, 86462.98, 130620.13, 18610.51, 70678.16, 14460.55, 55545.85, 122989.51, 101399.87, 0.00, 0.00, 0.00
15, 86466.24, 130612.75, 18603.98, 70675.16, 14462.34, 55545.45, 122988.15, 101404.07, 0.00, 0.00, 0.00
16, 86477.00, 130614.65, 18605.37, 70678.00, 14461.76, 55546.25, 122985.98, 101406.02, 0.00, 0.00, 0.00
17, 86483.73, 130614.83, 18601.50, 70673.40, 14462.52, 55545.56, 122982.27, 101401.45, 0.08, -0.28, 0.96
18, 86485.04, 130618.09, 18606.55, 70675.05, 14465.56, 55548.91, 122993.02, 101399.22, 0.00, 0.00, 0.00
19, 86482.30, 130619.99, 18613.26, 70681.65, 14466.16, 55549.40, 122991.77, 101398.26, 0.00, 0.00, 0.00
20, 86481.76, 130621.42, 18613.75, 70686.98, 14462.96, 55548.46, 122990.83, 101399.11, 0.00, 0.00, 0.00
21, 86480.51, 130619.55, 18609.59, 70678.13, 14463.17, 55545.67, 122987.83, 101400.07, 0.00, 0.00, 0.00
22, 86479.66, 130621.22, 18611.02, 70679.14, 14467.97, 55548.26, 122989.98, 101402.35, 0.00, 0.00, 0.00
23, 86482.45, 130616.93, 18608.43, 70678.25, 14460.13, 55545.96, 122989.48, 101401.48, 0.00, 0.00, 0.00
24, 86485.84, 130615.27, 18608.86, 70677.95, 14458.92, 55546.81, 122990.45, 101400.02, 0.00, 0.00, 0.00
25, 86482.16, 130625.02, 18607.07, 70671.20, 14460.53, 55547.57, 122991.52, 101399.11, 0.00, 0.00, 0.00
26, 86484.77, 130623.55, 18608.74, 70683.12, 14458.20, 55551.21, 122994.59, 101402.33, 0.00, 0.00, 0.00
27, 86488.95, 130623.27, 18608.14, 70681.98, 14456.01, 55552.20, 122994.67, 101402.98, 0.07, -0.28, 0.96
28, 86481.20, 130626.97, 18607.33, 70675.79, 14456.97, 55548.89, 122982.29, 101398.33, 0.00, 0.00, 0.00
29, 86478.63, 130622.79, 18605.68, 70670.76, 14455.07, 55546.30, 122976.48, 101396.36, 0.00, 0.00, 0.00
30, 86484.46, 130621.35, 18603.85, 70667.14, 14463.05, 55550.12, 122994.05, 101398.87, 0.00, 0.00, 0.00
31, 86490.85, 130622.36, 18604.65, 70678.36, 14459.97, 55549.71, 122999.86, 101399.34, 0.00, 0.00, 0.00
32, 86482.49, 130622.23, 18608.03, 70689.94, 14459.05, 55548.31, 122985.89, 101397.70, 0.00, 0.00, 0.00
33, 86478.23, 130624.02, 18611.74, 70683.37, 14457.08, 55546.14, 122985.51, 101394.75, 0.00, 0.00, 0.00
34, 86475.97, 130622.23, 18607.58, 70675.16, 14450.80, 55543.57, 122983.56, 101394.13, 0.00, 0.00, 0.00
35, 86478.43, 130620.77, 18604.32, 70672.77, 14448.73, 55543.17, 122983.02, 101398.93, 0.00, 0.00, 0.00
36, 86488.98, 130620.26, 18601.79, 70676.17, 14453.55, 55550.21, 122990.89, 101403.58, 0.00, 0.00, 0.00
37, 86488.59, 130621.27, 18604.45, 70668.05, 14449.58, 55549.78, 122988.44, 101407.00, 0.07, -0.28, 0.97
38, 86486.79, 130623.26, 18608.41, 70668.86, 14453.67, 55554.61, 122987.85, 101409.55, 0.00, 0.00, 0.00
39, 86492.89, 130624.08, 18613.82, 70686.63, 14460.42, 55556.62, 122994.34, 101407.63, 0.00, 0.00, 0.00
40, 86492.11, 130625.91, 18608.97, 70683.74, 14452.32, 55550.97, 122994.45, 101408.37, 0.00, 0.00, 0.00
41, 86498.32, 130621.89, 18603.42, 70677.13, 14442.56, 55548.24, 122990.09, 101410.46, 0.00, 0.00, 0.00
42, 86500.87, 130616.55, 18608.45, 70681.00, 14452.08, 55550.59, 122991.03, 101409.15, 0.00, 0.00, 0.00
43, 86494.61, 130612.93, 18605.10, 70678.85, 14448.64, 55548.33, 122988.97, 101405.97, 0.00, 0.00, 0.00
44, 86496.09, 130619.32, 18608.74, 70686.45, 14450.20, 55553.94, 122996.64, 101414.47, 0.00, 0.00, 0.00
45, 86495.21, 130622.56, 18615.67, 70697.70, 14463.12, 55562.30, 123006.88, 101421.15, 0.00, 0.00, 0.00
46, 86492.82, 130621.91, 18615.38, 70693.65, 14460.55, 55562.84, 123005.80, 101419.14, 0.00, 0.00, 0.00
47, 86492.73, 130619.90, 18615.22, 70688.48, 14460.15, 55560.36, 122994.36, 101415.92, 0.07, -0.28, 0.96
48, 86490.38, 130622.67, 18613.88, 70682.25, 14468.06, 55559.75, 122990.88, 101416.55, 0.00, 0.00, 0.00
49, 86489.09, 130623.50, 18615.05, 70691.34, 14470.34, 55563.51, 123003.23, 101413.62, 0.00, 0.00, 0.00
50, 86496.48, 130623.84, 18621.08, 70699.55, 14470.88, 55568.74, 123002.79, 101419.96, 0.00, 0.00, 0.00
51, 86497.29, 130615.03, 18614.17, 70692.44, 14462.49, 55561.45, 122992.50, 101417.30, 0.00, 0.00, 0.00
52, 86500.04, 130623.39, 18616.57, 70695.62, 14470.52, 55562.21, 122995.37, 101415.36, 0.00, 0.00, 0.00
53, 86503.98, 130629.89, 18613.75, 70691.34, 14469.00, 55560.49, 122995.45, 101417.86, 0.00, 0.00, 0.00
54, 86500.76, 130627.55, 18617.13, 70701.56, 14471.14, 55564.33, 122994.38, 101417.20, 0.00, 0.00, 0.00
55, 86503.28, 130626.59, 18618.85, 70699.15, 14468.69, 55568.02, 122994.88, 101420.97, 0.00, 0.00, 0.00
56, 86501.47, 130625.02, 18614.17, 70690.20, 14468.80, 55562.66, 122987.43, 101420.14, 0.00, 0.00, 0.00
57, 86499.93, 130625.84, 18613.66, 70695.50, 14468.55, 55562.79, 122995.43, 101418.69, 0.07, -0.28, 0.96
58, 86503.64, 130628.04, 18617.53, 70703.28, 14476.02, 55566.95, 122994.70, 101413.05, 0.00, 0.00, 0.00
59, 86505.30, 130626.85, 18613.48, 70694.52, 14471.35, 55562.39, 122991.92, 101415.02, 0.00, 0.00, 0.00
60, 86507.71, 130622.45, 18616.23, 70691.70, 14468.93, 55562.05, 122993.15, 101421.33, 0.00, 0.00, 0.00
61, 86511.84, 130623.59, 18621.04, 70698.07, 14467.77, 55563.86, 122995.48, 101424.93, 0.00, 0.00, 0.00
62, 86498.84, 130626.30, 18621.66, 70703.48, 14476.17, 55566.97, 122992.70, 101422.55, 0.00, 0.00, 0.00
63, 86498.95, 130629.76, 18620.59, 70695.97, 14474.81, 55570.66, 122992.44, 101423.65, 0.00, 0.00, 0.00
64, 86502.59, 130629.94, 18619.83, 70702.19, 14471.17, 55572.85, 122997.76, 101427.12, 0.00, 0.00, 0.00
65, 86501.49, 130630.16, 18620.08, 70702.61, 14471.99, 55571.38, 122995.86, 101426.45, 0.00, 0.00, 0.00
66, 86503.23, 130628.75, 18615.36, 70691.08, 14464.28, 55566.43, 122997.27, 101421.84, 0.00, 0.00, 0.00
67, 86502.77, 130621.89, 18607.92, 70683.99, 14460.55, 55561.38, 123006.48, 101417.77, 0.07, -0.29, 0.96
68, 86504.40, 130619.55, 18610.17, 70685.76, 14465.13, 55568.16, 122998.80, 101422.13, 0.00, 0.00, 0.00
69, 86513.45, 130622.34, 18618.24, 70700.60, 14472.73, 55573.57, 123002.83, 101428.15, 0.00, 0.00, 0.00
70, 86508.13, 130621.73, 18620.25, 70698.86, 14469.02, 55571.11, 122999.50, 101425.62, 0.00, 0.00, 0.00
71, 86500.35, 130621.16, 18617.62, 70687.45, 14460.08, 55567.33, 122995.90, 101425.26, 0.00, 0.00, 0.00
72, 86498.63, 130622.67, 18616.39, 70692.27, 14474.05, 55570.14, 122993.17, 101421.39, 0.00, 0.00, 0.00
73, 86509.09, 130628.24, 18622.04, 70694.20, 14473.56, 55568.29, 122996.33, 101421.59, 0.00, 0.00, 0.00
74, 86514.59, 130631.44, 18624.32, 70699.10, 14472.62, 55569.99, 123000.15, 101423.20, 0.00, 0.00, 0.00
75, 86506.86, 130632.06, 18626.83, 70710.14, 14486.50, 55578.91, 123004.69, 101425.04, 0.00, 0.00, 0.00
76, 86503.69, 130634.52, 18629.13, 70710.05, 14487.46, 55584.03, 123012.89, 101428.63, 0.00, 0.00, 0.00
77, 86497.02, 130633.23, 18624.57, 70699.30, 14485.20, 55578.64, 123007.41, 101423.97, 0.07, -0.28, 0.96
78, 86502.68, 130633.16, 18623.96, 70701.72, 14483.84, 55577.16, 123005.53, 101426.29, 0.00, 0.00, 0.00
79, 86514.05, 130630.05, 18627.59, 70715.64, 14490.37, 55582.30, 123010.05, 101428.39, 0.00, 0.00, 0.00
80, 86519.33, 130627.91, 18634.22, 70719.27, 14493.00, 55588.96, 123015.81, 101432.86, 0.00, 0.00, 0.00
81, 86506.12, 130633.60, 18630.87, 70709.27, 14486.86, 55583.51, 123009.76, 101427.23, 0.00, 0.00, 0.00
82, 86498.50, 130635.01, 18629.04, 70708.24, 14483.13, 55582.33, 123006.88, 101418.20, 0.00, 0.00, 0.00
83, 86497.52, 130636.02, 18633.38, 70715.53, 14479.21, 55584.56, 123006.43, 101417.08, 0.00, 0.00, 0.00
84, 86503.05, 130637.25, 18635.07, 70715.82, 14490.32, 55587.89, 123015.66, 101426.54, 0.00, 0.00, 0.00
85, 86508.31, 130635.91, 18635.88, 70715.42, 14493.79, 55589.14, 123018.88, 101428.23, 0.00, 0.00, 0.00
86, 86503.02, 130633.27, 18638.90, 70711.91, 14491.13, 55584.74, 123008.38, 101422.63, 0.00, 0.00, 0.00
87, 86498.14, 130631.91, 18633.40, 70707.13, 14489.85, 55587.22, 123009.16, 101421.28, 0.07, -0.28, 0.96
88, 86506.57, 130633.45, 18632.75, 70710.14, 14492.63, 55588.99, 123013.27, 101429.59, 0.00, 0.00, 0.00
89, 86508.53, 130637.83, 18637.62, 70714.50, 14490.08, 55590.86, 123021.60, 101438.65, 0.00, 0.00, 0.00
90, 86515.15, 130639.98, 18637.87, 70717.03, 14490.86, 55593.19, 123018.72, 101439.34, 0.00, 0.00, 0.00
91, 86512.89, 130633.23, 18638.81, 70721.21, 14491.42, 55590.98, 123014.27, 101435.27, 0.00, 0.00, 0.00
92, 86505.92, 130635.05, 18642.52, 70719.73, 14491.08, 55587.27, 123014.14, 101430.98, 0.00, 0.00, 0.00
93, 86503.53, 130632.33, 18635.92, 70704.66, 14483.10, 55582.82, 123005.40, 101428.32, 0.00, 0.00, 0.00
94, 86497.31, 130630.63, 18631.77, 70693.80, 14486.95, 55584.50, 123006.36, 101427.54, 0.00, 0.00, 0.00
95, 86502.32, 130634.07, 18640.88, 70717.59, 14489.05, 55585.86, 123005.65, 101427.32, 0.00, 0.00, 0.00
96, 86515.46, 130634.07, 18644.39, 70727.06, 14487.53, 55585.37, 123009.42, 101430.09, 0.00, 0.00, 0.00
97, 86513.16, 130632.55, 18644.26, 70720.13, 14492.60, 55588.18, 123015.46, 101436.10, 0.07, -0.28, 0.96
98, 86510.39, 130628.98, 18642.00, 70712.52, 14484.58, 55588.92, 123016.46, 101434.74, 0.00, 0.00, 0.00
99, 86509.09, 130634.01, 18643.08, 70711.69, 14479.53, 55590.86, 123019.73, 101433.09, 0.00, 0.00, 0.00
100, 86501.61, 130633.98, 18645.56, 70715.46, 14496.33, 55594.55, 123020.91, 101431.34, 0.00, 0.00, 0.00
101, 86502.81, 130632.11, 18643.97, 70713.41, 14492.27, 55591.65, 123022.59, 101436.55, 0.00, 0.00, 0.00
102, 86501.45, 130636.91, 18647.75, 70713.05, 14494.41, 55594.69, 123019.39, 101434.18, 0.00, 0.00, 0.00
103, 86505.59, 130640.76, 18650.61, 70718.37, 14491.37, 55594.06, 123020.94, 101435.30, 0.00, 0.00, 0.00
104, 86516.70, 130637.98, 18645.80, 70712.13, 14486.03, 55592.43, 123032.89, 101449.76, 0.00, 0.00, 0.00
105, 86510.21, 130633.18, 18647.23, 70721.01, 14488.71, 55589.23, 123022.09, 101440.77, 0.00, 0.00, 0.00
106, 86500.55, 130631.84, 18649.42, 70718.81, 14490.81, 55589.39, 123013.36, 101427.59, 0.00, 0.00, 0.00
107, 86501.78, 130633.24, 18653.31, 70713.18, 14488.00, 55589.10, 123008.93, 101426.13, 0.07, -0.28, 0.96
108, 86508.04, 130637.09, 18653.83, 70717.05, 14488.58, 55591.65, 123019.15, 101434.36, 0.00, 0.00, 0.00
109, 86512.63, 130640.02, 18654.50, 70716.76, 14486.39, 55590.71, 123021.52, 101438.65, 0.00, 0.00, 0.00
110, 86514.81, 130639.70, 18655.46, 70714.23, 14493.72, 55594.78, 123019.73, 101437.11, 0.00, 0.00, 0.00
111, 86521.61, 130644.40, 18652.75, 70710.05, 14504.07, 55599.98, 123026.52, 101437.78, 0.00, 0.00, 0.00
112, 86526.75, 130641.09, 18649.83, 70697.70, 14492.04, 55596.45, 123031.26, 101440.80, 0.00, 0.00, 0.00
113, 86518.82, 130646.77, 18656.40, 70705.13, 14498.37, 55598.46, 123031.91, 101444.13, 0.00, 0.00, 0.00
114, 86512.85, 130647.20, 18657.11, 70722.99, 14494.23, 55592.25, 123023.13, 101437.78, 0.00, 0.00, 0.00
115, 86516.41, 130652.54, 18663.17, 70730.08, 14495.13, 55594.91, 123026.88, 101443.39, 0.00, 0.00, 0.00
116, 86512.85, 130649.83, 18659.12, 70718.70, 14491.06, 55593.39, 123031.06, 101447.28, 0.00, 0.00, 0.00
117, 86513.50, 130643.77, 18656.13, 70716.85, 14491.51, 55593.28, 123027.64, 101449.52, 0.07, -0.29, 0.96
118, 86521.92, 130641.88, 18655.17, 70714.75, 14491.28, 55596.18, 123024.38, 101446.59, 0.00, 0.00, 0.00
119, 86528.41, 130647.13, 18651.79, 70704.06, 14490.08, 55601.55, 123030.73, 101447.44, 0.00, 0.00, 0.00
120, 86519.53, 130645.63, 18647.88, 70701.07, 14491.62, 55596.63, 123028.52, 101445.27, 0.00, 0.00, 0.00
121, 86512.94, 130651.10, 18667.13, 70725.61, 14496.69, 55598.62, 123038.17, 101447.48, 0.00, 0.00, 0.00
122, 86514.44, 130653.02, 18666.12, 70719.11, 14490.64, 55596.25, 123027.87, 101442.43, 0.00, 0.00, 0.00
123, 86512.20, 130649.49, 18658.34, 70711.10, 14482.01, 55592.47, 123023.69, 101439.01, 0.00, 0.00, 0.00
124, 86506.45, 130648.29, 18656.67, 70708.78, 14483.50, 55589.82, 123019.05, 101434.74, 0.00, 0.00, 0.00
125, 86505.30, 130649.00, 18662.12, 70710.70, 14487.04, 55594.00, 123021.94, 101439.09, 0.00, 0.00, 0.00
126, 86514.30, 130649.92, 18662.23, 70706.74, 14488.98, 55600.14, 123027.98, 101443.91, 0.00, 0.00, 0.00
127, 86518.37, 130648.47, 18663.95, 70716.18, 14493.12, 55601.46, 123030.48, 101442.52, 0.07, -0.29, 0.96
128, 86521.16, 130648.49, 18660.93, 70712.63, 14491.66, 55601.59, 123027.91, 101441.55, 0.00, 0.00, 0.00
129, 86517.66, 130650.99, 18658.92, 70703.46, 14485.23, 55597.21, 123021.72, 101437.66, 0.00, 0.00, 0.00
130, 86520.31, 130651.77, 18666.95, 70710.77, 14484.67, 55599.80, 123028.09, 101443.03, 0.00, 0.00, 0.00
131, 86516.96, 130645.05, 18667.15, 70718.39, 14493.45, 55603.27, 123029.18, 101443.19, 0.00, 0.00, 0.00
132, 86511.10, 130641.56, 18662.10, 70714.48, 14484.53, 55596.09, 123019.70, 101440.44, 0.00, 0.00, 0.00
133, 86510.45, 130642.77, 18660.87, 70714.79, 14483.39, 55594.06, 123018.16, 101441.45, 0.00, 0.00, 0.00
134, 86514.73, 130644.47, 18664.15, 70712.11, 14486.70, 55599.05, 123021.52, 101441.69, 0.00, 0.00, 0.00
135, 86520.27, 130645.77, 18664.73, 70702.12, 14485.54, 55596.68, 123016.94, 101442.56, 0.00, 0.00, 0.00
136, 86522.08, 130641.43, 18658.77, 70695.73, 14483.62, 55598.87, 123022.12, 101446.32, 0.00, 0.00, 0.00
137, 86518.23, 130648.13, 18662.95, 70708.73, 14483.64, 55602.62, 123033.36, 101450.98, 0.07, -0.29, 0.96
138, 86505.96, 130648.36, 18656.17, 70700.98, 14479.10, 55596.99, 123017.38, 101445.69, 0.00, 0.00, 0.00
139, 86499.41, 130644.47, 18657.98, 70704.91, 14478.52, 55594.91, 123014.25, 101446.95, 0.00, 0.00, 0.00
140, 86512.78, 130644.29, 18658.14, 70709.16, 14483.13, 55600.95, 123020.78, 101449.85, 0.00, 0.00, 0.00
141, 86525.63, 130646.23, 18663.17, 70714.28, 14486.23, 55604.23, 123022.81, 101456.29, 0.00, 0.00, 0.00
142, 86524.77, 130646.81, 18664.47, 70710.52, 14478.72, 55600.50, 123028.16, 101461.36, 0.00, 0.00, 0.00
143, 86514.08, 130644.78, 18658.97, 70700.20, 14481.69, 55600.14, 123027.59, 101450.52, 0.00, 0.00, 0.00
144, 86508.76, 130645.61, 18660.15, 70702.39, 14489.45, 55605.02, 123019.35, 101447.10, 0.00, 0.00, 0.00
145, 86507.87, 130645.34, 18659.55, 70704.22, 14492.78, 55606.85, 123023.51, 101448.87, 0.00, 0.00, 0.00
146, 86510.23, 130643.98, 18664.67, 70725.12, 14488.71, 55607.41, 123030.73, 101450.48, 0.00, 0.00, 0.00
147, 86506.57, 130640.64, 18662.74, 70719.82, 14495.73, 55611.00, 123023.98, 101448.09, 0.07, -0.29, 0.96
148, 86504.29, 130636.13, 18663.86, 70715.51, 14499.38, 55609.89, 123018.01, 101444.15, 0.00, 0.00, 0.00
149, 86506.10, 130638.39, 18667.26, 70717.07, 14497.41, 55612.03, 123021.78, 101444.41, 0.00, 0.00, 0.00
150, 86507.87, 130639.91, 18664.73, 70713.32, 14496.60, 55610.64, 123022.73, 101442.83, 0.00, 0.00, 0.00
151, 86514.19, 130639.37, 18662.19, 70704.94, 14494.70, 55608.25, 123019.75, 101443.66, 0.00, 0.00, 0.00
152, 86518.99, 130642.79, 18664.47, 70707.57, 14496.20, 55609.64, 123018.25, 101445.58, 0.00, 0.00, 0.00
153, 86514.97, 130646.92, 18668.24, 70715.93, 14500.00, 55616.68, 123030.05, 101454.66, 0.00, 0.00, 0.00
154, 86500.40, 130642.68, 18664.71, 70715.77, 14495.11, 55615.74, 123028.11, 101458.55, 0.00, 0.00, 0.00
155, 86488.22, 130635.75, 18659.12, 70704.69, 14480.47, 55605.13, 123019.75, 101446.83, 0.00, 0.00, 0.00
156, 86491.70, 130633.42, 18658.86, 70702.88, 14484.44, 55605.15, 123020.89, 101443.26, 0.00, 0.00, 0.00
157, 86496.30, 130638.03, 18663.21, 70712.49, 14499.46, 55610.82, 123020.96, 101439.88, 0.07, -0.29, 0.96
158, 86505.74, 130641.05, 18662.48, 70709.77, 14495.17, 55608.93, 123020.55, 101442.74, 0.00, 0.00, 0.00
159, 86519.55, 130640.58, 18660.15, 70708.38, 14495.55, 55614.89, 123022.74, 101449.80, 0.00, 0.00, 0.00
160, 86520.29, 130645.34, 18668.76, 70718.73, 14503.44, 55624.66, 123030.10, 101461.38, 0.00, 0.00, 0.00
161, 86509.81, 130645.34, 18669.21, 70715.17, 14495.98, 55620.68, 123028.45, 101460.80, 0.00, 0.00, 0.00
162, 86502.55, 130644.45, 18665.05, 70711.40, 14491.02, 55615.92, 123026.57, 101457.78, 0.00, 0.00, 0.00
163, 86505.56, 130645.30, 18668.91, 70717.30, 14494.41, 55616.39, 123033.52, 101450.34, 0.00, 0.00, 0.00
