%OpenBCI Raw EEG Data
%Sample Rate = 250.0 Hz
%First Column = SampleIndex
%Other Columns = EEG data in microvolts followed by Accel Data (in G) interleaved with Aux Data
226, 100124.03, 124226.63, 23873.47, 19988.31, 12131.61, 29682.40, 99273.44, 76178.68, 0.00, 0.00, 0.00
227, 100121.02, 124218.83, 23870.16, 19988.07, 12127.81, 29681.51, 99274.89, 76176.73, 0.00, 0.00, 0.00
228, 100127.72, 124223.10, 23874.99, 19994.08, 12115.34, 29683.12, 99280.86, 76185.65, 0.00, 0.00, 0.00
229, 100131.77, 124225.16, 23875.55, 19988.67, 12102.20, 29680.46, 99276.84, 76183.44, 0.00, 0.00, 0.00
230, 100119.25, 124221.18, 23868.64, 19980.80, 12104.79, 29671.72, 99265.63, 76176.42, 0.00, 0.00, 0.00
231, 100114.33, 124223.19, 23871.39, 19986.37, 12115.87, 29675.61, 99268.09, 76180.27, 0.00, 0.00, 0.00
232, 100115.54, 124225.31, 23873.21, 19989.90, 12121.55, 29679.34, 99269.48, 76180.89, 0.00, 0.00, 0.00
233, 100124.84, 124229.07, 23869.54, 19990.95, 12098.15, 29674.96, 99269.23, 76181.13, 0.08, -0.19, 0.98
234, 100124.79, 124228.29, 23868.91, 19987.82, 12126.07, 29681.84, 99268.97, 76180.53, 0.00, 0.00, 0.00
235, 100124.44, 124222.05, 23866.10, 19985.79, 12127.14, 29682.87, 99266.95, 76178.50, 0.00, 0.00, 0.00
236, 100119.34, 124220.91, 23865.83, 19982.44, 12112.16, 29677.91, 99260.88, 76176.62, 0.00, 0.00, 0.00
237, 100119.80, 124223.98, 23863.35, 19980.38, 12104.16, 29675.11, 99262.75, 76183.37, 0.00, 0.00, 0.00
238, 100135.99, 124221.83, 23862.21, 19981.77, 12124.05, 29679.65, 99275.49, 76210.66, 0.00, 0.00, 0.00
239, 100141.49, 124222.48, 23871.71, 19984.98, 12114.60, 29676.77, 99273.84, 76214.87, 0.00, 0.00, 0.00
240, 100120.73, 124224.71, 23867.15, 19984.83, 12095.33, 29671.96, 99261.59, 76176.24, 0.00, 0.00, 0.00
241, 100115.29, 124225.49, 23863.24, 19984.81, 12112.32, 29673.35, 99257.03, 76168.62, 0.00, 0.00, 0.00
242, 100127.38, 124230.34, 23867.88, 19991.98, 12139.41, 29678.40, 99259.31, 76180.02, 0.00, 0.00, 0.00
243, 100125.95, 124230.95, 23862.39, 19980.22, 12112.99, 29665.30, 99252.23, 76180.62, 0.08, -0.19, 0.98
244, 100121.04, 124225.09, 23856.42, 19971.42, 12089.32, 29654.68, 99242.95, 76173.24, 0.00, 0.00, 0.00
245, 100127.19, 124226.61, 23862.77, 19980.65, 12092.87, 29662.69, 99248.52, 76180.69, 0.00, 0.00, 0.00
246, 100143.26, 124233.80, 23871.13, 19990.64, 12111.63, 29675.29, 99256.05, 76188.80, 0.00, 0.00, 0.00
247, 100145.47, 124233.72, 23871.19, 19994.60, 12113.95, 29676.43, 99252.76, 76189.63, 0.00, 0.00, 0.00
248, 100136.84, 124231.23, 23866.54, 19992.94, 12103.56, 29672.48, 99247.40, 76184.53, 0.00, 0.00, 0.00
249, 100133.11, 124229.56, 23863.06, 19982.88, 12087.33, 29664.27, 99245.79, 76186.16, 0.00, 0.00, 0.00
250, 100136.68, 124232.89, 23865.87, 19983.04, 12094.71, 29670.69, 99249.05, 76191.28, 0.00, 0.00, 0.00
251, 100134.65, 124233.38, 23863.82, 19980.20, 12102.04, 29668.86, 99243.59, 76184.53, 0.00, 0.00, 0.00
252, 100138.70, 124236.78, 23867.30, 19982.93, 12125.11, 29672.14, 99242.66, 76187.91, 0.00, 0.00, 0.00
253, 100137.45, 124239.13, 23866.59, 19983.26, 12107.96, 29668.12, 99241.66, 76188.04, 0.08, -0.19, 0.98
254, 100140.46, 124235.51, 23866.99, 19983.42, 12096.14, 29667.96, 99242.50, 76186.52, 0.00, 0.00, 0.00
255, 100137.78, 124230.55, 23868.71, 19985.77, 12091.15, 29667.31, 99237.49, 76180.06, 0.00, 0.00, 0.00
0, 100134.31, 124230.16, 23869.67, 19988.07, 12101.41, 29668.45, 99232.89, 76179.17, 0.00, 0.00, 0.00
1, 100132.13, 124232.16, 23871.46, 19989.14, 12113.62, 29671.13, 99232.24, 76175.84, 0.00, 0.00, 0.00
2, 100131.56, 124233.65, 23871.95, 19984.31, 12109.86, 29668.90, 99231.88, 76170.07, 0.00, 0.00, 0.00
3, 100122.65, 124231.77, 23865.81, 19972.58, 12090.13, 29662.11, 99222.81, 76164.44, 0.00, 0.00, 0.00
4, 100119.14, 124230.79, 23862.45, 19968.22, 12083.42, 29666.15, 99219.30, 76165.09, 0.00, 0.00, 0.00
5, 100129.30, 124236.67, 23872.02, 19983.40, 12115.09, 29680.25, 99225.83, 76167.16, 0.00, 0.00, 0.00
6, 100131.54, 124242.28, 23877.63, 19989.32, 12125.20, 29683.52, 99231.77, 76172.75, 0.00, 0.00, 0.00
7, 100129.82, 124238.19, 23872.51, 19983.40, 12111.34, 29678.58, 99227.44, 76174.98, 0.08, -0.19, 0.99
8, 100136.17, 124235.02, 23868.58, 19988.76, 12119.74, 29684.35, 99229.56, 76174.16, 0.00, 0.00, 0.00
9, 100136.84, 124236.55, 23868.87, 19986.19, 12117.48, 29680.86, 99230.01, 76180.48, 0.00, 0.00, 0.00
10, 100131.27, 124234.41, 23865.65, 19982.59, 12114.20, 29679.05, 99227.05, 76178.68, 0.00, 0.00, 0.00
11, 100130.24, 124233.12, 23866.86, 19983.49, 12114.22, 29679.27, 99226.41, 76176.89, 0.00, 0.00, 0.00
12, 100133.30, 124235.39, 23868.80, 19981.03, 12096.58, 29674.64, 99226.50, 76176.44, 0.00, 0.00, 0.00
13, 100131.09, 124239.71, 23871.57, 19980.69, 12107.49, 29681.04, 99230.01, 76182.81, 0.00, 0.00, 0.00
14, 100135.68, 124242.26, 23873.32, 19979.53, 12110.91, 29682.47, 99231.55, 76187.93, 0.00, 0.00, 0.00
15, 100142.27, 124243.30, 23872.96, 19977.12, 12111.05, 29677.84, 99229.52, 76187.39, 0.00, 0.00, 0.00
16, 100142.56, 124244.20, 23869.47, 19972.15, 12101.55, 29670.96, 99223.95, 76186.14, 0.00, 0.00, 0.00
17, 100145.27, 124250.17, 23873.79, 19980.60, 12107.18, 29677.21, 99224.62, 76189.59, 0.08, -0.19, 0.98
18, 100141.84, 124246.99, 23874.86, 19978.99, 12123.56, 29678.69, 99224.45, 76193.95, 0.00, 0.00, 0.00
19, 100141.13, 124243.73, 23874.30, 19982.26, 12123.47, 29675.00, 99223.57, 76191.87, 0.00, 0.00, 0.00
20, 100132.55, 124239.46, 23868.15, 19981.81, 12116.84, 29671.78, 99218.54, 76185.60, 0.00, 0.00, 0.00
21, 100134.67, 124242.39, 23871.13, 19980.40, 12119.92, 29674.11, 99218.25, 76189.59, 0.00, 0.00, 0.00
22, 100138.47, 124244.11, 23869.99, 19974.43, 12112.50, 29675.61, 99219.46, 76191.77, 0.00, 0.00, 0.00
23, 100143.03, 124247.66, 23868.94, 19972.20, 12095.80, 29673.24, 99221.63, 76194.05, 0.00, 0.00, 0.00
24, 100143.92, 124249.88, 23869.14, 19974.26, 12096.23, 29673.15, 99223.26, 76196.73, 0.00, 0.00, 0.00
25, 100146.63, 124250.51, 23865.58, 19969.99, 12097.34, 29673.04, 99225.23, 76202.66, 0.00, 0.00, 0.00
26, 100141.18, 124252.70, 23863.30, 19966.03, 12084.76, 29672.74, 99221.38, 76196.42, 0.00, 0.00, 0.00
27, 100130.24, 124250.19, 23860.87, 19959.95, 12106.71, 29676.32, 99215.91, 76186.43, 0.08, -0.19, 0.98
28, 100134.83, 124243.35, 23860.80, 19964.00, 12088.96, 29671.89, 99215.75, 76186.23, 0.00, 0.00, 0.00
29, 100140.20, 124244.42, 23865.72, 19970.30, 12110.11, 29680.84, 99223.46, 76193.34, 0.00, 0.00, 0.00
30, 100137.06, 124246.52, 23872.85, 19976.27, 12126.40, 29683.32, 99221.70, 76197.18, 0.00, 0.00, 0.00
31, 100134.09, 124245.32, 23869.18, 19976.98, 12121.48, 29678.64, 99219.73, 76194.45, 0.00, 0.00, 0.00
32, 100127.38, 124242.13, 23857.83, 19968.18, 12109.12, 29671.60, 99215.30, 76183.66, 0.00, 0.00, 0.00
33, 100123.70, 124242.41, 23862.30, 19964.20, 12105.84, 29671.04, 99214.07, 76179.66, 0.00, 0.00, 0.00
34, 100125.33, 124245.45, 23862.92, 19966.88, 12106.24, 29675.54, 99217.69, 76180.33, 0.00, 0.00, 0.00
35, 100128.41, 124250.41, 23865.58, 19975.46, 12118.85, 29678.62, 99220.58, 76184.16, 0.00, 0.00, 0.00
36, 100125.33, 124257.05, 23869.88, 19977.16, 12124.14, 29680.08, 99220.13, 76181.67, 0.00, 0.00, 0.00
37, 100130.20, 124258.15, 23872.51, 19975.78, 12113.13, 29679.16, 99215.84, 76180.30, 0.08, -0.19, 0.98
38, 100137.22, 124251.31, 23871.60, 19970.08, 12085.07, 29667.13, 99208.80, 76178.30, 0.00, 0.00, 0.00
39, 100135.27, 124249.48, 23865.83, 19968.04, 12093.79, 29666.33, 99212.51, 76178.59, 0.00, 0.00, 0.00
40, 100138.13, 124249.79, 23863.93, 19967.82, 12119.27, 29673.79, 99214.63, 76181.91, 0.00, 0.00, 0.00
41, 100135.77, 124251.96, 23864.11, 19965.70, 12117.64, 29674.38, 99213.49, 76182.23, 0.00, 0.00, 0.00
42, 100137.96, 124252.47, 23865.36, 19961.36, 12105.57, 29671.69, 99211.43, 76182.66, 0.00, 0.00, 0.00
43, 100141.34, 124256.49, 23869.74, 19967.39, 12089.46, 29672.05, 99214.61, 76189.30, 0.00, 0.00, 0.00
44, 100132.28, 124254.55, 23866.50, 19963.62, 12092.14, 29667.51, 99209.27, 76180.77, 0.00, 0.00, 0.00
45, 100136.02, 124257.43, 23868.06, 19962.74, 12102.58, 29671.18, 99214.43, 76179.75, 0.00, 0.00, 0.00
46, 100131.70, 124253.50, 23868.62, 19967.06, 12103.78, 29671.07, 99215.66, 76179.21, 0.00, 0.00, 0.00
47, 100126.76, 124248.96, 23865.43, 19964.96, 12104.27, 29670.71, 99212.95, 76179.23, 0.08, -0.20, 0.98
48, 100136.26, 124249.21, 23863.95, 19961.43, 12091.49, 29667.94, 99214.30, 76180.98, 0.00, 0.00, 0.00
49, 100140.26, 124251.38, 23865.13, 19966.54, 12080.40, 29667.76, 99217.65, 76182.90, 0.00, 0.00, 0.00
50, 100136.08, 124250.15, 23865.49, 19967.44, 12097.97, 29674.64, 99215.79, 76180.20, 0.00, 0.00, 0.00
51, 100132.02, 124250.35, 23865.54, 19967.46, 12118.29, 29672.77, 99214.09, 76179.19, 0.00, 0.00, 0.00
52, 100132.86, 124252.13, 23867.24, 19971.08, 12110.04, 29673.59, 99213.69, 76176.66, 0.00, 0.00, 0.00
53, 100132.93, 124250.57, 23866.95, 19968.13, 12095.56, 29669.75, 99212.87, 76176.44, 0.00, 0.00, 0.00
54, 100129.58, 124249.52, 23868.40, 19966.03, 12094.89, 29665.44, 99210.41, 76176.42, 0.00, 0.00, 0.00
55, 100127.85, 124251.69, 23863.68, 19960.69, 12090.30, 29665.84, 99209.33, 76176.17, 0.00, 0.00, 0.00
56, 100133.09, 124249.72, 23857.42, 19956.53, 12101.21, 29666.22, 99209.91, 76174.32, 0.00, 0.00, 0.00
57, 100131.81, 124242.63, 23859.01, 19966.81, 12102.31, 29667.98, 99211.70, 76174.72, 0.09, -0.19, 0.98
58, 100132.50, 124241.41, 23859.66, 19968.51, 12089.59, 29670.06, 99209.63, 76171.21, 0.00, 0.00, 0.00
59, 100127.61, 124242.99, 23858.41, 19964.69, 12082.03, 29672.92, 99206.45, 76171.34, 0.00, 0.00, 0.00
60, 100126.70, 124246.64, 23868.69, 19968.29, 12123.59, 29681.01, 99206.94, 76174.83, 0.00, 0.00, 0.00
61, 100134.72, 124248.34, 23871.10, 19972.00, 12136.30, 29686.42, 99209.80, 76172.13, 0.00, 0.00, 0.00
62, 100131.37, 124249.05, 23871.91, 19972.36, 12132.10, 29687.52, 99212.20, 76167.61, 0.00, 0.00, 0.00
63, 100131.99, 124249.27, 23868.38, 19966.77, 12129.38, 29689.02, 99211.21, 76169.13, 0.00, 0.00, 0.00
64, 100128.37, 124252.85, 23863.93, 19964.00, 12119.21, 29684.88, 99206.41, 76170.45, 0.00, 0.00, 0.00
65, 100130.16, 124253.86, 23865.47, 19972.31, 12117.89, 29687.18, 99205.33, 76172.41, 0.00, 0.00, 0.00
66, 100137.22, 124249.81, 23867.73, 19976.63, 12117.19, 29689.58, 99209.98, 76174.45, 0.00, 0.00, 0.00
67, 100134.36, 124246.15, 23861.92, 19966.79, 12118.20, 29686.20, 99211.26, 76177.72, 0.08, -0.19, 0.99
68, 100138.70, 124248.60, 23865.54, 19964.18, 12111.27, 29689.80, 99213.45, 76184.29, 0.00, 0.00, 0.00
69, 100142.05, 124250.75, 23867.33, 19964.67, 12106.24, 29684.88, 99212.04, 76181.52, 0.00, 0.00, 0.00
70, 100141.71, 124249.41, 23868.04, 19962.16, 12112.92, 29682.29, 99212.17, 76181.52, 0.00, 0.00, 0.00
71, 100139.73, 124250.48, 23870.34, 19971.06, 12120.77, 29686.20, 99217.11, 76184.22, 0.00, 0.00, 0.00
72, 100136.41, 124249.14, 23866.92, 19968.56, 12115.83, 29684.23, 99213.98, 76180.35, 0.00, 0.00, 0.00
73, 100133.64, 124248.00, 23867.24, 19963.26, 12106.46, 29675.56, 99207.25, 76176.77, 0.00, 0.00, 0.00
74, 100132.82, 124249.95, 23866.74, 19962.10, 12104.88, 29674.13, 99204.84, 76173.00, 0.00, 0.00, 0.00
75, 100132.15, 124248.94, 23864.17, 19962.14, 12109.42, 29676.05, 99201.58, 76170.85, 0.00, 0.00, 0.00
76, 100143.55, 124255.73, 23868.22, 19964.18, 12116.75, 29682.18, 99206.07, 76180.69, 0.00, 0.00, 0.00
77, 100142.65, 124255.53, 23866.05, 19963.93, 12092.25, 29676.39, 99205.94, 76182.03, 0.09, -0.19, 0.99
78, 100139.86, 124249.45, 23867.44, 19967.17, 12102.35, 29676.61, 99210.09, 76187.33, 0.00, 0.00, 0.00
79, 100140.70, 124247.33, 23865.05, 19968.73, 12131.77, 29682.15, 99208.02, 76192.87, 0.00, 0.00, 0.00
80, 100141.42, 124249.03, 23861.80, 19970.41, 12118.24, 29679.29, 99203.23, 76187.44, 0.00, 0.00, 0.00
81, 100143.16, 124253.21, 23864.87, 19976.74, 12127.85, 29679.63, 99204.39, 76184.11, 0.00, 0.00, 0.00
82, 100139.01, 124254.04, 23862.30, 19968.69, 12104.72, 29677.28, 99205.45, 76189.07, 0.00, 0.00, 0.00
83, 100137.35, 124257.57, 23862.79, 19958.12, 12102.60, 29672.68, 99198.45, 76183.70, 0.00, 0.00, 0.00
84, 100142.41, 124261.97, 23868.00, 19968.80, 12104.59, 29666.15, 99195.09, 76181.45, 0.00, 0.00, 0.00
85, 100142.59, 124262.91, 23868.29, 19975.89, 12132.55, 29674.82, 99198.23, 76185.98, 0.00, 0.00, 0.00
86, 100147.16, 124261.23, 23866.28, 19972.04, 12121.89, 29675.67, 99198.67, 76186.99, 0.00, 0.00, 0.00
87, 100144.71, 124262.15, 23865.27, 19969.00, 12111.67, 29671.45, 99196.62, 76183.41, 0.09, -0.20, 0.99
88, 100144.35, 124263.83, 23866.34, 19968.62, 12119.85, 29670.40, 99194.67, 76187.05, 0.00, 0.00, 0.00
89, 100144.02, 124266.71, 23864.04, 19966.66, 12106.22, 29669.46, 99197.48, 76187.82, 0.00, 0.00, 0.00
90, 100143.43, 124268.90, 23863.15, 19972.20, 12121.57, 29678.11, 99199.09, 76181.18, 0.00, 0.00, 0.00
91, 100142.95, 124266.69, 23870.14, 19973.14, 12124.99, 29677.66, 99194.67, 76178.77, 0.00, 0.00, 0.00
92, 100144.75, 124264.66, 23867.84, 19965.99, 12130.72, 29678.44, 99192.30, 76177.38, 0.00, 0.00, 0.00
93, 100140.46, 124263.91, 23866.66, 19961.16, 12121.31, 29673.71, 99190.65, 76177.72, 0.00, 0.00, 0.00
94, 100139.23, 124265.21, 23865.81, 19963.55, 12107.85, 29667.20, 99188.19, 76175.34, 0.00, 0.00, 0.00
95, 100138.56, 124266.09, 23864.80, 19974.14, 12112.48, 29669.66, 99187.45, 76178.01, 0.00, 0.00, 0.00
96, 100136.93, 124266.77, 23865.63, 19975.40, 12137.51, 29676.61, 99186.78, 76177.16, 0.00, 0.00, 0.00
97, 100138.00, 124267.07, 23867.50, 19973.94, 12126.04, 29675.16, 99185.55, 76177.85, 0.08, -0.20, 0.98
98, 100134.25, 124267.34, 23866.61, 19967.44, 12107.07, 29669.64, 99180.37, 76173.83, 0.00, 0.00, 0.00
99, 100124.52, 124268.52, 23864.76, 19964.09, 12108.59, 29670.20, 99174.80, 76170.23, 0.00, 0.00, 0.00
100, 100124.95, 124263.52, 23862.70, 19963.53, 12108.97, 29669.10, 99170.59, 76166.90, 0.00, 0.00, 0.00
101, 100124.23, 124259.45, 23863.91, 19967.68, 12103.65, 29668.79, 99171.40, 76162.88, 0.00, 0.00, 0.00
102, 100126.06, 124259.73, 23863.86, 19965.65, 12114.60, 29671.04, 99171.42, 76161.06, 0.00, 0.00, 0.00
103, 100133.38, 124262.06, 23862.56, 19964.40, 12114.31, 29671.72, 99170.46, 76163.86, 0.00, 0.00, 0.00
104, 100125.89, 124262.20, 23857.56, 19963.44, 12108.45, 29668.45, 99171.11, 76161.80, 0.00, 0.00, 0.00
105, 100128.32, 124263.58, 23855.59, 19961.09, 12103.09, 29667.31, 99172.12, 76157.71, 0.00, 0.00, 0.00
106, 100127.92, 124264.90, 23862.99, 19954.43, 12101.90, 29665.35, 99170.15, 76157.33, 0.00, 0.00, 0.00
107, 100125.02, 124264.59, 23869.38, 19951.66, 12106.58, 29663.65, 99169.52, 76159.99, 0.08, -0.20, 0.98
108, 100120.45, 124264.02, 23863.28, 19957.04, 12093.28, 29660.50, 99166.93, 76157.06, 0.00, 0.00, 0.00
109, 100121.95, 124267.56, 23863.48, 19959.19, 12090.08, 29660.56, 99166.88, 76159.23, 0.00, 0.00, 0.00
110, 100124.59, 124264.79, 23861.74, 19955.90, 12103.45, 29659.60, 99166.10, 76162.98, 0.00, 0.00, 0.00
111, 100123.07, 124257.75, 23858.45, 19953.94, 12108.61, 29663.76, 99165.99, 76160.80, 0.00, 0.00, 0.00
112, 100117.91, 124256.34, 23858.09, 19951.97, 12100.83, 29665.53, 99166.23, 76155.90, 0.00, 0.00, 0.00
113, 100115.20, 124259.47, 23857.78, 19952.87, 12086.55, 29659.31, 99161.97, 76153.38, 0.00, 0.00, 0.00
114, 100113.21, 124258.80, 23853.91, 19955.01, 12111.25, 29661.26, 99159.13, 76148.32, 0.00, 0.00, 0.00
115, 100116.12, 124261.55, 23855.77, 19960.91, 12122.56, 29665.50, 99161.55, 76151.07, 0.00, 0.00, 0.00
116, 100116.23, 124262.82, 23858.34, 19959.97, 12111.67, 29661.70, 99157.72, 76149.80, 0.00, 0.00, 0.00
117, 100109.33, 124257.34, 23851.12, 19954.38, 12080.13, 29651.82, 99150.23, 76144.41, 0.08, -0.20, 0.98
118, 100102.22, 124261.70, 23857.04, 19954.83, 12101.26, 29654.93, 99146.03, 76140.99, 0.00, 0.00, 0.00
119, 100104.27, 124263.29, 23861.51, 19950.99, 12104.61, 29652.20, 99142.97, 76139.31, 0.00, 0.00, 0.00
120, 100110.87, 124256.56, 23860.04, 19954.36, 12101.52, 29652.25, 99143.20, 76140.95, 0.00, 0.00, 0.00
121, 100107.73, 124252.47, 23859.88, 19957.29, 12109.04, 29656.72, 99144.65, 76141.98, 0.00, 0.00, 0.00
122, 100107.94, 124252.00, 23856.89, 19952.55, 12097.50, 29653.34, 99146.44, 76145.95, 0.00, 0.00, 0.00
123, 100108.88, 124252.12, 23856.60, 19956.78, 12101.30, 29652.87, 99146.55, 76146.00, 0.00, 0.00, 0.00
124, 100103.71, 124252.70, 23861.67, 19962.52, 12111.43, 29659.60, 99149.97, 76146.00, 0.00, 0.00, 0.00
125, 100110.80, 124254.38, 23862.52, 19966.41, 12115.11, 29665.48, 99155.64, 76149.95, 0.00, 0.00, 0.00
126, 100111.52, 124253.50, 23861.54, 19965.87, 12119.00, 29669.21, 99158.62, 76148.61, 0.00, 0.00, 0.00
127, 100110.02, 124251.73, 23858.21, 19962.52, 12115.00, 29668.90, 99159.11, 76150.49, 0.08, -0.20, 0.98
128, 100113.75, 124250.48, 23856.11, 19955.62, 12091.04, 29662.13, 99159.53, 76154.47, 0.00, 0.00, 0.00
129, 100112.55, 124250.08, 23856.20, 19954.21, 12096.52, 29659.91, 99159.11, 76151.61, 0.00, 0.00, 0.00
130, 100108.52, 124251.66, 23853.76, 19958.01, 12116.81, 29662.66, 99158.95, 76150.09, 0.00, 0.00, 0.00
131, 100107.27, 124254.93, 23854.32, 19963.88, 12124.08, 29669.97, 99163.09, 76150.89, 0.00, 0.00, 0.00
132, 100114.76, 124250.39, 23854.52, 19964.51, 12121.71, 29672.25, 99163.98, 76151.48, 0.00, 0.00, 0.00
133, 100114.38, 124244.80, 23851.34, 19956.66, 12107.09, 29669.06, 99162.10, 76150.67, 0.00, 0.00, 0.00
134, 100106.33, 124244.85, 23852.75, 19959.79, 12101.88, 29668.34, 99159.47, 76152.19, 0.00, 0.00, 0.00
135, 100114.63, 124251.17, 23856.75, 19970.52, 12108.45, 29676.57, 99163.63, 76157.60, 0.00, 0.00, 0.00
136, 100119.85, 124250.84, 23860.51, 19970.57, 12111.58, 29671.72, 99158.44, 76154.98, 0.00, 0.00, 0.00
137, 100114.82, 124249.79, 23856.80, 19964.24, 12103.71, 29662.57, 99151.13, 76149.95, 0.08, -0.19, 0.98
138, 100114.42, 124251.80, 23855.03, 19962.10, 12104.90, 29664.65, 99151.59, 76147.43, 0.00, 0.00, 0.00
139, 100115.34, 124253.14, 23855.84, 19961.61, 12118.40, 29669.21, 99151.42, 76147.77, 0.00, 0.00, 0.00
140, 100113.05, 124258.69, 23858.38, 19962.61, 12132.77, 29675.58, 99154.52, 76146.87, 0.00, 0.00, 0.00
141, 100114.87, 124257.43, 23861.49, 19963.17, 12131.03, 29678.62, 99158.39, 76150.78, 0.00, 0.00, 0.00
142, 100113.21, 124249.41, 23856.73, 19959.44, 12114.56, 29672.88, 99155.76, 76149.66, 0.00, 0.00, 0.00
143, 100115.18, 124252.65, 23859.39, 19960.42, 12110.51, 29674.49, 99159.47, 76152.19, 0.00, 0.00, 0.00
144, 100115.49, 124253.14, 23858.61, 19958.30, 12113.48, 29672.68, 99159.51, 76154.94, 0.00, 0.00, 0.00
145, 100112.63, 124253.48, 23860.35, 19961.25, 12129.53, 29680.39, 99163.73, 76157.58, 0.00, 0.00, 0.00
146, 100113.08, 124254.73, 23861.18, 19962.92, 12121.04, 29679.27, 99164.47, 76157.27, 0.00, 0.00, 0.00
147, 100115.77, 124255.42, 23863.41, 19960.02, 12110.64, 29675.65, 99163.87, 76154.52, 0.08, -0.19, 0.98
148, 100117.66, 124256.20, 23860.40, 19960.35, 12109.53, 29673.08, 99165.19, 76155.66, 0.00, 0.00, 0.00
149, 100120.32, 124256.65, 23858.45, 19961.09, 12092.72, 29673.97, 99171.05, 76155.27, 0.00, 0.00, 0.00
150, 100121.06, 124256.83, 23856.60, 19961.02, 12114.31, 29677.71, 99174.38, 76157.11, 0.00, 0.00, 0.00
151, 100120.14, 124263.16, 23858.70, 19960.64, 12136.17, 29680.48, 99172.92, 76156.15, 0.00, 0.00, 0.00
152, 100116.05, 124260.67, 23861.40, 19956.44, 12108.77, 29671.18, 99166.69, 76155.70, 0.00, 0.00, 0.00
153, 100108.52, 124252.96, 23856.87, 19950.88, 12094.95, 29663.69, 99160.78, 76151.19, 0.00, 0.00, 0.00
154, 100109.37, 124252.45, 23853.96, 19948.46, 12091.98, 29662.28, 99161.56, 76149.15, 0.00, 0.00, 0.00
155, 100111.45, 124255.42, 23855.79, 19950.23, 12122.27, 29675.70, 99164.31, 76151.14, 0.00, 0.00, 0.00
156, 100110.42, 124255.73, 23855.97, 19947.66, 12120.59, 29672.43, 99159.45, 76150.80, 0.00, 0.00, 0.00
157, 100113.30, 124256.18, 23853.80, 19948.53, 12117.86, 29667.56, 99153.14, 76151.30, 0.08, -0.19, 0.99
158, 100113.64, 124254.51, 23851.37, 19943.70, 12100.74, 29659.33, 99148.06, 76156.15, 0.00, 0.00, 0.00
159, 100115.34, 124254.23, 23851.66, 19945.89, 12080.45, 29653.57, 99145.23, 76156.55, 0.00, 0.00, 0.00
160, 100106.82, 124252.18, 23850.83, 19941.94, 12086.28, 29646.71, 99137.88, 76146.89, 0.00, 0.00, 0.00
161, 100108.30, 124259.67, 23855.19, 19950.29, 12116.01, 29655.36, 99140.96, 76142.91, 0.00, 0.00, 0.00
162, 100109.17, 124253.73, 23847.88, 19946.00, 12110.93, 29654.75, 99137.88, 76140.97, 0.00, 0.00, 0.00
163, 100105.55, 124246.03, 23843.74, 19938.54, 12092.49, 29650.86, 99128.40, 76140.41, 0.00, 0.00, 0.00
164, 100105.63, 124244.80, 23845.33, 19937.71, 12086.50, 29646.75, 99125.73, 76139.52, 0.00, 0.00, 0.00
165, 100104.77, 124245.45, 23847.92, 19944.57, 12099.42, 29649.43, 99128.04, 76140.55, 0.00, 0.00, 0.00
166, 100105.32, 124246.98, 23849.15, 19943.97, 12099.54, 29651.91, 99129.16, 76144.88, 0.00, 0.00, 0.00
167, 100106.40, 124247.78, 23852.44, 19943.75, 12101.48, 29652.40, 99126.16, 76141.86, 0.08, -0.20, 0.99
168, 100105.21, 124246.77, 23849.00, 19939.92, 12087.80, 29650.79, 99125.22, 76137.70, 0.00, 0.00, 0.00
169, 100107.38, 124248.49, 23849.06, 19943.88, 12077.16, 29651.85, 99128.13, 76137.44, 0.00, 0.00, 0.00
170, 100109.52, 124248.38, 23845.85, 19944.44, 12104.01, 29657.93, 99128.66, 76135.49, 0.00, 0.00, 0.00
171, 100110.51, 124251.27, 23846.43, 19942.11, 12091.18, 29654.97, 99128.17, 76135.76, 0.00, 0.00, 0.00
172, 100101.79, 124250.80, 23851.46, 19939.16, 12082.75, 29652.36, 99124.84, 76132.68, 0.00, 0.00, 0.00
173, 100097.95, 124247.29, 23851.17, 19944.08, 12111.05, 29655.87, 99122.61, 76131.85, 0.00, 0.00, 0.00
174, 100095.84, 124246.55, 23852.55, 19948.82, 12109.42, 29659.74, 99126.23, 76134.80, 0.00, 0.00, 0.00
175, 100096.90, 124247.09, 23853.45, 19950.90, 12117.91, 29664.41, 99127.62, 76134.82, 0.00, 0.00, 0.00
176, 100096.43, 124244.54, 23850.41, 19948.02, 12119.81, 29665.23, 99128.48, 76137.23, 0.08, -0.20, 0.98
177, 100103.23, 124242.79, 23843.70, 19942.31, 12097.21, 29659.38, 99132.35, 76151.30, 0.00, 0.00, 0.00
178, 100118.96, 124240.47, 23838.74, 19938.47, 12077.54, 29650.10, 99132.66, 76166.98, 0.00, 0.00, 0.00
179, 100113.33, 124245.27, 23846.45, 19942.67, 12099.49, 29655.94, 99127.05, 76149.13, 0.00, 0.00, 0.00
180, 100096.52, 124245.05, 23843.86, 19940.91, 12105.84, 29654.80, 99120.23, 76126.28, 0.00, 0.00, 0.00
181, 100094.86, 124243.11, 23843.14, 19940.93, 12101.14, 29654.08, 99119.84, 76122.08, 0.00, 0.00, 0.00
182, 100104.88, 124246.57, 23842.11, 19941.29, 12088.58, 29651.80, 99121.04, 76130.89, 0.00, 0.00, 0.00
183, 100101.93, 124247.87, 23841.26, 19941.00, 12088.58, 29653.46, 99119.99, 76131.23, 0.00, 0.00, 0.00
184, 100094.38, 124237.65, 23838.04, 19932.79, 12085.01, 29646.93, 99115.34, 76127.27, 0.00, 0.00, 0.00
185, 100087.48, 124234.81, 23843.19, 19940.44, 12086.66, 29647.89, 99116.70, 76127.27, 0.00, 0.00, 0.00
186, 100088.18, 124237.48, 23842.81, 19942.65, 12107.27, 29654.19, 99120.51, 76121.05, 0.08, -0.19, 0.98
187, 100090.46, 124236.84, 23841.55, 19936.93, 12099.76, 29653.90, 99120.22, 76117.16, 0.00, 0.00, 0.00
188, 100093.45, 124240.00, 23841.17, 19938.16, 12095.83, 29652.74, 99121.29, 76120.85, 0.00, 0.00, 0.00
189, 100092.29, 124247.51, 23845.18, 19944.42, 12082.97, 29656.12, 99124.38, 76125.19, 0.00, 0.00, 0.00
190, 100086.37, 124250.05, 23841.02, 19940.24, 12076.74, 29651.67, 99119.08, 76121.03, 0.00, 0.00, 0.00
191, 100097.30, 124245.72, 23844.57, 19937.55, 12113.77, 29656.61, 99122.48, 76122.80, 0.00, 0.00, 0.00
192, 100096.95, 124241.48, 23848.37, 19937.11, 12107.29, 29658.86, 99122.52, 76123.36, 0.00, 0.00, 0.00
193, 100095.42, 124241.88, 23848.66, 19938.02, 12103.42, 29659.20, 99124.46, 76128.38, 0.00, 0.00, 0.00
194, 100095.83, 124240.85, 23845.22, 19934.16, 12097.14, 29655.47, 99123.63, 76126.24, 0.00, 0.00, 0.00
195, 100096.59, 124244.85, 23848.89, 19942.20, 12113.37, 29660.25, 99130.16, 76127.34, 0.00, 0.00, 0.00
196, 100090.64, 124243.93, 23846.20, 19936.15, 12108.90, 29658.01, 99127.05, 76124.70, 0.08, -0.19, 0.98
197, 100094.51, 124247.84, 23844.86, 19937.44, 12103.45, 29657.97, 99127.32, 76129.16, 0.00, 0.00, 0.00
198, 100091.60, 124245.61, 23839.70, 19941.82, 12085.12, 29650.55, 99123.92, 76122.13, 0.00, 0.00, 0.00
199, 100094.05, 124246.55, 23841.06, 19938.87, 12086.75, 29653.68, 99124.64, 76121.52, 0.00, 0.00, 0.00
200, 100090.95, 124251.80, 23849.71, 19938.83, 12099.89, 29657.28, 99126.48, 76119.91, 0.00, 0.00, 0.00
201, 100087.29, 124250.91, 23846.94, 19937.78, 12084.29, 29653.48, 99126.45, 76119.16, 0.00, 0.00, 0.00
202, 100093.90, 124244.38, 23843.25, 19937.42, 12069.99, 29645.97, 99127.03, 76122.28, 0.00, 0.00, 0.00
203, 100097.66, 124244.34, 23843.92, 19933.42, 12099.31, 29655.91, 99130.74, 76124.77, 0.00, 0.00, 0.00
204, 100099.65, 124248.78, 23850.63, 19941.46, 12105.79, 29658.55, 99136.13, 76128.90, 0.00, 0.00, 0.00
205, 100102.91, 124251.16, 23856.06, 19951.97, 12102.44, 29658.71, 99142.10, 76130.13, 0.00, 0.00, 0.00
206, 100102.73, 124249.19, 23854.03, 19951.12, 12109.91, 29661.90, 99143.87, 76128.72, 0.07, -0.19, 0.98
207, 100099.89, 124244.16, 23843.88, 19942.72, 12121.93, 29657.01, 99139.77, 76124.88, 0.00, 0.00, 0.00
208, 100097.03, 124244.60, 23840.12, 19938.43, 12121.55, 29654.82, 99133.13, 76123.53, 0.00, 0.00, 0.00
209, 100094.28, 124249.95, 23842.13, 19935.65, 12107.07, 29652.11, 99129.47, 76120.95, 0.00, 0.00, 0.00
210, 100099.11, 124253.14, 23844.57, 19934.76, 12106.89, 29651.55, 99135.10, 76121.50, 0.00, 0.00, 0.00
211, 100099.60, 124249.59, 23844.04, 19938.63, 12110.51, 29652.79, 99140.87, 76121.50, 0.00, 0.00, 0.00
212, 100096.12, 124245.97, 23841.58, 19938.05, 12098.73, 29650.19, 99137.38, 76116.27, 0.00, 0.00, 0.00
213, 100099.02, 124248.23, 23845.24, 19937.96, 12082.66, 29646.59, 99140.29, 76119.76, 0.00, 0.00, 0.00
214, 100097.81, 124252.09, 23844.82, 19942.38, 12080.38, 29647.38, 99152.07, 76121.63, 0.00, 0.00, 0.00
215, 100091.24, 124245.09, 23837.13, 19932.84, 12073.54, 29638.41, 99149.85, 76110.26, 0.00, 0.00, 0.00
216, 100088.91, 124244.02, 23841.00, 19934.49, 12094.26, 29643.15, 99151.62, 76106.59, 0.08, -0.19, 0.98
217, 100084.65, 124245.54, 23841.24, 19936.53, 12101.41, 29644.80, 99158.62, 76105.41, 0.00, 0.00, 0.00
218, 100086.66, 124248.74, 23840.32, 19932.41, 12084.16, 29642.23, 99165.99, 76110.08, 0.00, 0.00, 0.00
219, 100095.09, 124246.23, 23837.73, 19932.01, 12089.37, 29644.76, 99169.91, 76112.74, 0.00, 0.00, 0.00
220, 100095.94, 124249.95, 23837.62, 19933.40, 12094.44, 29650.33, 99174.24, 76114.75, 0.00, 0.00, 0.00
221, 100098.17, 124253.84, 23840.84, 19934.71, 12094.91, 29651.69, 99180.25, 76120.18, 0.00, 0.00, 0.00
222, 100097.55, 124248.85, 23841.11, 19936.82, 12082.75, 29648.98, 99183.52, 76119.96, 0.00, 0.00, 0.00
223, 100092.00, 124246.57, 23837.84, 19934.25, 12074.77, 29646.93, 99183.43, 76116.70, 0.00, 0.00, 0.00
224, 100093.77, 124250.73, 23844.42, 19941.42, 12104.21, 29662.33, 99190.18, 76118.20, 0.00, 0.00, 0.00
225, 100096.95, 124250.68, 23843.05, 19938.45, 12099.76, 29660.09, 99187.65, 76120.45, 0.00, 0.00, 0.00
226, 100094.38, 124249.97, 23844.50, 19940.42, 12103.76, 29663.94, 99187.67, 76119.55, 0.09, -0.19, 0.98
227, 100094.20, 124239.95, 23845.27, 19940.44, 12091.24, 29664.34, 99194.40, 76118.20, 0.00, 0.00, 0.00
228, 100096.90, 124226.19, 23847.50, 19943.92, 12107.89, 29664.61, 99196.93, 76122.46, 0.00, 0.00, 0.00
229, 100105.15, 124225.36, 23847.90, 19947.21, 12107.02, 29668.25, 99201.64, 76131.11, 0.00, 0.00, 0.00
230, 100110.71, 124222.37, 23845.64, 19940.66, 12096.18, 29670.91, 99208.64, 76131.27, 0.00, 0.00, 0.00
231, 100106.42, 124220.40, 23846.85, 19935.03, 12082.21, 29663.71, 99206.38, 76125.81, 0.00, 0.00, 0.00
232, 100100.81, 124219.91, 23841.85, 19926.42, 12097.39, 29658.04, 99199.97, 76119.84, 0.00, 0.00, 0.00
233, 100098.98, 124223.46, 23840.06, 19923.41, 12085.43, 29654.55, 99198.07, 76118.51, 0.00, 0.00, 0.00
234, 100102.66, 124228.11, 23845.53, 19922.15, 12076.22, 29653.72, 99199.90, 76121.10, 0.00, 0.00, 0.00
235, 100101.59, 124234.84, 23849.58, 19933.24, 12085.05, 29663.58, 99202.98, 76124.34, 0.00, 0.00, 0.00
236, 100097.68, 124235.57, 23847.72, 19939.65, 12101.93, 29665.75, 99200.57, 76121.63, 0.08, -0.19, 0.98
237, 100099.45, 124237.90, 23846.99, 19939.88, 12105.35, 29663.31, 99201.69, 76119.55, 0.00, 0.00, 0.00
238, 100104.27, 124240.96, 23843.79, 19933.04, 12091.53, 29663.42, 99208.39, 76122.41, 0.00, 0.00, 0.00
239, 100110.06, 124244.16, 23845.20, 19935.72, 12089.41, 29666.49, 99217.55, 76125.21, 0.00, 0.00, 0.00
240, 100104.43, 124250.59, 23852.91, 19941.51, 12079.87, 29662.64, 99224.82, 76123.71, 0.00, 0.00, 0.00
241, 100103.63, 124249.07, 23856.20, 19938.34, 12100.63, 29659.15, 99222.84, 76115.76, 0.00, 0.00, 0.00
242, 100103.71, 124243.98, 23850.29, 19934.02, 12100.09, 29659.96, 99226.43, 76118.02, 0.00, 0.00, 0.00
243, 100102.82, 124244.91, 23848.53, 19934.18, 12097.01, 29662.91, 99236.84, 76120.36, 0.00, 0.00, 0.00
244, 100105.44, 124249.03, 23850.41, 19936.73, 12098.13, 29667.36, 99246.21, 76121.57, 0.00, 0.00, 0.00
245, 100101.08, 124250.13, 23853.31, 19939.77, 12093.23, 29664.52, 99250.41, 76119.60, 0.00, 0.00, 0.00
246, 100095.53, 124251.76, 23854.25, 19942.99, 12079.75, 29658.26, 99250.66, 76112.91, 0.08, -0.20, 0.98
247, 100104.79, 124254.41, 23853.31, 19945.36, 12080.74, 29659.51, 99255.09, 76119.16, 0.00, 0.00, 0.00
248, 100109.13, 124257.26, 23853.51, 19943.37, 12109.64, 29669.84, 99262.88, 76123.00, 0.00, 0.00, 0.00
249, 100107.11, 124257.63, 23855.26, 19942.92, 12101.48, 29669.79, 99269.66, 76122.55, 0.00, 0.00, 0.00
250, 100107.52, 124258.15, 23854.50, 19944.30, 12093.46, 29668.05, 99272.16, 76125.88, 0.00, 0.00, 0.00
251, 100107.65, 124259.29, 23854.54, 19948.73, 12098.24, 29677.21, 99274.55, 76126.66, 0.00, 0.00, 0.00
252, 100109.39, 124263.94, 23854.03, 19948.46, 12114.18, 29681.69, 99277.93, 76126.28, 0.00, 0.00, 0.00
253, 100112.23, 124264.61, 23855.77, 19948.26, 12108.97, 29677.62, 99279.72, 76128.41, 0.00, 0.00, 0.00
254, 100105.55, 124257.91, 23856.29, 19945.20, 12090.80, 29670.04, 99276.09, 76120.02, 0.00, 0.00, 0.00
255, 100100.63, 124253.05, 23850.79, 19942.25, 12106.17, 29668.86, 99275.59, 76114.98, 0.00, 0.00, 0.00
0, 100105.26, 124256.49, 23851.48, 19939.74, 12111.81, 29671.52, 99279.25, 76122.87, 0.08, -0.19, 0.99
1, 100106.62, 124257.55, 23852.69, 19937.89, 12102.80, 29668.34, 99281.75, 76121.59, 0.00, 0.00, 0.00
2, 100099.00, 124254.33, 23851.34, 19939.83, 12086.15, 29658.48, 99274.17, 76112.70, 0.00, 0.00, 0.00
3, 100097.01, 124253.52, 23848.89, 19939.68, 12084.87, 29657.97, 99272.79, 76116.02, 0.00, 0.00, 0.00
4, 100092.43, 124254.20, 23847.14, 19940.37, 12087.73, 29658.42, 99276.72, 76116.85, 0.00, 0.00, 0.00
5, 100103.49, 124255.65, 23846.49, 19939.70, 12093.50, 29657.25, 99280.23, 76114.13, 0.00, 0.00, 0.00
6, 100110.53, 124259.91, 23846.47, 19931.74, 12078.28, 29652.45, 99281.88, 76117.25, 0.00, 0.00, 0.00
7, 100100.95, 124256.05, 23849.65, 19932.82, 12048.22, 29645.97, 99281.48, 76113.01, 0.00, 0.00, 0.00
8, 100095.58, 124251.84, 23850.85, 19934.63, 12064.20, 29646.71, 99284.08, 76113.79, 0.00, 0.00, 0.00
9, 100097.26, 124248.38, 23837.89, 19925.86, 12095.80, 29649.86, 99285.20, 76117.61, 0.00, 0.00, 0.00
10, 100106.48, 124246.84, 23834.13, 19922.65, 12087.62, 29644.65, 99285.98, 76117.86, 0.08, -0.19, 0.98
11, 100108.01, 124251.06, 23841.71, 19925.82, 12072.69, 29645.41, 99289.30, 76117.97, 0.00, 0.00, 0.00
12, 100101.68, 124250.17, 23839.97, 19924.81, 12091.60, 29654.01, 99289.62, 76116.74, 0.00, 0.00, 0.00
13, 100098.88, 124249.09, 23839.99, 19928.46, 12090.68, 29653.37, 99290.09, 76111.45, 0.00, 0.00, 0.00
14, 100095.73, 124250.26, 23840.57, 19928.28, 12089.25, 29654.71, 99292.23, 76106.52, 0.00, 0.00, 0.00
15, 100094.10, 124249.77, 23841.02, 19930.04, 12094.26, 29658.15, 99293.62, 76107.76, 0.00, 0.00, 0.00
16, 100095.31, 124251.76, 23843.46, 19930.45, 12090.86, 29659.15, 99293.80, 76108.67, 0.00, 0.00, 0.00
17, 100098.26, 124253.63, 23841.06, 19928.61, 12081.03, 29658.33, 99292.91, 76107.11, 0.00, 0.00, 0.00
18, 100099.55, 124256.02, 23839.54, 19927.43, 12072.51, 29656.16, 99293.35, 76108.05, 0.00, 0.00, 0.00
19, 100103.42, 124253.81, 23835.18, 19924.63, 12060.29, 29657.23, 99292.86, 76111.40, 0.00, 0.00, 0.00
20, 100100.38, 124246.10, 23834.74, 19921.01, 12090.37, 29658.71, 99287.56, 76103.73, 0.09, -0.20, 0.98
21, 100096.61, 124243.55, 23835.01, 19924.84, 12104.88, 29657.72, 99287.12, 76098.26, 0.00, 0.00, 0.00
22, 100094.04, 124245.56, 23837.89, 19930.69, 12086.37, 29657.84, 99290.73, 76099.93, 0.00, 0.00, 0.00
23, 100096.27, 124246.91, 23839.72, 19932.19, 12081.61, 29657.86, 99292.81, 76106.52, 0.00, 0.00, 0.00
24, 100093.63, 124245.48, 23835.70, 19929.28, 12087.13, 29652.67, 99289.55, 76103.55, 0.00, 0.00, 0.00
25, 100089.12, 124245.61, 23832.84, 19922.60, 12075.57, 29652.16, 99289.28, 76099.22, 0.00, 0.00, 0.00
26, 100087.06, 124250.66, 23837.06, 19921.77, 12095.74, 29659.51, 99290.49, 76097.38, 0.00, 0.00, 0.00
27, 100088.38, 124251.17, 23834.20, 19923.12, 12091.35, 29660.25, 99290.60, 76099.28, 0.00, 0.00, 0.00
28, 100094.69, 124245.16, 23833.96, 19927.12, 12097.79, 29665.55, 99292.21, 76098.05, 0.00, 0.00, 0.00
29, 100099.96, 124242.97, 23837.87, 19933.98, 12110.64, 29670.67, 99300.95, 76103.40, 0.00, 0.00, 0.00
30, 100094.13, 124246.62, 23839.54, 19941.40, 12111.72, 29671.45, 99303.57, 76100.11, 0.09, -0.20, 0.99
31, 100088.27, 124247.48, 23831.03, 19935.54, 12089.30, 29664.36, 99295.07, 76101.38, 0.00, 0.00, 0.00
32, 100093.12, 124252.80, 23832.61, 19932.37, 12072.02, 29664.50, 99299.01, 76106.15, 0.00, 0.00, 0.00
33, 100093.16, 124252.47, 23835.50, 19930.29, 12084.36, 29662.02, 99298.83, 76102.30, 0.00, 0.00, 0.00
34, 100091.53, 124250.57, 23831.88, 19926.00, 12099.51, 29664.41, 99295.72, 76096.53, 0.00, 0.00, 0.00
35, 100096.38, 124252.36, 23833.40, 19928.97, 12096.56, 29666.22, 99298.29, 76101.34, 0.00, 0.00, 0.00
36, 100100.70, 124254.69, 23834.63, 19934.85, 12099.42, 29663.42, 99301.51, 76104.94, 0.00, 0.00, 0.00
37, 100105.21, 124257.77, 23837.71, 19930.74, 12085.77, 29660.45, 99304.30, 76105.43, 0.00, 0.00, 0.00
38, 100099.00, 124257.21, 23831.50, 19925.02, 12084.38, 29659.94, 99301.51, 76104.31, 0.00, 0.00, 0.00
39, 100099.73, 124253.34, 23827.21, 19925.02, 12088.81, 29662.02, 99302.65, 76104.91, 0.00, 0.00, 0.00
40, 100091.63, 124247.84, 23828.57, 19924.88, 12088.05, 29658.30, 99293.44, 76093.12, 0.08, -0.20, 0.99
41, 100087.27, 124248.09, 23828.72, 19923.29, 12077.94, 29656.54, 99288.75, 76092.20, 0.00, 0.00, 0.00
42, 100085.59, 124249.19, 23826.00, 19920.41, 12067.37, 29654.48, 99289.71, 76091.86, 0.00, 0.00, 0.00
43, 100086.64, 124251.42, 23826.36, 19916.83, 12065.47, 29651.80, 99288.52, 76091.26, 0.00, 0.00, 0.00
44, 100094.04, 124254.13, 23830.67, 19923.23, 12076.96, 29651.35, 99287.49, 76091.17, 0.00, 0.00, 0.00
45, 100093.23, 124252.92, 23826.38, 19924.10, 12069.07, 29646.97, 99283.88, 76087.91, 0.00, 0.00, 0.00
46, 100090.68, 124256.23, 23825.08, 19922.24, 12067.44, 29651.55, 99282.89, 76088.60, 0.00, 0.00, 0.00
47, 100088.85, 124259.06, 23825.93, 19921.71, 12075.28, 29653.68, 99280.19, 76089.42, 0.00, 0.00, 0.00
48, 100086.21, 124253.92, 23825.75, 19920.88, 12102.91, 29652.40, 99274.45, 76086.21, 0.00, 0.00, 0.00
49, 100085.59, 124249.68, 23823.70, 19917.28, 12097.23, 29651.80, 99271.65, 76086.48, 0.00, 0.00, 0.00
50, 100087.35, 124250.30, 23825.71, 19918.71, 12094.39, 29657.61, 99275.09, 76084.58, 0.08, -0.20, 0.98
51, 100079.35, 124248.02, 23820.41, 19917.10, 12085.21, 29654.86, 99274.45, 76079.26, 0.00, 0.00, 0.00
52, 100076.89, 124243.69, 23815.87, 19911.56, 12074.66, 29647.42, 99269.70, 76077.98, 0.00, 0.00, 0.00
53, 100077.95, 124245.16, 23820.46, 19914.82, 12070.37, 29642.12, 99267.23, 76074.45, 0.00, 0.00, 0.00
54, 100076.78, 124246.99, 23823.16, 19924.59, 12088.45, 29645.03, 99267.65, 76073.65, 0.00, 0.00, 0.00
55, 100081.05, 124249.43, 23823.00, 19926.67, 12101.59, 29652.92, 99275.56, 76081.11, 0.00, 0.00, 0.00
56, 100088.05, 124249.21, 23815.02, 19913.57, 12083.55, 29644.36, 99269.30, 76074.56, 0.00, 0.00, 0.00
57, 100088.29, 124251.98, 23811.89, 19906.82, 12058.36, 29637.03, 99267.70, 76075.97, 0.00, 0.00, 0.00
58, 100065.76, 124254.21, 23824.70, 19918.87, 12059.46, 29645.77, 99275.83, 76066.25, 0.00, 0.00, 0.00
59, 100068.66, 124251.48, 23830.18, 19922.98, 12084.43, 29650.88, 99282.22, 76071.88, 0.00, 0.00, 0.00
60, 100075.84, 124249.45, 23824.34, 19917.26, 12095.18, 29648.78, 99285.77, 76076.71, 0.08, -0.20, 0.98
61, 100087.17, 124252.90, 23821.39, 19917.08, 12086.88, 29648.47, 99289.98, 76084.93, 0.00, 0.00, 0.00
62, 100087.94, 124254.33, 23821.91, 19918.62, 12077.41, 29647.84, 99296.46, 76089.23, 0.00, 0.00, 0.00
63, 100081.79, 124251.35, 23816.03, 19908.18, 12066.12, 29638.19, 99294.89, 76085.20, 0.00, 0.00, 0.00
64, 100073.65, 124253.09, 23815.85, 19907.31, 12069.63, 29634.90, 99294.78, 76076.75, 0.00, 0.00, 0.00
65, 100083.17, 124262.33, 23827.21, 19921.28, 12078.19, 29642.57, 99302.65, 76083.63, 0.00, 0.00, 0.00
66, 100086.82, 124260.74, 23823.67, 19913.66, 12069.56, 29642.75, 99301.64, 76089.13, 0.00, 0.00, 0.00
67, 100078.44, 124251.11, 23815.65, 19908.16, 12046.16, 29633.47, 99296.30, 76082.05, 0.00, 0.00, 0.00
68, 100076.22, 124252.18, 23818.00, 19912.97, 12064.73, 29634.61, 99297.53, 76084.58, 0.00, 0.00, 0.00
69, 100076.73, 124253.88, 23817.15, 19910.35, 12081.12, 29636.78, 99295.32, 76082.85, 0.00, 0.00, 0.00
70, 100079.24, 124255.89, 23816.03, 19908.63, 12074.99, 29636.98, 99293.17, 76081.80, 0.08, -0.20, 0.98
71, 100085.90, 124260.79, 23818.20, 19909.73, 12067.46, 29641.05, 99291.92, 76084.15, 0.00, 0.00, 0.00
72, 100082.05, 124259.69, 23814.08, 19907.09, 12057.56, 29637.72, 99286.73, 76081.58, 0.00, 0.00, 0.00
73, 100079.06, 124257.52, 23812.72, 19904.96, 12044.42, 29634.75, 99285.26, 76079.08, 0.00, 0.00, 0.00
74, 100076.60, 124260.85, 23817.53, 19907.76, 12046.65, 29633.03, 99285.69, 76077.76, 0.00, 0.00, 0.00
75, 100076.71, 124257.05, 23813.23, 19904.54, 12073.79, 29638.72, 99283.98, 76078.25, 0.00, 0.00, 0.00
76, 100082.19, 124257.99, 23813.12, 19906.44, 12068.42, 29641.90, 99284.26, 76079.50, 0.00, 0.00, 0.00
77, 100080.76, 124265.62, 23817.59, 19911.31, 12078.61, 29643.13, 99286.94, 76081.58, 0.00, 0.00, 0.00
78, 100077.95, 124264.09, 23817.01, 19915.40, 12074.79, 29640.33, 99283.09, 76079.66, 0.00, 0.00, 0.00
79, 100079.09, 124261.77, 23817.55, 19917.86, 12084.40, 29641.56, 99282.71, 76077.47, 0.00, 0.00, 0.00
80, 100077.32, 124261.19, 23812.97, 19912.39, 12083.71, 29638.59, 99279.80, 76076.64, 0.08, -0.19, 0.98
81, 100078.99, 124264.74, 23813.84, 19912.41, 12079.17, 29637.81, 99278.40, 76078.88, 0.00, 0.00, 0.00
82, 100079.15, 124264.59, 23810.60, 19908.83, 12066.95, 29635.17, 99277.64, 76076.62, 0.00, 0.00, 0.00
83, 100076.18, 124264.25, 23805.59, 19906.87, 12050.34, 29631.68, 99279.12, 76079.77, 0.00, 0.00, 0.00
84, 100073.45, 124266.66, 23814.51, 19910.46, 12061.69, 29634.93, 99280.81, 76077.13, 0.00, 0.00, 0.00
85, 100073.02, 124269.57, 23814.91, 19907.60, 12074.28, 29636.82, 99278.11, 76072.23, 0.00, 0.00, 0.00
86, 100072.69, 124269.28, 23810.51, 19906.60, 12055.48, 29632.71, 99272.48, 76071.37, 0.00, 0.00, 0.00
87, 100071.95, 124274.20, 23812.83, 19906.28, 12042.92, 29629.45, 99270.76, 76074.31, 0.00, 0.00, 0.00
88, 100079.09, 124274.60, 23807.36, 19893.48, 12028.75, 29622.83, 99267.29, 76077.38, 0.00, 0.00, 0.00
89, 100077.41, 124267.36, 23804.07, 19892.16, 12033.51, 29618.01, 99268.66, 76070.83, 0.00, 0.00, 0.00
90, 100069.74, 124265.73, 23807.24, 19905.41, 12079.02, 29626.72, 99267.13, 76064.84, 0.08, -0.20, 0.98
91, 100069.47, 124266.82, 23808.81, 19903.96, 12064.87, 29627.33, 99263.83, 76069.94, 0.00, 0.00, 0.00
92, 100067.37, 124265.88, 23806.80, 19898.44, 12047.79, 29624.98, 99263.29, 76069.24, 0.00, 0.00, 0.00
93, 100063.46, 124263.91, 23803.62, 19897.68, 12051.39, 29627.21, 99263.36, 76065.89, 0.00, 0.00, 0.00
94, 100062.37, 124263.05, 23803.45, 19897.99, 12056.26, 29628.78, 99264.83, 76067.63, 0.00, 0.00, 0.00
95, 100064.33, 124263.49, 23801.05, 19891.96, 12040.26, 29622.95, 99264.77, 76062.65, 0.00, 0.00, 0.00
96, 100067.05, 124266.33, 23803.33, 19893.46, 12040.55, 29621.40, 99264.95, 76062.23, 0.00, 0.00, 0.00
97, 100075.22, 124269.81, 23804.92, 19897.57, 12043.86, 29623.03, 99264.97, 76067.50, 0.00, 0.00, 0.00
98, 100073.09, 124271.00, 23804.00, 19894.10, 12031.90, 29617.98, 99262.82, 76069.47, 0.00, 0.00, 0.00
99, 100071.88, 124265.93, 23803.18, 19896.38, 12064.93, 29629.09, 99263.49, 76067.03, 0.00, 0.00, 0.00
100, 100069.27, 124263.76, 23804.81, 19901.17, 12055.93, 29629.00, 99260.88, 76065.64, 0.08, -0.19, 0.98
101, 100064.42, 124265.05, 23805.79, 19898.55, 12065.92, 29632.53, 99258.86, 76062.16, 0.00, 0.00, 0.00
102, 100062.32, 124264.83, 23805.88, 19897.70, 12059.84, 29631.28, 99259.91, 76063.59, 0.00, 0.00, 0.00
103, 100065.59, 124265.28, 23807.09, 19904.14, 12066.03, 29631.95, 99263.71, 76064.26, 0.00, 0.00, 0.00
104, 100061.52, 124265.68, 23809.03, 19907.94, 12062.81, 29630.54, 99264.34, 76060.81, 0.00, 0.00, 0.00
105, 100059.84, 124264.50, 23806.57, 19903.20, 12070.59, 29639.40, 99264.83, 76059.41, 0.00, 0.00, 0.00
106, 100060.22, 124268.45, 23806.75, 19903.38, 12062.25, 29635.42, 99262.38, 76060.23, 0.00, 0.00, 0.00
107, 100063.03, 124268.30, 23806.71, 19909.41, 12050.61, 29626.14, 99258.23, 76060.66, 0.00, 0.00, 0.00
108, 100064.09, 124265.39, 23807.27, 19906.11, 12036.06, 29619.21, 99256.78, 76062.27, 0.00, 0.00, 0.00
109, 100063.64, 124261.55, 23799.94, 19899.42, 12048.44, 29618.29, 99254.20, 76056.63, 0.00, 0.00, 0.00
110, 100064.84, 124259.83, 23798.24, 19898.08, 12044.66, 29615.66, 99252.23, 76056.81, 0.08, -0.19, 0.98
111, 100061.67, 124258.33, 23798.64, 19895.76, 12035.05, 29617.76, 99248.56, 76054.02, 0.00, 0.00, 0.00
112, 100062.19, 124260.63, 23798.93, 19892.78, 12035.05, 29613.24, 99245.97, 76053.71, 0.00, 0.00, 0.00
113, 100064.80, 124262.02, 23797.41, 19894.79, 12035.59, 29615.41, 99251.91, 76055.45, 0.00, 0.00, 0.00
114, 100064.94, 124264.63, 23800.74, 19898.48, 12024.48, 29613.38, 99252.65, 76058.94, 0.00, 0.00, 0.00
115, 100068.06, 124266.33, 23801.39, 19901.28, 12044.75, 29617.87, 99252.76, 76058.52, 0.00, 0.00, 0.00
116, 100065.20, 124267.88, 23803.02, 19896.38, 12043.43, 29617.24, 99249.34, 76053.91, 0.00, 0.00, 0.00
117, 100065.52, 124270.55, 23802.33, 19890.91, 12052.19, 29614.99, 99245.63, 76053.71, 0.00, 0.00, 0.00
118, 100066.56, 124273.19, 23802.01, 19893.81, 12035.65, 29614.05, 99244.89, 76054.06, 0.00, 0.00, 0.00
119, 100059.50, 124263.18, 23799.89, 19894.91, 12028.03, 29609.38, 99239.87, 76046.00, 0.00, 0.00, 0.00
120, 100062.92, 124263.40, 23801.23, 19900.94, 12057.85, 29620.96, 99243.80, 76048.34, 0.08, -0.19, 0.98
121, 100064.95, 124263.94, 23799.04, 19901.05, 12055.73, 29625.27, 99250.03, 76050.83, 0.00, 0.00, 0.00
122, 100064.17, 124261.70, 23796.11, 19897.79, 12036.50, 29619.41, 99249.12, 76053.75, 0.00, 0.00, 0.00
123, 100058.34, 124260.90, 23794.50, 19896.54, 12031.63, 29617.29, 99242.41, 76048.77, 0.00, 0.00, 0.00
124, 100051.16, 124261.03, 23796.78, 19897.84, 12025.08, 29616.71, 99239.98, 76040.63, 0.00, 0.00, 0.00
125, 100053.63, 124261.93, 23796.05, 19891.62, 12042.96, 29618.07, 99244.11, 76043.23, 0.00, 0.00, 0.00
126, 100056.75, 124263.13, 23796.96, 19895.96, 12041.60, 29619.75, 99249.88, 76050.35, 0.00, 0.00, 0.00
127, 100055.86, 124263.87, 23797.81, 19901.79, 12031.14, 29613.51, 99247.62, 76048.70, 0.00, 0.00, 0.00
128, 100063.21, 124265.32, 23798.73, 19901.95, 12036.73, 29612.60, 99248.63, 76054.80, 0.00, 0.00, 0.00
129, 100070.97, 124262.84, 23792.16, 19892.83, 12039.50, 29612.30, 99252.11, 76072.98, 0.00, 0.00, 0.00
130, 100077.74, 124260.90, 23794.50, 19900.61, 12042.63, 29617.47, 99254.28, 76074.47, 0.08, -0.20, 0.98
131, 100059.19, 124262.09, 23806.42, 19915.40, 12061.58, 29626.30, 99249.41, 76042.71, 0.00, 0.00, 0.00
132, 100055.81, 124264.14, 23805.30, 19908.99, 12036.91, 29618.97, 99241.77, 76042.78, 0.00, 0.00, 0.00
133, 100065.49, 124261.68, 23796.72, 19900.34, 12036.48, 29613.80, 99234.99, 76051.70, 0.00, 0.00, 0.00
134, 100061.11, 124262.17, 23798.04, 19895.98, 12041.53, 29605.98, 99230.03, 76046.22, 0.00, 0.00, 0.00
135, 100056.10, 124259.80, 23794.06, 19892.47, 12038.85, 29606.07, 99228.51, 76044.07, 0.00, 0.00, 0.00
136, 100063.10, 124259.06, 23792.07, 19890.91, 12027.27, 29609.02, 99231.08, 76049.59, 0.00, 0.00, 0.00
137, 100065.25, 124256.65, 23786.61, 19885.21, 12012.30, 29603.19, 99231.66, 76052.73, 0.00, 0.00, 0.00
138, 100065.98, 124256.63, 23783.51, 19886.84, 12027.96, 29612.28, 99235.33, 76054.09, 0.00, 0.00, 0.00
139, 100071.91, 124254.84, 23783.08, 19886.48, 12019.45, 29609.42, 99231.86, 76055.36, 0.00, 0.00, 0.00
140, 100071.86, 124255.53, 23788.96, 19887.89, 12025.93, 29610.61, 99230.99, 76054.84, 0.08, -0.19, 0.98
141, 100073.07, 124259.65, 23790.08, 19894.24, 12049.40, 29614.74, 99232.48, 76055.59, 0.00, 0.00, 0.00
142, 100071.48, 124256.72, 23786.35, 19892.07, 12040.30, 29613.54, 99231.04, 76052.84, 0.00, 0.00, 0.00
143, 100065.70, 124251.02, 23787.93, 19891.58, 12032.86, 29614.14, 99229.02, 76046.69, 0.00, 0.00, 0.00
144, 100067.77, 124249.45, 23788.87, 19891.53, 12042.00, 29618.07, 99230.41, 76047.59, 0.00, 0.00, 0.00
145, 100066.45, 124246.95, 23786.35, 19891.31, 12033.15, 29615.95, 99231.44, 76050.60, 0.00, 0.00, 0.00
146, 100064.84, 124247.42, 23786.28, 19894.46, 12037.64, 29618.94, 99234.27, 76052.01, 0.00, 0.00, 0.00
147, 100060.89, 124248.74, 23786.55, 19890.35, 12058.03, 29618.99, 99230.70, 76048.09, 0.00, 0.00, 0.00
148, 100059.73, 124251.13, 23790.93, 19897.28, 12046.88, 29614.12, 99229.38, 76041.26, 0.00, 0.00, 0.00
149, 100062.45, 124248.07, 23785.21, 19904.99, 12035.36, 29610.12, 99226.34, 76039.20, 0.00, 0.00, 0.00
150, 100061.41, 124247.82, 23783.46, 19909.44, 12033.84, 29610.25, 99222.81, 76040.45, 0.08, -0.19, 0.98
151, 100065.34, 124253.84, 23787.20, 19913.73, 12059.86, 29617.71, 99223.44, 76046.20, 0.00, 0.00, 0.00
152, 100064.04, 124254.93, 23790.46, 19911.89, 12049.78, 29618.29, 99224.24, 76043.09, 0.00, 0.00, 0.00
153, 100059.93, 124247.33, 23788.69, 19904.07, 12039.41, 29614.16, 99222.99, 76036.14, 0.00, 0.00, 0.00
154, 100060.33, 124244.58, 23780.67, 19905.32, 12040.53, 29610.16, 99219.81, 76036.99, 0.00, 0.00, 0.00
155, 100062.74, 124247.89, 23781.61, 19912.47, 12038.72, 29611.41, 99223.13, 76039.09, 0.00, 0.00, 0.00
156, 100056.89, 124247.29, 23783.89, 19912.92, 12029.26, 29605.64, 99219.23, 76033.73, 0.00, 0.00, 0.00
157, 100052.40, 124241.52, 23777.65, 19901.41, 12017.50, 29598.45, 99212.33, 76028.92, 0.00, 0.00, 0.00
158, 100056.77, 124246.10, 23782.19, 19907.31, 12016.36, 29600.55, 99216.80, 76033.68, 0.00, 0.00, 0.00
159, 100056.38, 124248.42, 23785.63, 19911.94, 12021.97, 29599.88, 99216.51, 76036.79, 0.00, 0.00, 0.00
160, 100056.75, 124248.60, 23785.74, 19912.95, 12022.85, 29596.39, 99210.18, 76036.01, 0.08, -0.19, 0.98
161, 100056.26, 124254.82, 23786.99, 19911.16, 12019.96, 29597.49, 99210.02, 76040.99, 0.00, 0.00, 0.00
162, 100063.41, 124259.63, 23788.78, 19911.78, 12010.31, 29595.03, 99210.63, 76044.50, 0.00, 0.00, 0.00
163, 100067.66, 124254.86, 23786.26, 19906.87, 11991.13, 29585.91, 99209.24, 76039.29, 0.00, 0.00, 0.00
164, 100066.37, 124253.66, 23785.47, 19907.16, 12001.08, 29591.05, 99208.98, 76038.80, 0.00, 0.00, 0.00
165, 100067.51, 124254.80, 23784.09, 19908.27, 12025.26, 29597.93, 99211.45, 76042.55, 0.00, 0.00, 0.00
166, 100069.07, 124255.60, 23779.42, 19908.32, 12024.66, 29597.71, 99211.37, 76039.94, 0.00, 0.00, 0.00
167, 100069.31, 124256.43, 23777.81, 19908.99, 12019.45, 29597.53, 99215.28, 76044.95, 0.00, 0.00, 0.00
168, 100066.37, 124257.91, 23779.33, 19908.79, 12007.38, 29595.79, 99216.98, 76045.44, 0.00, 0.00, 0.00
169, 100073.27, 124259.45, 23784.29, 19909.14, 12023.29, 29605.35, 99219.32, 76045.05, 0.00, 0.00, 0.00
170, 100075.66, 124260.70, 23786.28, 19909.23, 12026.02, 29606.67, 99218.01, 76046.02, 0.08, -0.19, 0.98
171, 100076.45, 124268.34, 23786.81, 19912.63, 12038.02, 29608.48, 99220.58, 76054.13, 0.00, 0.00, 0.00
172, 100073.74, 124270.24, 23782.95, 19905.41, 12032.26, 29603.41, 99217.02, 76050.53, 0.00, 0.00, 0.00
173, 100069.23, 124268.90, 23788.96, 19904.63, 12023.92, 29598.94, 99214.63, 76043.91, 0.00, 0.00, 0.00
174, 100069.49, 124268.25, 23791.82, 19906.46, 12028.50, 29599.77, 99214.83, 76044.99, 0.00, 0.00, 0.00
175, 100077.38, 124270.35, 23791.75, 19914.76, 12032.97, 29602.38, 99216.08, 76046.76, 0.00, 0.00, 0.00
176, 100075.22, 124272.34, 23789.50, 19914.76, 12028.19, 29604.50, 99215.99, 76047.77, 0.00, 0.00, 0.00
177, 100077.23, 124276.57, 23793.16, 19911.65, 12011.89, 29603.90, 99216.80, 76050.45, 0.00, 0.00, 0.00
178, 100076.40, 124277.55, 23788.00, 19907.89, 12009.88, 29602.65, 99218.23, 76047.41, 0.00, 0.00, 0.00
179, 100077.83, 124280.81, 23790.93, 19916.23, 12028.97, 29609.24, 99222.09, 76049.98, 0.00, 0.00, 0.00
180, 100075.04, 124282.91, 23793.23, 19921.68, 12029.33, 29610.45, 99224.28, 76051.31, 0.09, -0.20, 0.98
181, 100074.63, 124284.84, 23790.28, 19914.71, 12034.71, 29608.97, 99229.16, 76048.92, 0.00, 0.00, 0.00
182, 100079.55, 124291.37, 23792.02, 19918.64, 12027.67, 29605.15, 99234.43, 76048.43, 0.00, 0.00, 0.00
183, 100080.40, 124293.77, 23793.86, 19920.81, 12027.94, 29609.22, 99244.78, 76054.22, 0.00, 0.00, 0.00
184, 100082.99, 124289.98, 23792.04, 19918.11, 12036.41, 29616.84, 99258.77, 76056.91, 0.00, 0.00, 0.00
185, 100087.51, 124289.11, 23789.61, 19915.72, 12034.47, 29616.42, 99263.76, 76054.83, 0.00, 0.00, 0.00
186, 100083.30, 124289.62, 23788.25, 19905.93, 12021.08, 29610.99, 99264.59, 76056.37, 0.00, 0.00, 0.00
187, 100084.49, 124289.64, 23787.42, 19899.13, 11999.11, 29603.65, 99268.88, 76056.70, 0.00, 0.00, 0.00
188, 100084.29, 124287.95, 23786.35, 19900.85, 11980.49, 29600.03, 99270.38, 76054.45, 0.00, 0.00, 0.00
189, 100075.33, 124287.07, 23787.02, 19905.99, 12006.71, 29602.94, 99274.02, 76048.05, 0.00, 0.00, 0.00
190, 100077.30, 124292.81, 23790.55, 19908.41, 12040.28, 29609.56, 99283.52, 76048.21, 0.08, -0.20, 0.98
191, 100081.56, 124296.99, 23791.04, 19906.04, 12037.42, 29608.17, 99289.93, 76050.87, 0.00, 0.00, 0.00
192, 100080.52, 124292.91, 23790.14, 19905.46, 12015.94, 29602.96, 99292.01, 76050.66, 0.00, 0.00, 0.00
193, 100083.84, 124292.28, 23792.85, 19910.78, 12019.85, 29607.83, 99299.45, 76055.41, 0.00, 0.00, 0.00
194, 100088.90, 124294.45, 23795.91, 19910.91, 12030.11, 29610.12, 99305.51, 76054.29, 0.00, 0.00, 0.00
195, 100088.34, 124293.33, 23789.70, 19907.60, 12028.66, 29614.03, 99308.33, 76052.79, 0.00, 0.00, 0.00
196, 100086.84, 124292.70, 23787.60, 19904.03, 12014.64, 29613.02, 99312.71, 76053.95, 0.00, 0.00, 0.00
197, 100078.73, 124290.42, 23789.05, 19908.65, 12004.81, 29609.69, 99312.02, 76046.71, 0.00, 0.00, 0.00
198, 100079.02, 124293.15, 23792.74, 19914.49, 12019.63, 29614.50, 99317.89, 76050.16, 0.00, 0.00, 0.00
199, 100076.53, 124294.41, 23793.34, 19913.97, 12024.21, 29608.82, 99317.20, 76048.74, 0.00, 0.00, 0.00
200, 100080.80, 124293.64, 23793.74, 19915.05, 12027.43, 29605.76, 99317.36, 76044.61, 0.08, -0.20, 0.98
201, 100078.93, 124296.52, 23799.15, 19919.63, 12027.90, 29607.97, 99320.22, 76048.50, 0.00, 0.00, 0.00
202, 100076.98, 124291.66, 23794.91, 19915.98, 12017.30, 29605.58, 99322.45, 76051.80, 0.00, 0.00, 0.00
203, 100078.63, 124286.20, 23793.92, 19917.59, 12004.94, 29604.42, 99326.77, 76055.63, 0.00, 0.00, 0.00
204, 100081.01, 124284.55, 23792.67, 19917.30, 12012.10, 29604.19, 99328.45, 76056.57, 0.00, 0.00, 0.00
205, 100085.03, 124285.04, 23792.07, 19916.43, 12048.95, 29615.28, 99336.91, 76057.24, 0.00, 0.00, 0.00
206, 100084.88, 124283.95, 23792.72, 19913.75, 12045.42, 29618.29, 99342.99, 76055.90, 0.00, 0.00, 0.00
207, 100082.26, 124281.46, 23792.04, 19913.04, 12032.30, 29614.00, 99341.50, 76051.88, 0.00, 0.00, 0.00
208, 100079.24, 124274.60, 23787.98, 19914.08, 12025.24, 29607.12, 99339.84, 76048.32, 0.00, 0.00, 0.00
209, 100075.22, 124268.90, 23787.42, 19909.48, 12029.06, 29611.46, 99341.74, 76048.66, 0.00, 0.00, 0.00
210, 100076.45, 124267.91, 23789.03, 19908.59, 12030.33, 29613.06, 99346.82, 76048.08, 0.08, -0.20, 0.98
211, 100079.93, 124256.54, 23786.97, 19906.98, 12014.42, 29606.90, 99348.67, 76045.95, 0.00, 0.00, 0.00
212, 100078.91, 124246.88, 23782.63, 19903.58, 12009.28, 29604.68, 99352.56, 76044.90, 0.00, 0.00, 0.00
213, 100081.41, 124249.03, 23785.63, 19903.98, 12000.74, 29603.52, 99357.28, 76049.23, 0.00, 0.00, 0.00
214, 100085.16, 124255.00, 23786.35, 19900.43, 12019.90, 29606.49, 99360.52, 76052.10, 0.00, 0.00, 0.00
215, 100082.59, 124253.70, 23779.53, 19895.04, 12033.69, 29605.76, 99357.52, 76046.47, 0.00, 0.00, 0.00
216, 100082.75, 124255.06, 23777.63, 19895.51, 12012.54, 29603.86, 99362.93, 76048.21, 0.00, 0.00, 0.00
217, 100082.55, 124260.25, 23777.67, 19894.68, 12021.30, 29607.57, 99368.72, 76053.22, 0.00, 0.00, 0.00
218, 100082.57, 124262.38, 23776.42, 19894.37, 12022.71, 29607.21, 99367.56, 76058.36, 0.00, 0.00, 0.00
219, 100083.87, 124267.85, 23778.10, 19900.45, 12027.07, 29608.82, 99367.65, 76059.77, 0.00, 0.00, 0.00
220, 100082.41, 124270.15, 23781.67, 19908.86, 12031.50, 29610.88, 99370.80, 76056.32, 0.08, -0.20, 0.98
221, 100076.55, 124262.17, 23774.57, 19901.68, 12012.45, 29600.17, 99367.67, 76051.05, 0.00, 0.00, 0.00
222, 100080.31, 124263.70, 23775.08, 19900.65, 12004.12, 29604.57, 99371.77, 76056.91, 0.00, 0.00, 0.00
223, 100078.50, 124266.71, 23780.20, 19900.29, 12003.42, 29599.95, 99365.88, 76051.88, 0.00, 0.00, 0.00
224, 100073.18, 124266.89, 23781.99, 19899.73, 12029.19, 29605.73, 99368.27, 76046.47, 0.00, 0.00, 0.00
225, 100075.04, 124265.73, 23784.29, 19905.55, 12046.85, 29609.27, 99370.96, 76046.51, 0.00, 0.00, 0.00
226, 100078.23, 124265.15, 23780.82, 19906.42, 12038.56, 29609.78, 99372.25, 76050.89, 0.00, 0.00, 0.00
227, 100077.27, 124265.97, 23780.02, 19905.55, 12025.26, 29601.49, 99372.59, 76053.69, 0.00, 0.00, 0.00
228, 100082.52, 124271.41, 23783.04, 19903.29, 12019.72, 29595.59, 99370.66, 76054.96, 0.00, 0.00, 0.00
229, 100082.80, 124272.77, 23778.34, 19898.75, 12024.19, 29600.28, 99369.20, 76051.27, 0.00, 0.00, 0.00
230, 100074.37, 124265.39, 23775.44, 19892.58, 12005.23, 29597.58, 99368.92, 76046.13, 0.09, -0.19, 0.98
231, 100077.74, 124260.56, 23773.67, 19890.77, 12017.37, 29597.26, 99375.38, 76054.91, 0.00, 0.00, 0.00
232, 100079.04, 124260.59, 23775.71, 19894.91, 12012.99, 29595.25, 99376.99, 76057.46, 0.00, 0.00, 0.00
233, 100074.01, 124260.67, 23773.36, 19893.92, 12025.75, 29596.23, 99378.73, 76053.13, 0.00, 0.00, 0.00
234, 100071.13, 124256.98, 23769.98, 19889.01, 12043.77, 29600.23, 99377.06, 76052.19, 0.00, 0.00, 0.00
235, 100070.97, 124261.10, 23776.71, 19894.17, 12037.93, 29600.37, 99381.28, 76054.09, 0.00, 0.00, 0.00
236, 100068.04, 124261.97, 23775.64, 19895.00, 12011.11, 29588.01, 99381.09, 76050.84, 0.00, 0.00, 0.00
237, 100074.79, 124257.30, 23770.92, 19889.95, 12005.14, 29593.40, 99387.90, 76051.45, 0.00, 0.00, 0.00
238, 100073.63, 124245.81, 23766.61, 19880.18, 12005.32, 29588.88, 99383.20, 76046.76, 0.00, 0.00, 0.00
239, 100080.24, 124246.50, 23770.19, 19883.75, 12016.52, 29591.32, 99385.38, 76049.26, 0.00, 0.00, 0.00
240, 100074.61, 124248.98, 23768.71, 19886.08, 12008.16, 29591.90, 99391.25, 76050.76, 0.09, -0.20, 0.99
241, 100074.10, 124250.28, 23766.65, 19883.17, 12009.91, 29594.60, 99392.20, 76054.67, 0.00, 0.00, 0.00
242, 100077.59, 124254.41, 23766.94, 19880.85, 12009.41, 29595.25, 99392.75, 76057.15, 0.00, 0.00, 0.00
243, 100077.32, 124261.95, 23769.13, 19882.81, 12019.20, 29601.22, 99401.18, 76060.62, 0.00, 0.00, 0.00
244, 100073.61, 124264.45, 23771.28, 19895.15, 12020.88, 29597.42, 99404.10, 76060.28, 0.00, 0.00, 0.00
245, 100075.88, 124260.48, 23769.87, 19900.16, 12024.68, 29603.74, 99406.45, 76059.07, 0.00, 0.00, 0.00
246, 100076.58, 124256.09, 23775.06, 19902.98, 12027.29, 29608.57, 99410.20, 76056.14, 0.00, 0.00, 0.00
247, 100077.88, 124257.12, 23773.07, 19900.34, 12025.89, 29609.56, 99413.47, 76056.79, 0.00, 0.00, 0.00
248, 100073.83, 124258.93, 23772.38, 19899.33, 12018.62, 29601.42, 99408.11, 76052.75, 0.00, 0.00, 0.00
249, 100071.55, 124260.34, 23766.79, 19896.72, 12018.49, 29599.74, 99402.63, 76049.77, 0.00, 0.00, 0.00
250, 100069.05, 124261.50, 23767.21, 19896.47, 12022.94, 29602.54, 99400.75, 76048.43, 0.08, -0.20, 0.98
251, 100069.56, 124263.13, 23769.11, 19897.05, 12027.09, 29607.32, 99403.97, 76052.45, 0.00, 0.00, 0.00
252, 100074.70, 124269.93, 23771.15, 19895.98, 12019.31, 29608.08, 99406.97, 76054.40, 0.00, 0.00, 0.00
253, 100076.53, 124275.94, 23771.82, 19898.04, 12006.33, 29606.58, 99409.16, 76051.31, 0.00, 0.00, 0.00
254, 100075.48, 124274.78, 23773.27, 19901.28, 12017.50, 29607.72, 99403.70, 76048.09, 0.00, 0.00, 0.00
255, 100078.01, 124269.70, 23773.90, 19901.30, 12029.49, 29608.64, 99401.84, 76053.66, 0.00, 0.00, 0.00
0, 100071.46, 124267.36, 23768.91, 19896.92, 12024.32, 29600.28, 99394.74, 76046.51, 0.00, 0.00, 0.00
1, 100070.45, 124271.91, 23774.37, 19905.01, 12035.14, 29603.01, 99395.59, 76046.29, 0.00, 0.00, 0.00
2, 100074.59, 124274.87, 23774.86, 19898.91, 12030.07, 29598.47, 99394.94, 76047.98, 0.00, 0.00, 0.00
3, 100081.30, 124279.95, 23777.72, 19903.18, 12045.58, 29610.90, 99400.28, 76050.06, 0.00, 0.00, 0.00
4, 100083.93, 124282.63, 23775.73, 19900.45, 12049.83, 29614.96, 99402.34, 76051.88, 0.09, -0.20, 0.98
5, 100077.77, 124283.65, 23774.77, 19903.63, 12038.09, 29611.21, 99402.27, 76050.83, 0.00, 0.00, 0.00
6, 100072.80, 124288.34, 23771.62, 19904.29, 12019.78, 29607.21, 99403.03, 76051.14, 0.00, 0.00, 0.00
7, 100077.34, 124288.39, 23769.25, 19901.66, 12016.66, 29607.23, 99405.76, 76054.02, 0.00, 0.00, 0.00
8, 100078.39, 124281.73, 23778.52, 19904.54, 12038.36, 29607.03, 99401.27, 76051.12, 0.00, 0.00, 0.00
9, 100075.80, 124279.14, 23780.11, 19899.51, 12032.19, 29598.76, 99395.09, 76043.52, 0.00, 0.00, 0.00
10, 100072.84, 124278.02, 23769.98, 19890.19, 12016.68, 29592.08, 99393.71, 76042.46, 0.00, 0.00, 0.00
11, 100074.63, 124278.24, 23769.22, 19889.43, 12003.33, 29591.56, 99394.72, 76047.00, 0.00, 0.00, 0.00
12, 100077.43, 124278.60, 23767.59, 19890.71, 12010.84, 29594.24, 99397.63, 76044.27, 0.00, 0.00, 0.00
13, 100079.10, 124282.49, 23767.37, 19889.88, 12022.47, 29599.47, 99402.54, 76050.76, 0.00, 0.00, 0.00
14, 100076.13, 124284.99, 23766.54, 19888.27, 12026.00, 29601.60, 99402.52, 76052.88, 0.08, -0.20, 0.98
15, 100076.34, 124284.48, 23762.38, 19887.33, 12018.85, 29603.50, 99404.15, 76052.79, 0.00, 0.00, 0.00
16, 100073.70, 124278.58, 23758.45, 19884.04, 12006.24, 29598.45, 99402.14, 76049.93, 0.00, 0.00, 0.00
17, 100068.66, 124280.12, 23766.34, 19889.83, 12007.38, 29599.41, 99402.65, 76048.97, 0.00, 0.00, 0.00
18, 100070.32, 124281.87, 23768.67, 19893.86, 12021.77, 29603.19, 99404.38, 76049.69, 0.00, 0.00, 0.00
19, 100078.50, 124284.21, 23770.48, 19898.30, 12035.09, 29610.32, 99407.46, 76051.79, 0.00, 0.00, 0.00
20, 100080.11, 124285.91, 23770.21, 19897.66, 12034.42, 29611.43, 99415.26, 76052.73, 0.00, 0.00, 0.00
21, 100085.38, 124287.16, 23769.16, 19897.16, 12018.44, 29609.51, 99417.52, 76057.20, 0.00, 0.00, 0.00
22, 100087.66, 124292.48, 23775.59, 19898.53, 12031.85, 29612.69, 99420.42, 76058.94, 0.00, 0.00, 0.00
23, 100081.45, 124294.36, 23776.60, 19898.01, 12040.19, 29613.06, 99417.85, 76054.29, 0.00, 0.00, 0.00
24, 100077.49, 124285.82, 23767.19, 19896.16, 12033.13, 29606.36, 99413.16, 76052.32, 0.08, -0.20, 0.98
25, 100080.55, 124290.91, 23770.12, 19903.89, 12026.76, 29604.39, 99414.23, 76056.75, 0.00, 0.00, 0.00
26, 100082.68, 124292.21, 23770.25, 19903.18, 11999.29, 29602.27, 99416.20, 76060.05, 0.00, 0.00, 0.00
27, 100079.95, 124287.72, 23768.24, 19899.29, 12005.39, 29602.56, 99417.36, 76060.37, 0.00, 0.00, 0.00
28, 100074.88, 124286.02, 23765.54, 19894.48, 12026.18, 29606.47, 99416.40, 76057.35, 0.00, 0.00, 0.00
29, 100078.73, 124287.02, 23764.02, 19897.05, 12034.71, 29607.88, 99414.70, 76056.84, 0.00, 0.00, 0.00
30, 100084.52, 124289.84, 23768.38, 19894.97, 12025.13, 29604.55, 99413.76, 76057.75, 0.00, 0.00, 0.00
31, 100087.80, 124296.95, 23773.00, 19889.45, 11999.91, 29601.46, 99412.66, 76059.48, 0.00, 0.00, 0.00
32, 100086.48, 124293.82, 23769.80, 19886.19, 12010.33, 29594.20, 99408.62, 76052.52, 0.00, 0.00, 0.00
33, 100081.63, 124293.60, 23769.13, 19890.91, 12018.71, 29596.08, 99407.99, 76051.07, 0.08, -0.20, 0.97
34, 100083.30, 124301.06, 23768.44, 19891.67, 12030.22, 29603.54, 99411.01, 76055.18, 0.00, 0.00, 0.00
35, 100080.55, 124297.96, 23773.00, 19890.79, 12016.83, 29595.56, 99405.71, 76052.08, 0.00, 0.00, 0.00
36, 100080.47, 124295.45, 23773.87, 19890.41, 12011.45, 29596.26, 99404.73, 76053.33, 0.00, 0.00, 0.00
37, 100079.30, 124294.67, 23774.19, 19891.29, 12026.67, 29604.08, 99404.26, 76050.60, 0.00, 0.00, 0.00
38, 100074.97, 124289.89, 23773.34, 19888.13, 12022.80, 29600.86, 99402.54, 76043.18, 0.00, 0.00, 0.00
39, 100074.86, 124289.35, 23772.33, 19890.28, 12022.42, 29606.09, 99407.44, 76043.85, 0.00, 0.00, 0.00
40, 100074.86, 124285.80, 23768.55, 19891.62, 12023.07, 29602.94, 99408.55, 76042.73, 0.00, 0.00, 0.00
41, 100073.74, 124283.32, 23767.30, 19891.76, 12011.67, 29602.29, 99409.70, 76043.49, 0.00, 0.00, 0.00
42, 100070.90, 124282.69, 23765.69, 19890.48, 12023.29, 29607.21, 99412.91, 76044.19, 0.00, 0.00, 0.00
43, 100072.22, 124285.73, 23769.87, 19895.71, 12052.98, 29615.57, 99413.94, 76047.94, 0.08, -0.20, 0.98
44, 100074.97, 124288.75, 23774.68, 19903.29, 12052.22, 29613.58, 99411.26, 76044.74, 0.00, 0.00, 0.00
45, 100072.69, 124284.52, 23775.51, 19901.48, 12036.32, 29604.35, 99409.67, 76043.27, 0.00, 0.00, 0.00
46, 100077.43, 124283.38, 23775.91, 19902.30, 12032.64, 29607.75, 99413.88, 76051.54, 0.00, 0.00, 0.00
47, 100073.63, 124284.48, 23779.86, 19904.88, 12027.56, 29605.94, 99415.02, 76050.22, 0.00, 0.00, 0.00
48, 100071.77, 124283.72, 23786.10, 19905.10, 12034.36, 29605.62, 99416.63, 76040.81, 0.00, 0.00, 0.00
49, 100071.08, 124284.91, 23779.86, 19903.47, 12036.97, 29606.96, 99418.86, 76039.02, 0.00, 0.00, 0.00
50, 100065.11, 124283.07, 23778.68, 19900.34, 12020.95, 29605.02, 99423.13, 76038.02, 0.00, 0.00, 0.00
51, 100064.58, 124280.61, 23776.29, 19892.31, 12007.85, 29601.80, 99422.99, 76036.12, 0.00, 0.00, 0.00
52, 100069.90, 124284.75, 23783.28, 19902.06, 12011.33, 29603.74, 99426.19, 76037.37, 0.00, 0.00, 0.00
53, 100065.76, 124287.34, 23782.57, 19907.33, 12019.23, 29601.11, 99427.84, 76037.26, 0.08, -0.19, 0.98
54, 100069.00, 124286.00, 23778.19, 19904.07, 12042.96, 29601.49, 99431.82, 76039.78, 0.00, 0.00, 0.00
55, 100071.30, 124280.68, 23777.96, 19901.32, 12047.61, 29606.94, 99436.27, 76043.00, 0.00, 0.00, 0.00
56, 100070.57, 124277.82, 23774.88, 19897.52, 12026.11, 29602.98, 99434.55, 76041.59, 0.00, 0.00, 0.00
57, 100069.90, 124280.34, 23771.68, 19894.48, 12010.02, 29595.45, 99436.63, 76044.56, 0.00, 0.00, 0.00
58, 100075.53, 124279.88, 23769.58, 19891.96, 12038.78, 29603.83, 99443.58, 76045.41, 0.00, 0.00, 0.00
59, 100081.12, 124277.98, 23769.00, 19892.92, 12030.45, 29602.11, 99444.98, 76045.35, 0.00, 0.00, 0.00
60, 100073.79, 124273.39, 23766.32, 19890.12, 12021.80, 29599.32, 99444.43, 76041.10, 0.00, 0.00, 0.00
61, 100073.20, 124274.91, 23769.87, 19890.57, 12033.31, 29603.72, 99447.52, 76041.59, 0.00, 0.00, 0.00
62, 100071.51, 124277.39, 23770.39, 19890.06, 12032.86, 29606.02, 99447.49, 76039.96, 0.00, 0.00, 0.00
63, 100066.52, 124282.55, 23772.22, 19891.51, 12033.93, 29607.05, 99451.06, 76037.66, 0.08, -0.20, 0.98
64, 100061.60, 124277.69, 23771.01, 19889.25, 12030.16, 29605.29, 99451.36, 76036.03, 0.00, 0.00, 0.00
65, 100057.42, 124269.41, 23767.30, 19893.37, 12022.53, 29604.06, 99448.30, 76029.52, 0.00, 0.00, 0.00
66, 100061.13, 124268.88, 23772.22, 19894.57, 12024.48, 29605.35, 99449.84, 76031.91, 0.00, 0.00, 0.00
67, 100061.05, 124269.28, 23773.29, 19896.43, 12029.28, 29605.53, 99450.66, 76032.59, 0.00, 0.00, 0.00
68, 100056.98, 124267.83, 23768.15, 19900.67, 12035.39, 29606.79, 99448.52, 76025.63, 0.00, 0.00, 0.00
69, 100061.11, 124277.35, 23773.87, 19901.93, 12036.03, 29606.74, 99454.33, 76029.75, 0.00, 0.00, 0.00
70, 100060.77, 124280.57, 23772.71, 19897.61, 12027.70, 29603.41, 99453.50, 76031.89, 0.00, 0.00, 0.00
71, 100055.39, 124272.81, 23766.97, 19899.49, 12023.29, 29599.83, 99451.16, 76031.49, 0.00, 0.00, 0.00
72, 100054.56, 124263.94, 23766.88, 19898.01, 12014.49, 29592.99, 99446.46, 76026.35, 0.00, 0.00, 0.00
73, 100061.34, 124261.59, 23762.27, 19888.16, 12020.25, 29590.89, 99441.88, 76025.45, 0.08, -0.19, 0.98
74, 100058.07, 124265.01, 23762.96, 19890.26, 12016.52, 29586.96, 99439.38, 76026.39, 0.00, 0.00, 0.00
75, 100057.54, 124266.17, 23763.53, 19895.20, 12014.35, 29587.32, 99439.38, 76026.28, 0.00, 0.00, 0.00
76, 100054.77, 124267.52, 23763.68, 19894.68, 12008.63, 29587.23, 99439.42, 76022.30, 0.00, 0.00, 0.00
77, 100052.73, 124269.52, 23765.49, 19896.29, 12000.67, 29587.41, 99438.98, 76016.91, 0.00, 0.00, 0.00
78, 100054.81, 124274.17, 23767.21, 19895.91, 12023.27, 29592.48, 99439.76, 76017.92, 0.00, 0.00, 0.00
79, 100053.20, 124272.81, 23763.32, 19887.26, 12037.26, 29591.07, 99439.55, 76018.93, 0.00, 0.00, 0.00
80, 100052.55, 124262.82, 23759.99, 19886.23, 12025.48, 29585.84, 99439.89, 76021.05, 0.00, 0.00, 0.00
81, 100055.68, 124257.95, 23758.32, 19884.74, 12005.52, 29582.98, 99439.02, 76023.33, 0.00, 0.00, 0.00
82, 100058.59, 124259.36, 23759.32, 19884.98, 11997.79, 29585.15, 99439.94, 76023.55, 0.00, 0.00, 0.00
83, 100061.11, 124259.76, 23755.68, 19886.08, 12026.04, 29592.90, 99441.41, 76024.27, 0.08, -0.20, 0.98
84, 100058.20, 124261.39, 23753.44, 19881.99, 12033.20, 29594.18, 99441.12, 76024.45, 0.00, 0.00, 0.00
85, 100055.01, 124260.45, 23754.61, 19881.70, 12020.46, 29592.12, 99440.07, 76020.38, 0.00, 0.00, 0.00
86, 100058.52, 124260.52, 23754.20, 19880.31, 12009.99, 29588.14, 99441.01, 76020.13, 0.00, 0.00, 0.00
87, 100056.46, 124266.11, 23747.70, 19878.28, 12013.44, 29589.19, 99445.48, 76019.58, 0.00, 0.00, 0.00
88, 100051.73, 124267.27, 23752.01, 19889.43, 12023.58, 29592.32, 99444.77, 76019.82, 0.00, 0.00, 0.00
89, 100044.37, 124257.63, 23753.60, 19891.46, 12017.12, 29590.29, 99439.66, 76012.96, 0.00, 0.00, 0.00
90, 100042.63, 124252.52, 23749.85, 19883.24, 12016.66, 29591.85, 99438.64, 76010.37, 0.00, 0.00, 0.00
91, 100045.87, 124254.66, 23748.68, 19884.27, 12002.84, 29589.55, 99439.96, 76013.05, 0.00, 0.00, 0.00
92, 100046.02, 124255.38, 23751.77, 19886.39, 12003.51, 29587.96, 99439.69, 76013.12, 0.00, 0.00, 0.00
93, 100055.26, 124255.49, 23752.10, 19886.75, 12006.40, 29585.24, 99442.30, 76018.26, 0.08, -0.19, 0.98
94, 100060.51, 124260.18, 23761.98, 19900.67, 12020.95, 29592.32, 99448.56, 76020.91, 0.00, 0.00, 0.00
95, 100049.42, 124256.12, 23756.35, 19891.22, 12032.26, 29592.90, 99445.39, 76012.60, 0.00, 0.00, 0.00
96, 100043.59, 124255.09, 23750.05, 19880.63, 12014.87, 29584.34, 99442.37, 76014.68, 0.00, 0.00, 0.00
97, 100044.91, 124259.34, 23755.77, 19884.29, 12017.04, 29588.21, 99445.59, 76016.54, 0.00, 0.00, 0.00
98, 100044.52, 124256.12, 23757.51, 19890.12, 12017.73, 29592.63, 99448.30, 76015.06, 0.00, 0.00, 0.00
99, 100048.08, 124254.98, 23757.45, 19890.28, 12011.85, 29594.42, 99446.80, 76014.44, 0.00, 0.00, 0.00
100, 100046.94, 124259.73, 23759.88, 19889.25, 12015.20, 29594.94, 99446.55, 76015.58, 0.00, 0.00, 0.00
101, 100042.59, 124262.06, 23760.66, 19888.74, 11998.33, 29589.69, 99442.44, 76011.38, 0.00, 0.00, 0.00
102, 100042.91, 124260.27, 23757.65, 19885.83, 11983.08, 29582.00, 99439.29, 76005.72, 0.00, 0.00, 0.00
103, 100046.56, 124259.91, 23758.38, 19890.62, 12033.13, 29592.77, 99442.80, 76006.37, 0.08, -0.20, 0.99
104, 100048.41, 124263.54, 23759.68, 19894.15, 12038.07, 29596.19, 99443.91, 76008.05, 0.00, 0.00, 0.00
105, 100049.84, 124265.01, 23759.75, 19891.26, 12020.48, 29592.21, 99446.57, 76007.55, 0.00, 0.00, 0.00
106, 100054.81, 124257.59, 23756.86, 19889.32, 12011.74, 29591.50, 99448.02, 76010.37, 0.00, 0.00, 0.00
107, 100054.83, 124250.13, 23754.20, 19885.63, 12019.78, 29591.03, 99445.91, 76012.60, 0.00, 0.00, 0.00
108, 100054.70, 124250.86, 23758.92, 19891.06, 12025.66, 29595.56, 99448.14, 76018.46, 0.00, 0.00, 0.00
109, 100053.71, 124252.00, 23756.51, 19897.52, 12021.50, 29592.23, 99445.66, 76015.71, 0.00, 0.00, 0.00
110, 100052.69, 124249.34, 23752.66, 19889.72, 12005.10, 29590.83, 99446.39, 76013.09, 0.00, 0.00, 0.00
111, 100055.66, 124247.95, 23752.35, 19883.48, 12001.23, 29588.30, 99446.69, 76017.95, 0.00, 0.00, 0.00
112, 100059.44, 124242.48, 23752.24, 19884.96, 12011.22, 29588.50, 99444.70, 76019.04, 0.00, 0.00, 0.00
113, 100059.88, 124247.13, 23755.66, 19890.64, 12010.62, 29590.65, 99447.29, 76019.58, 0.09, -0.20, 0.98
114, 100061.34, 124254.53, 23756.75, 19892.63, 11994.08, 29588.41, 99448.18, 76018.73, 0.00, 0.00, 0.00
115, 100059.66, 124248.85, 23754.20, 19889.27, 12007.60, 29590.89, 99449.08, 76016.52, 0.00, 0.00, 0.00
116, 100061.13, 124246.50, 23751.21, 19884.25, 12003.87, 29587.09, 99450.48, 76018.23, 0.00, 0.00, 0.00
117, 100060.64, 124243.64, 23749.02, 19880.15, 12000.92, 29585.53, 99448.56, 76017.43, 0.00, 0.00, 0.00
118, 100060.13, 124239.17, 23747.25, 19880.65, 12025.53, 29594.47, 99451.47, 76018.98, 0.00, 0.00, 0.00
119, 100063.68, 124239.59, 23749.89, 19889.10, 12029.49, 29598.58, 99453.16, 76021.99, 0.00, 0.00, 0.00
120, 100065.59, 124236.94, 23744.26, 19889.01, 12008.79, 29592.50, 99450.26, 76023.66, 0.00, 0.00, 0.00
121, 100067.39, 124235.08, 23741.71, 19885.41, 12007.04, 29590.83, 99450.71, 76027.38, 0.00, 0.00, 0.00
122, 100072.71, 124238.50, 23750.63, 19882.30, 12001.97, 29587.76, 99451.55, 76028.80, 0.00, 0.00, 0.00
123, 100071.30, 124243.64, 23756.13, 19880.18, 11992.07, 29590.27, 99451.73, 76029.12, 0.09, -0.20, 0.99
124, 100063.62, 124241.05, 23751.95, 19881.96, 12006.22, 29592.17, 99449.86, 76021.03, 0.00, 0.00, 0.00
125, 100058.84, 124237.83, 23748.91, 19887.53, 12022.51, 29594.65, 99448.90, 76017.01, 0.00, 0.00, 0.00
126, 100061.80, 124240.00, 23750.65, 19883.75, 12018.33, 29591.94, 99447.16, 76018.08, 0.00, 0.00, 0.00
127, 100059.95, 124247.09, 23756.28, 19887.38, 12012.41, 29588.14, 99443.60, 76014.77, 0.00, 0.00, 0.00
128, 100054.74, 124250.02, 23755.10, 19891.13, 12009.52, 29588.52, 99442.75, 76014.84, 0.00, 0.00, 0.00
129, 100062.07, 124248.34, 23751.28, 19887.55, 12011.29, 29592.23, 99448.74, 76020.72, 0.00, 0.00, 0.00
130, 100063.19, 124249.05, 23747.92, 19883.28, 11994.79, 29591.21, 99451.05, 76025.12, 0.00, 0.00, 0.00
131, 100059.19, 124251.73, 23747.59, 19876.80, 12004.14, 29589.42, 99453.57, 76025.27, 0.00, 0.00, 0.00
132, 100055.19, 124254.53, 23743.27, 19872.35, 12005.14, 29590.74, 99458.73, 76021.01, 0.00, 0.00, 0.00
133, 100050.74, 124248.80, 23742.16, 19872.31, 11997.50, 29587.65, 99455.40, 76016.31, 0.08, -0.20, 0.98
134, 100055.46, 124244.76, 23738.76, 19869.72, 12003.69, 29585.17, 99445.91, 76013.56, 0.00, 0.00, 0.00
135, 100057.76, 124248.36, 23742.60, 19870.48, 12002.24, 29589.42, 99447.29, 76015.17, 0.00, 0.00, 0.00
136, 100057.52, 124252.60, 23746.96, 19880.29, 12001.79, 29591.09, 99448.20, 76015.73, 0.00, 0.00, 0.00
137, 100055.08, 124253.21, 23746.63, 19881.41, 12016.95, 29589.95, 99443.09, 76010.79, 0.00, 0.00, 0.00
138, 100054.66, 124255.00, 23750.58, 19886.64, 12009.77, 29589.46, 99440.54, 76011.15, 0.00, 0.00, 0.00
139, 100054.85, 124259.52, 23751.21, 19887.78, 12015.07, 29590.71, 99437.52, 76009.18, 0.00, 0.00, 0.00
140, 100051.30, 124261.26, 23746.74, 19886.97, 12018.51, 29592.35, 99436.74, 76005.92, 0.00, 0.00, 0.00
141, 100046.36, 124260.70, 23746.96, 19883.62, 12004.27, 29590.89, 99437.52, 76008.02, 0.00, 0.00, 0.00
142, 100046.77, 124262.15, 23753.67, 19884.25, 11996.61, 29594.36, 99436.74, 76006.48, 0.00, 0.00, 0.00
143, 100050.38, 124261.91, 23753.06, 19884.20, 12001.57, 29594.45, 99434.95, 76007.98, 0.08, -0.20, 0.98
144, 100051.95, 124265.37, 23756.48, 19885.63, 12015.83, 29594.47, 99433.19, 76009.56, 0.00, 0.00, 0.00
145, 100055.57, 124264.48, 23748.48, 19883.51, 12011.74, 29590.78, 99433.19, 76004.49, 0.00, 0.00, 0.00
146, 100061.02, 124268.43, 23753.40, 19884.56, 12011.96, 29590.89, 99434.99, 76008.36, 0.00, 0.00, 0.00
147, 100065.29, 124270.20, 23755.81, 19886.21, 12011.92, 29588.48, 99427.02, 76004.49, 0.00, 0.00, 0.00
148, 100063.02, 124276.68, 23761.27, 19886.37, 12022.71, 29586.85, 99422.30, 76003.62, 0.00, 0.00, 0.00
149, 100049.45, 124277.59, 23763.23, 19893.63, 12020.46, 29586.51, 99416.84, 75999.13, 0.00, 0.00, 0.00
150, 100051.57, 124277.02, 23761.60, 19893.99, 12024.52, 29592.72, 99416.91, 75999.80, 0.00, 0.00, 0.00
151, 100053.06, 124275.72, 23759.93, 19891.64, 12009.99, 29588.37, 99416.82, 76000.82, 0.00, 0.00, 0.00
152, 100054.98, 124270.02, 23756.35, 19888.56, 12003.71, 29590.09, 99421.07, 76009.32, 0.00, 0.00, 0.00
153, 100059.97, 124261.03, 23751.41, 19885.86, 12007.31, 29590.65, 99417.92, 76016.94, 0.08, -0.20, 0.99
154, 100066.43, 124261.01, 23754.72, 19888.69, 12005.03, 29589.24, 99419.73, 76020.34, 0.00, 0.00, 0.00
155, 100067.48, 124266.55, 23756.84, 19888.78, 12021.73, 29590.49, 99419.28, 76024.74, 0.00, 0.00, 0.00
156, 100064.46, 124267.00, 23756.01, 19886.28, 12012.36, 29583.52, 99418.95, 76023.80, 0.00, 0.00, 0.00
157, 100071.64, 124269.75, 23752.88, 19884.67, 12003.85, 29583.45, 99423.04, 76024.70, 0.00, 0.00, 0.00
158, 100067.55, 124271.45, 23755.28, 19886.41, 12014.60, 29593.04, 99424.76, 76021.37, 0.00, 0.00, 0.00
159, 100066.95, 124270.64, 23754.47, 19882.12, 12016.39, 29592.77, 99426.19, 76024.12, 0.00, 0.00, 0.00
160, 100073.74, 124264.72, 23753.44, 19888.20, 12021.06, 29593.80, 99424.87, 76021.99, 0.00, 0.00, 0.00
161, 100073.63, 124263.78, 23759.93, 19896.20, 12015.07, 29592.59, 99425.74, 76024.07, 0.00, 0.00, 0.00
162, 100070.79, 124267.91, 23764.29, 19898.39, 12017.68, 29595.03, 99424.73, 76026.66, 0.00, 0.00, 0.00
163, 100069.52, 124270.35, 23760.60, 19896.09, 12019.61, 29596.37, 99421.09, 76026.13, 0.08, -0.20, 0.98
164, 100072.63, 124271.45, 23758.92, 19894.28, 12000.47, 29594.49, 99419.05, 76026.28, 0.00, 0.00, 0.00
165, 100075.82, 124274.29, 23757.56, 19892.02, 12006.62, 29595.54, 99421.41, 76032.23, 0.00, 0.00, 0.00
166, 100072.94, 124274.42, 23757.69, 19894.84, 12030.60, 29596.44, 99420.51, 76033.73, 0.00, 0.00, 0.00
167, 100069.45, 124275.38, 23750.54, 19891.15, 12020.08, 29591.92, 99419.51, 76028.98, 0.00, 0.00, 0.00
168, 100078.93, 124274.78, 23753.58, 19895.80, 12008.41, 29591.74, 99421.88, 76031.53, 0.00, 0.00, 0.00
169, 100082.97, 124269.98, 23755.79, 19892.94, 12007.60, 29593.44, 99421.56, 76032.79, 0.00, 0.00, 0.00
170, 100079.95, 124270.04, 23754.58, 19890.10, 12014.42, 29594.29, 99423.33, 76034.69, 0.00, 0.00, 0.00
171, 100072.34, 124271.07, 23758.92, 19891.76, 12013.26, 29594.20, 99415.95, 76028.65, 0.00, 0.00, 0.00
172, 100072.06, 124277.66, 23758.14, 19890.86, 12009.21, 29589.04, 99411.26, 76019.87, 0.00, 0.00, 0.00
173, 100072.58, 124279.63, 23758.52, 19893.70, 12024.39, 29592.28, 99413.11, 76019.06, 0.08, -0.19, 0.99
174, 100069.02, 124273.88, 23761.15, 19893.81, 12023.76, 29596.12, 99413.85, 76021.92, 0.00, 0.00, 0.00
175, 100063.30, 124274.55, 23757.31, 19888.51, 12010.78, 29592.88, 99411.93, 76017.70, 0.00, 0.00, 0.00
176, 100065.07, 124278.58, 23759.57, 19895.29, 11987.58, 29588.88, 99415.55, 76019.55, 0.00, 0.00, 0.00
177, 100065.20, 124283.14, 23760.33, 19898.39, 12002.75, 29595.36, 99421.30, 76023.60, 0.00, 0.00, 0.00
178, 100063.08, 124277.66, 23758.96, 19896.20, 12034.27, 29601.04, 99419.80, 76022.62, 0.00, 0.00, 0.00
179, 100063.75, 124275.54, 23758.83, 19897.30, 12042.52, 29603.70, 99418.90, 76024.61, 0.00, 0.00, 0.00
180, 100069.65, 124279.98, 23760.04, 19899.94, 12031.43, 29608.30, 99426.21, 76034.42, 0.00, 0.00, 0.00
181, 100068.89, 124278.13, 23759.37, 19899.15, 12013.24, 29602.89, 99426.05, 76031.67, 0.00, 0.00, 0.00
182, 100063.70, 124273.19, 23746.07, 19888.56, 11998.57, 29590.27, 99419.95, 76022.41, 0.00, 0.00, 0.00
183, 100060.40, 124275.25, 23747.68, 19890.12, 12016.52, 29600.82, 99424.63, 76022.95, 0.08, -0.19, 0.99
184, 100066.59, 124282.53, 23758.43, 19894.95, 12027.29, 29610.94, 99430.15, 76028.65, 0.00, 0.00, 0.00
185, 100064.69, 124282.53, 23757.67, 19895.15, 12022.69, 29607.43, 99425.61, 76028.77, 0.00, 0.00, 0.00
186, 100066.09, 124283.88, 23758.09, 19895.87, 12011.63, 29602.02, 99418.30, 76026.51, 0.00, 0.00, 0.00
187, 100068.16, 124288.55, 23755.50, 19891.51, 12003.85, 29599.65, 99413.85, 76026.10, 0.00, 0.00, 0.00
188, 100070.25, 124286.22, 23753.00, 19893.25, 12019.16, 29602.20, 99416.69, 76027.80, 0.00, 0.00, 0.00
189, 100070.30, 124280.92, 23751.88, 19892.36, 12016.14, 29601.04, 99418.16, 76028.92, 0.00, 0.00, 0.00
190, 100066.59, 124279.02, 23751.92, 19890.59, 11991.89, 29597.66, 99415.39, 76028.54, 0.00, 0.00, 0.00
191, 100065.60, 124276.97, 23751.90, 19897.43, 11996.85, 29595.45, 99409.85, 76028.34, 0.00, 0.00, 0.00
192, 100066.25, 124274.06, 23749.02, 19895.76, 12021.13, 29595.85, 99404.71, 76025.77, 0.00, 0.00, 0.00
193, 100066.95, 124275.59, 23752.53, 19901.08, 12011.13, 29592.72, 99407.66, 76028.02, 0.08, -0.19, 0.98
194, 100067.51, 124275.83, 23752.53, 19898.60, 12028.30, 29597.84, 99408.55, 76032.72, 0.00, 0.00, 0.00
195, 100069.16, 124278.40, 23750.83, 19897.43, 12034.16, 29601.20, 99406.83, 76030.93, 0.00, 0.00, 0.00
196, 100070.23, 124289.62, 23750.11, 19895.15, 12017.19, 29598.43, 99404.80, 76033.19, 0.00, 0.00, 0.00
197, 100068.66, 124281.13, 23748.71, 19894.19, 12021.19, 29596.97, 99402.77, 76035.11, 0.00, 0.00, 0.00
198, 100070.34, 124270.62, 23748.46, 19895.02, 12016.68, 29593.78, 99398.80, 76033.50, 0.00, 0.00, 0.00
199, 100069.23, 124264.92, 23745.55, 19892.45, 12011.33, 29590.98, 99393.80, 76026.59, 0.00, 0.00, 0.00
200, 100067.04, 124259.84, 23749.91, 19893.81, 12019.74, 29594.80, 99394.63, 76025.27, 0.00, 0.00, 0.00
201, 100063.50, 124265.63, 23753.09, 19900.70, 12019.56, 29593.80, 99391.86, 76024.13, 0.00, 0.00, 0.00
202, 100059.15, 124266.40, 23749.17, 19896.99, 12008.45, 29586.29, 99386.09, 76018.70, 0.00, 0.00, 0.00
203, 100061.89, 124270.51, 23752.88, 19896.25, 12015.56, 29593.66, 99390.47, 76022.48, 0.08, -0.20, 0.98
204, 100059.32, 124274.16, 23756.39, 19905.05, 12015.49, 29592.88, 99389.06, 76024.05, 0.00, 0.00, 0.00
205, 100051.16, 124274.89, 23749.26, 19897.32, 12005.79, 29591.12, 99384.70, 76017.50, 0.00, 0.00, 0.00
206, 100053.76, 124277.80, 23748.33, 19895.87, 12008.65, 29589.64, 99384.15, 76017.92, 0.00, 0.00, 0.00
207, 100055.44, 124272.25, 23748.13, 19890.95, 12009.46, 29588.52, 99384.21, 76018.39, 0.00, 0.00, 0.00
208, 100056.38, 124271.13, 23750.40, 19896.81, 12010.53, 29594.92, 99386.98, 76018.34, 0.00, 0.00, 0.00
209, 100065.41, 124274.60, 23756.21, 19906.48, 12021.68, 29604.86, 99389.06, 76022.88, 0.00, 0.00, 0.00
210, 100065.65, 124274.06, 23751.25, 19901.84, 12005.97, 29601.64, 99386.94, 76023.55, 0.00, 0.00, 0.00
211, 100058.66, 124275.20, 23748.08, 19898.15, 11996.81, 29598.25, 99383.56, 76022.52, 0.00, 0.00, 0.00
212, 100060.55, 124282.83, 23751.10, 19900.90, 12010.02, 29602.56, 99386.23, 76024.63, 0.00, 0.00, 0.00
213, 100053.16, 124273.91, 23750.54, 19901.17, 12033.24, 29608.28, 99388.91, 76017.70, 0.08, -0.20, 0.98
214, 100050.18, 124271.47, 23748.01, 19901.19, 12027.09, 29606.92, 99387.01, 76016.11, 0.00, 0.00, 0.00
215, 100045.04, 124269.91, 23742.20, 19897.70, 12012.74, 29599.65, 99380.05, 76013.66, 0.00, 0.00, 0.00
216, 100052.33, 124276.84, 23751.77, 19896.38, 12009.08, 29601.02, 99381.22, 76018.50, 0.00, 0.00, 0.00
217, 100062.01, 124274.66, 23753.69, 19898.73, 12008.00, 29602.09, 99381.71, 76022.28, 0.00, 0.00, 0.00
218, 100059.93, 124269.86, 23747.23, 19899.53, 12014.35, 29600.59, 99375.83, 76019.66, 0.00, 0.00, 0.00
219, 100050.31, 124268.61, 23742.18, 19891.44, 12008.32, 29593.62, 99368.59, 76013.12, 0.00, 0.00, 0.00
220, 100057.73, 124266.17, 23742.96, 19890.86, 12006.08, 29595.21, 99374.76, 76020.13, 0.00, 0.00, 0.00
221, 100062.99, 124272.41, 23743.56, 19894.06, 12002.01, 29594.74, 99376.19, 76024.00, 0.00, 0.00, 0.00
222, 100063.68, 124293.71, 23750.43, 19902.75, 12012.10, 29601.93, 99379.67, 76030.84, 0.00, 0.00, 0.00
223, 100064.46, 124306.34, 23752.28, 19905.48, 12004.58, 29600.44, 99380.63, 76029.52, 0.09, -0.20, 0.98
224, 100060.80, 124289.17, 23746.11, 19899.76, 12007.20, 29597.22, 99376.19, 76023.51, 0.00, 0.00, 0.00
225, 100057.89, 124275.94, 23741.82, 19894.44, 12011.31, 29594.74, 99373.75, 76019.55, 0.00, 0.00, 0.00
226, 100053.52, 124269.88, 23735.99, 19885.83, 11992.51, 29582.38, 99362.98, 76009.49, 0.00, 0.00, 0.00
227, 100058.92, 124282.71, 23739.07, 19892.45, 12007.83, 29590.20, 99364.56, 76013.14, 0.00, 0.00, 0.00
228, 100071.13, 124290.31, 23755.63, 19904.32, 12007.27, 29599.99, 99376.48, 76028.85, 0.00, 0.00, 0.00
229, 100061.78, 124292.66, 23757.18, 19903.38, 12002.37, 29591.50, 99366.58, 76023.69, 0.00, 0.00, 0.00
230, 100062.99, 124303.41, 23753.49, 19900.21, 12012.23, 29590.94, 99364.85, 76024.85, 0.00, 0.00, 0.00
231, 100069.09, 124301.38, 23751.70, 19898.44, 12007.20, 29586.78, 99363.70, 76023.40, 0.00, 0.00, 0.00
232, 100066.14, 124294.11, 23748.35, 19899.62, 12007.56, 29584.95, 99362.20, 76022.37, 0.00, 0.00, 0.00
233, 100064.35, 124290.54, 23749.24, 19901.34, 12023.74, 29590.71, 99360.30, 76016.91, 0.08, -0.20, 0.98
234, 100065.94, 124297.17, 23754.72, 19906.78, 12022.53, 29597.93, 99367.76, 76019.91, 0.00, 0.00, 0.00
235, 100065.63, 124305.18, 23758.85, 19912.79, 12017.39, 29598.47, 99370.51, 76023.53, 0.00, 0.00, 0.00
236, 100067.04, 124297.35, 23752.86, 19907.67, 12003.29, 29593.37, 99367.94, 76024.90, 0.00, 0.00, 0.00
237, 100066.50, 124292.93, 23746.58, 19893.52, 12007.56, 29588.57, 99362.51, 76023.06, 0.00, 0.00, 0.00
238, 100065.49, 124298.65, 23747.86, 19892.47, 12003.18, 29586.73, 99359.49, 76021.72, 0.00, 0.00, 0.00
239, 100065.76, 124305.29, 23750.25, 19904.47, 12013.30, 29594.18, 99359.60, 76019.63, 0.00, 0.00, 0.00
240, 100066.88, 124307.59, 23755.30, 19911.94, 12012.30, 29594.13, 99357.99, 76018.30, 0.00, 0.00, 0.00
241, 100065.76, 124305.49, 23752.33, 19908.09, 12015.38, 29594.13, 99358.38, 76018.08, 0.00, 0.00, 0.00
242, 100062.37, 124302.23, 23749.20, 19905.26, 12019.52, 29595.23, 99357.37, 76014.95, 0.00, 0.00, 0.00
243, 100060.04, 124299.52, 23751.79, 19901.19, 12012.25, 29593.33, 99355.60, 76012.55, 0.08, -0.19, 0.98
244, 100060.13, 124300.59, 23754.67, 19902.08, 11996.23, 29590.89, 99354.91, 76015.22, 0.00, 0.00, 0.00
245, 100054.25, 124297.33, 23749.89, 19898.39, 11999.06, 29586.15, 99346.59, 76006.55, 0.00, 0.00, 0.00
246, 100046.61, 124294.88, 23739.36, 19885.52, 11986.93, 29572.61, 99333.49, 75990.34, 0.00, 0.00, 0.00
247, 100064.38, 124316.60, 23753.85, 19901.50, 12011.69, 29592.39, 99351.58, 76011.87, 0.00, 0.00, 0.00
248, 100064.69, 124313.31, 23757.24, 19908.43, 12025.84, 29599.43, 99354.77, 76014.66, 0.00, 0.00, 0.00
249, 100059.23, 124311.97, 23752.24, 19905.81, 12022.24, 29601.00, 99353.30, 76011.98, 0.00, 0.00, 0.00
250, 100059.39, 124309.16, 23748.57, 19897.75, 12006.53, 29595.29, 99345.25, 76006.73, 0.00, 0.00, 0.00
251, 100063.37, 124305.31, 23748.71, 19896.27, 11988.25, 29590.27, 99342.62, 76006.16, 0.00, 0.00, 0.00
252, 100066.72, 124293.48, 23746.67, 19894.46, 11989.32, 29590.76, 99343.73, 76008.16, 0.00, 0.00, 0.00
253, 100063.03, 124292.81, 23743.12, 19887.49, 12004.45, 29593.28, 99344.07, 76010.79, 0.08, -0.19, 0.98
254, 100056.38, 124293.80, 23744.44, 19893.86, 12025.01, 29597.93, 99340.45, 76007.04, 0.00, 0.00, 0.00
255, 100060.17, 124300.91, 23748.41, 19899.00, 12012.30, 29595.23, 99342.33, 76007.84, 0.00, 0.00, 0.00
0, 100065.47, 124311.50, 23748.53, 19894.42, 12001.46, 29592.75, 99344.88, 76010.63, 0.00, 0.00, 0.00
1, 100061.58, 124314.09, 23746.36, 19890.66, 12001.72, 29594.89, 99343.89, 76009.74, 0.00, 0.00, 0.00
2, 100059.55, 124310.01, 23748.46, 19899.60, 12004.81, 29600.01, 99344.13, 76005.63, 0.00, 0.00, 0.00
3, 100063.23, 124319.21, 23751.61, 19902.80, 12013.35, 29605.31, 99345.97, 76009.20, 0.00, 0.00, 0.00
4, 100054.14, 124305.27, 23747.39, 19898.24, 12022.13, 29600.53, 99336.96, 76005.12, 0.00, 0.00, 0.00
5, 100050.85, 124276.99, 23740.75, 19891.82, 12007.94, 29596.08, 99334.81, 76003.15, 0.00, 0.00, 0.00
6, 100056.48, 124281.35, 23739.96, 19890.41, 11999.15, 29597.49, 99336.16, 76007.75, 0.00, 0.00, 0.00
7, 100056.09, 124288.08, 23742.34, 19888.98, 12009.84, 29596.64, 99330.52, 76005.07, 0.08, -0.19, 0.98
8, 100054.20, 124289.02, 23747.86, 19887.22, 12005.59, 29595.38, 99326.68, 76000.69, 0.00, 0.00, 0.00
9, 100053.31, 124295.41, 23745.98, 19885.90, 12006.46, 29596.79, 99326.95, 76001.88, 0.00, 0.00, 0.00
10, 100055.81, 124306.05, 23746.04, 19888.13, 12005.59, 29598.69, 99331.13, 76003.02, 0.00, 0.00, 0.00
11, 100053.47, 124305.34, 23749.69, 19892.47, 12007.94, 29599.99, 99330.14, 75999.30, 0.00, 0.00, 0.00
12, 100051.88, 124300.93, 23745.02, 19888.45, 11996.40, 29594.16, 99326.59, 76001.02, 0.00, 0.00, 0.00
13, 100045.02, 124297.42, 23742.40, 19883.96, 11977.65, 29588.05, 99321.91, 75997.29, 0.00, 0.00, 0.00
14, 100045.13, 124299.74, 23744.01, 19884.60, 11991.29, 29591.12, 99319.50, 75998.92, 0.00, 0.00, 0.00
15, 100047.90, 124299.19, 23743.95, 19884.92, 12002.39, 29599.03, 99314.36, 75996.71, 0.00, 0.00, 0.00
16, 100045.71, 124300.15, 23744.88, 19888.20, 12013.01, 29601.15, 99315.16, 75994.79, 0.00, 0.00, 0.00
17, 100050.41, 124303.03, 23742.89, 19893.14, 12018.91, 29604.35, 99321.56, 75998.81, 0.08, -0.19, 0.98
18, 100051.95, 124304.48, 23742.20, 19892.47, 12009.12, 29601.22, 99319.52, 76001.25, 0.00, 0.00, 0.00
19, 100048.28, 124307.50, 23738.85, 19886.59, 11988.98, 29596.68, 99317.94, 75997.16, 0.00, 0.00, 0.00
20, 100043.56, 124307.13, 23738.76, 19883.11, 11980.36, 29591.83, 99315.93, 75994.72, 0.00, 0.00, 0.00
21, 100038.34, 124301.45, 23730.60, 19879.46, 11991.78, 29588.70, 99315.57, 75995.21, 0.00, 0.00, 0.00
22, 100049.73, 124302.02, 23734.62, 19885.61, 11976.35, 29590.15, 99323.82, 76000.71, 0.00, 0.00, 0.00
23, 100051.27, 124300.75, 23738.76, 19885.18, 11992.45, 29598.13, 99324.42, 76000.27, 0.00, 0.00, 0.00
24, 100049.66, 124292.10, 23737.39, 19879.84, 12012.65, 29596.44, 99321.29, 75999.15, 0.00, 0.00, 0.00
25, 100048.33, 124288.03, 23732.63, 19868.11, 12008.09, 29588.59, 99320.53, 75998.23, 0.00, 0.00, 0.00
26, 100046.78, 124291.12, 23732.01, 19871.42, 12002.64, 29587.61, 99323.91, 75999.55, 0.00, 0.00, 0.00
27, 100043.61, 124298.80, 23732.72, 19882.90, 11994.46, 29587.34, 99327.35, 76000.78, 0.08, -0.20, 0.98
28, 100043.48, 124296.10, 23729.73, 19880.71, 11988.96, 29586.85, 99327.70, 75994.03, 0.00, 0.00, 0.00
29, 100046.27, 124302.23, 23735.72, 19881.38, 11994.53, 29587.90, 99329.31, 75990.85, 0.00, 0.00, 0.00
30, 100044.44, 124304.35, 23736.66, 19882.19, 11997.66, 29587.67, 99330.59, 75992.55, 0.00, 0.00, 0.00
31, 100038.63, 124292.93, 23732.59, 19881.52, 11991.55, 29580.83, 99331.20, 75987.86, 0.00, 0.00, 0.00
32, 100036.86, 124290.72, 23732.52, 19879.30, 11992.67, 29578.13, 99329.25, 75985.49, 0.00, 0.00, 0.00
33, 100033.38, 124296.23, 23728.61, 19872.80, 11989.45, 29576.39, 99325.88, 75981.89, 0.00, 0.00, 0.00
34, 100034.70, 124297.40, 23726.76, 19872.89, 11979.95, 29579.11, 99329.80, 75985.89, 0.00, 0.00, 0.00
35, 100032.41, 124285.06, 23721.79, 19871.53, 11959.81, 29571.27, 99323.86, 75980.91, 0.00, 0.00, 0.00
36, 100032.05, 124282.27, 23715.89, 19863.30, 11991.20, 29574.11, 99321.88, 75981.60, 0.00, 0.00, 0.00
37, 100037.30, 124295.43, 23719.25, 19862.65, 11998.06, 29577.64, 99325.31, 75987.95, 0.08, -0.19, 0.98
38, 100040.34, 124305.96, 23723.00, 19866.48, 11994.53, 29577.08, 99329.67, 75989.73, 0.00, 0.00, 0.00
39, 100040.34, 124289.53, 23719.49, 19865.09, 11988.16, 29576.12, 99326.81, 75986.67, 0.00, 0.00, 0.00
40, 100045.42, 124284.48, 23718.40, 19863.62, 11983.57, 29574.51, 99318.77, 75985.71, 0.00, 0.00, 0.00
41, 100039.95, 124292.41, 23728.25, 19867.82, 11972.58, 29575.22, 99319.05, 75987.34, 0.00, 0.00, 0.00
42, 100038.23, 124293.04, 23726.80, 19872.64, 11988.20, 29584.97, 99320.29, 75985.18, 0.00, 0.00, 0.00
43, 100039.41, 124290.91, 23724.54, 19877.74, 12010.35, 29590.54, 99320.80, 75985.45, 0.00, 0.00, 0.00
44, 100037.53, 124289.80, 23721.10, 19872.06, 11994.93, 29578.96, 99314.81, 75984.62, 0.00, 0.00, 0.00
45, 100035.70, 124298.52, 23717.68, 19869.49, 11998.82, 29573.53, 99312.44, 75981.06, 0.00, 0.00, 0.00
46, 100036.16, 124302.95, 23721.99, 19869.27, 11989.10, 29572.41, 99311.75, 75979.90, 0.00, 0.00, 0.00
47, 100038.23, 124301.35, 23724.41, 19867.55, 11990.19, 29575.80, 99312.58, 75984.30, 0.08, -0.19, 0.98
48, 100038.25, 124309.98, 23727.45, 19869.58, 11987.37, 29570.31, 99311.45, 75985.00, 0.00, 0.00, 0.00
49, 100041.09, 124313.38, 23729.42, 19878.68, 11997.21, 29574.13, 99309.20, 75982.77, 0.00, 0.00, 0.00
50, 100038.20, 124303.59, 23724.21, 19872.40, 11970.30, 29565.99, 99304.39, 75982.14, 0.00, 0.00, 0.00
51, 100032.97, 124299.97, 23715.49, 19865.47, 11987.73, 29567.04, 99302.12, 75981.02, 0.00, 0.00, 0.00
52, 100028.50, 124297.24, 23724.65, 19861.22, 11994.77, 29563.27, 99296.13, 75970.96, 0.00, 0.00, 0.00
53, 100031.67, 124299.95, 23727.67, 19856.73, 11981.41, 29562.35, 99297.58, 75967.90, 0.00, 0.00, 0.00
54, 100031.63, 124300.55, 23724.68, 19853.45, 11967.01, 29561.01, 99306.12, 75970.76, 0.00, 0.00, 0.00
55, 100031.48, 124301.71, 23722.38, 19855.43, 11952.44, 29556.56, 99308.91, 75972.80, 0.00, 0.00, 0.00
56, 100031.88, 124307.52, 23725.66, 19863.57, 11974.92, 29564.34, 99312.48, 75975.79, 0.00, 0.00, 0.00
57, 100027.61, 124305.65, 23723.11, 19860.49, 11981.38, 29565.95, 99314.83, 75974.60, 0.08, -0.19, 0.98
58, 100033.17, 124300.70, 23721.73, 19860.22, 11990.55, 29572.52, 99319.28, 75977.60, 0.00, 0.00, 0.00
59, 100037.58, 124300.64, 23721.26, 19862.38, 11985.81, 29574.15, 99323.20, 75980.98, 0.00, 0.00, 0.00
60, 100036.77, 124300.93, 23718.84, 19860.80, 11978.61, 29569.88, 99325.12, 75980.84, 0.00, 0.00, 0.00
61, 100030.27, 124307.95, 23719.87, 19853.73, 11971.17, 29566.37, 99327.70, 75977.16, 0.00, 0.00, 0.00
62, 100023.74, 124295.88, 23711.02, 19850.49, 11973.94, 29565.90, 99331.77, 75977.22, 0.00, 0.00, 0.00
63, 100023.13, 124297.27, 23712.43, 19856.57, 11975.13, 29564.79, 99332.24, 75975.77, 0.00, 0.00, 0.00
64, 100022.17, 124307.34, 23714.89, 19855.48, 11969.09, 29561.95, 99335.02, 75971.92, 0.00, 0.00, 0.00
65, 100022.22, 124294.27, 23712.45, 19853.82, 11963.30, 29561.54, 99333.77, 75971.41, 0.00, 0.00, 0.00
66, 100027.36, 124289.30, 23709.63, 19861.29, 11961.04, 29565.32, 99335.44, 75974.54, 0.00, 0.00, 0.00
67, 100023.67, 124290.09, 23710.44, 19859.81, 11972.73, 29569.32, 99336.94, 75972.41, 0.08, -0.20, 0.98
68, 100016.34, 124289.24, 23708.25, 19857.36, 11955.63, 29566.10, 99333.07, 75967.30, 0.00, 0.00, 0.00
69, 100013.16, 124288.39, 23703.87, 19858.92, 11971.75, 29565.12, 99330.19, 75966.83, 0.00, 0.00, 0.00
70, 100021.55, 124295.37, 23706.33, 19852.95, 11983.08, 29566.60, 99333.63, 75972.55, 0.00, 0.00, 0.00
71, 100023.29, 124296.28, 23706.39, 19852.95, 11990.32, 29565.63, 99332.55, 75971.54, 0.00, 0.00, 0.00
72, 100023.70, 124296.02, 23704.61, 19854.43, 11981.45, 29563.33, 99334.75, 75968.80, 0.00, 0.00, 0.00
73, 100024.52, 124298.47, 23702.30, 19850.34, 11976.87, 29565.01, 99340.78, 75968.05, 0.00, 0.00, 0.00
74, 100026.24, 124298.16, 23701.34, 19848.82, 11979.44, 29567.18, 99344.70, 75973.30, 0.00, 0.00, 0.00
75, 100025.39, 124301.47, 23704.65, 19847.90, 11972.55, 29562.01, 99341.07, 75975.27, 0.00, 0.00, 0.00
76, 100023.45, 124302.54, 23702.88, 19836.68, 11956.71, 29551.91, 99338.16, 75973.47, 0.00, 0.00, 0.00
77, 100026.02, 124297.51, 23696.31, 19832.37, 11961.25, 29555.51, 99337.52, 75973.95, 0.07, -0.19, 0.98
78, 100023.18, 124290.52, 23689.05, 19828.37, 11952.77, 29550.41, 99332.58, 75969.98, 0.00, 0.00, 0.00
79, 100020.92, 124286.94, 23687.01, 19830.49, 11947.39, 29544.71, 99327.38, 75967.56, 0.00, 0.00, 0.00
80, 100023.54, 124287.14, 23692.71, 19831.61, 11939.54, 29540.98, 99324.73, 75967.36, 0.00, 0.00, 0.00
81, 100013.77, 124296.15, 23695.22, 19830.60, 11930.00, 29542.32, 99322.97, 75961.10, 0.00, 0.00, 0.00
82, 100007.69, 124292.30, 23690.46, 19830.27, 11938.38, 29538.97, 99318.63, 75953.82, 0.00, 0.00, 0.00
83, 100011.63, 124283.41, 23688.85, 19830.11, 11961.40, 29545.61, 99315.97, 75948.79, 0.00, 0.00, 0.00
84, 100011.96, 124284.19, 23689.85, 19827.23, 11960.22, 29545.21, 99314.03, 75947.85, 0.00, 0.00, 0.00
85, 100006.88, 124285.44, 23686.43, 19826.24, 11946.87, 29540.85, 99310.98, 75945.32, 0.00, 0.00, 0.00
86, 100002.51, 124277.39, 23685.34, 19828.10, 11937.80, 29537.94, 99307.32, 75942.27, 0.00, 0.00, 0.00
87, 100003.22, 124274.02, 23686.28, 19833.39, 11960.33, 29538.68, 99307.08, 75942.22, 0.08, -0.19, 0.98
88, 100000.90, 124272.86, 23683.71, 19832.99, 11965.29, 29537.23, 99301.87, 75941.44, 0.00, 0.00, 0.00
89, 100000.61, 124273.99, 23682.79, 19830.65, 11942.45, 29538.39, 99301.78, 75938.22, 0.00, 0.00, 0.00
90, 100001.57, 124276.88, 23686.90, 19835.41, 11951.77, 29539.88, 99303.34, 75940.23, 0.00, 0.00, 0.00
91, 99999.22, 124285.06, 23691.02, 19843.12, 11969.40, 29543.24, 99303.05, 75943.47, 0.00, 0.00, 0.00
92, 99996.02, 124289.27, 23687.08, 19842.98, 11974.83, 29540.89, 99299.95, 75941.41, 0.00, 0.00, 0.00
93, 99997.52, 124288.57, 23687.91, 19841.44, 11972.91, 29541.29, 99302.54, 75943.54, 0.00, 0.00, 0.00
94, 99993.79, 124289.22, 23688.71, 19842.22, 11972.85, 29543.55, 99301.94, 75941.14, 0.00, 0.00, 0.00
95, 100000.85, 124283.05, 23682.41, 19834.78, 11957.60, 29538.25, 99295.07, 75940.20, 0.00, 0.00, 0.00
96, 100011.07, 124280.32, 23679.79, 19832.19, 11954.34, 29536.80, 99297.71, 75944.72, 0.00, 0.00, 0.00
97, 100008.14, 124279.23, 23679.97, 19833.64, 11956.42, 29541.23, 99302.38, 75944.30, 0.08, -0.19, 0.98
98, 100004.14, 124278.60, 23679.84, 19832.21, 11959.68, 29545.96, 99300.05, 75943.09, 0.00, 0.00, 0.00
99, 100001.90, 124283.79, 23687.84, 19831.12, 11962.21, 29546.72, 99295.37, 75942.44, 0.00, 0.00, 0.00
100, 100003.84, 124287.85, 23694.81, 19828.08, 11956.08, 29543.73, 99295.50, 75946.66, 0.00, 0.00, 0.00
101, 100000.12, 124288.34, 23691.98, 19825.39, 11950.05, 29540.31, 99294.34, 75943.40, 0.00, 0.00, 0.00
102, 99999.38, 124287.83, 23687.13, 19826.87, 11948.64, 29538.57, 99294.13, 75941.86, 0.00, 0.00, 0.00
103, 100003.00, 124287.32, 23684.71, 19830.42, 11936.93, 29533.25, 99290.09, 75941.19, 0.00, 0.00, 0.00
104, 100003.84, 124290.00, 23685.96, 19839.03, 11927.76, 29531.12, 99288.26, 75942.20, 0.00, 0.00, 0.00
105, 100004.34, 124296.99, 23688.33, 19845.53, 11951.50, 29541.45, 99288.45, 75943.96, 0.00, 0.00, 0.00
106, 100000.72, 124291.14, 23688.51, 19849.47, 11957.65, 29543.84, 99286.29, 75938.44, 0.00, 0.00, 0.00
107, 99997.97, 124286.78, 23693.79, 19856.82, 11954.92, 29546.57, 99289.82, 75939.73, 0.09, -0.20, 0.99
108, 99999.24, 124280.03, 23682.86, 19850.52, 11940.26, 29539.01, 99283.54, 75938.69, 0.00, 0.00, 0.00
109, 99999.98, 124279.74, 23677.22, 19846.31, 11920.10, 29534.01, 99278.96, 75936.95, 0.00, 0.00, 0.00
110, 99996.34, 124285.55, 23685.79, 19845.62, 11943.99, 29536.80, 99276.79, 75934.87, 0.00, 0.00, 0.00
111, 99994.73, 124286.31, 23686.84, 19847.50, 11957.02, 29538.14, 99275.90, 75934.66, 0.00, 0.00, 0.00
112, 99996.78, 124287.25, 23685.72, 19850.43, 11943.59, 29540.60, 99276.95, 75935.40, 0.00, 0.00, 0.00
113, 99993.95, 124298.36, 23692.67, 19858.03, 11957.98, 29541.38, 99278.29, 75935.84, 0.00, 0.00, 0.00
114, 99994.23, 124308.38, 23698.21, 19862.56, 11971.73, 29546.77, 99277.52, 75933.12, 0.00, 0.00, 0.00
115, 100001.45, 124305.11, 23700.02, 19867.06, 11981.67, 29551.87, 99284.68, 75940.14, 0.00, 0.00, 0.00
116, 99998.98, 124292.48, 23699.24, 19864.06, 11984.76, 29554.41, 99289.91, 75938.04, 0.00, 0.00, 0.00
117, 99993.30, 124289.17, 23701.12, 19865.07, 11977.65, 29551.60, 99288.44, 75935.27, 0.09, -0.20, 0.99
118, 99994.75, 124292.34, 23701.74, 19866.83, 11973.45, 29553.05, 99288.63, 75938.44, 0.00, 0.00, 0.00
119, 100000.94, 124294.90, 23703.20, 19865.65, 11963.82, 29549.83, 99292.50, 75942.62, 0.00, 0.00, 0.00
120, 99998.05, 124292.30, 23698.50, 19863.10, 11974.37, 29553.21, 99292.23, 75944.61, 0.00, 0.00, 0.00
121, 100002.59, 124290.63, 23694.21, 19863.21, 11973.23, 29554.24, 99291.84, 75946.80, 0.00, 0.00, 0.00
122, 100005.79, 124294.27, 23694.39, 19862.01, 11965.80, 29552.83, 99292.59, 75948.07, 0.00, 0.00, 0.00
123, 100003.73, 124306.07, 23700.02, 19863.79, 11958.85, 29548.13, 99289.04, 75946.06, 0.00, 0.00, 0.00
124, 100006.53, 124300.20, 23702.21, 19861.78, 11942.22, 29545.18, 99289.98, 75949.28, 0.00, 0.00, 0.00
125, 100007.06, 124285.10, 23700.04, 19861.67, 11955.41, 29552.11, 99295.19, 75953.82, 0.00, 0.00, 0.00
126, 100008.36, 124283.00, 23689.50, 19856.13, 11957.47, 29552.00, 99299.12, 75954.45, 0.00, 0.00, 0.00
127, 100010.06, 124285.02, 23687.57, 19855.57, 11945.35, 29548.20, 99298.27, 75955.00, 0.08, -0.20, 0.99
128, 100005.14, 124286.31, 23688.58, 19852.89, 11948.44, 29544.13, 99292.93, 75951.13, 0.00, 0.00, 0.00
129, 100009.91, 124290.85, 23693.65, 19854.00, 11958.18, 29541.27, 99292.01, 75950.30, 0.00, 0.00, 0.00
130, 100019.11, 124292.19, 23693.65, 19855.39, 11958.07, 29543.04, 99295.85, 75957.13, 0.00, 0.00, 0.00
131, 100017.17, 124291.85, 23693.88, 19856.84, 11952.68, 29540.60, 99297.04, 75961.84, 0.00, 0.00, 0.00
132, 100015.88, 124294.23, 23696.00, 19860.93, 11955.61, 29543.95, 99299.30, 75959.49, 0.00, 0.00, 0.00
133, 100018.11, 124298.43, 23697.05, 19864.91, 11951.12, 29542.01, 99297.89, 75957.08, 0.00, 0.00, 0.00
134, 100019.45, 124294.52, 23697.05, 19864.31, 11963.53, 29544.18, 99298.02, 75957.35, 0.00, 0.00, 0.00
135, 100018.48, 124293.98, 23702.04, 19869.65, 11966.48, 29549.09, 99304.08, 75958.45, 0.00, 0.00, 0.00
136, 100013.16, 124292.70, 23697.92, 19867.48, 11969.16, 29548.20, 99302.12, 75957.06, 0.00, 0.00, 0.00
137, 100015.58, 124294.78, 23699.33, 19869.65, 11980.11, 29549.59, 99301.66, 75955.20, 0.08, -0.19, 0.98
138, 100012.56, 124292.39, 23699.89, 19874.41, 11977.00, 29542.99, 99293.77, 75947.91, 0.00, 0.00, 0.00
139, 100008.25, 124291.32, 23695.49, 19869.02, 11960.04, 29539.15, 99295.48, 75951.45, 0.00, 0.00, 0.00
140, 100008.95, 124290.49, 23695.51, 19870.95, 11969.34, 29543.78, 99301.91, 75951.85, 0.00, 0.00, 0.00
141, 100013.32, 124289.89, 23694.50, 19873.09, 11962.94, 29544.11, 99302.72, 75949.98, 0.00, 0.00, 0.00
142, 100017.73, 124293.38, 23696.47, 19873.88, 11971.62, 29560.56, 99310.27, 75953.28, 0.00, 0.00, 0.00
143, 100014.09, 124303.88, 23701.83, 19874.48, 11976.71, 29559.76, 99312.95, 75954.33, 0.00, 0.00, 0.00
144, 100005.16, 124290.65, 23695.44, 19867.66, 11949.04, 29545.32, 99304.84, 75945.05, 0.00, 0.00, 0.00
145, 100007.58, 124281.46, 23692.54, 19865.43, 11965.18, 29550.35, 99310.01, 75947.96, 0.00, 0.00, 0.00
146, 100003.24, 124283.09, 23694.41, 19865.63, 11987.17, 29555.44, 99313.63, 75950.84, 0.00, 0.00, 0.00
147, 100013.19, 124285.40, 23695.26, 19862.34, 11983.57, 29555.15, 99317.23, 75954.33, 0.08, -0.20, 0.98
148, 100014.95, 124288.57, 23691.04, 19859.32, 11973.40, 29555.24, 99320.22, 75957.17, 0.00, 0.00, 0.00
149, 100013.75, 124295.43, 23689.56, 19856.26, 11958.63, 29552.71, 99320.15, 75956.97, 0.00, 0.00, 0.00
150, 100012.38, 124284.61, 23683.51, 19854.29, 11957.83, 29548.85, 99315.41, 75954.42, 0.00, 0.00, 0.00
151, 100006.69, 124280.26, 23692.74, 19849.18, 11951.66, 29543.78, 99307.16, 75947.72, 0.00, 0.00, 0.00
152, 100014.46, 124287.25, 23698.08, 19857.47, 11947.34, 29545.72, 99309.22, 75950.80, 0.00, 0.00, 0.00
153, 100018.17, 124288.86, 23695.04, 19853.18, 11956.04, 29543.60, 99309.09, 75955.12, 0.00, 0.00, 0.00
154, 100016.48, 124292.16, 23694.21, 19855.34, 11954.99, 29536.69, 99309.20, 75958.09, 0.00, 0.00, 0.00
155, 100011.16, 124295.90, 23694.95, 19859.55, 11939.68, 29531.08, 99305.00, 75951.72, 0.00, 0.00, 0.00
156, 100008.49, 124290.20, 23694.10, 19855.46, 11951.52, 29533.83, 99302.07, 75948.01, 0.00, 0.00, 0.00
157, 100004.88, 124287.97, 23695.08, 19859.50, 11971.44, 29539.68, 99300.57, 75942.87, 0.08, -0.20, 0.97
158, 100007.05, 124289.84, 23699.49, 19871.17, 11976.71, 29542.81, 99299.39, 75939.02, 0.00, 0.00, 0.00
159, 100009.21, 124296.46, 23707.38, 19869.72, 11962.63, 29541.88, 99301.98, 75944.05, 0.00, 0.00, 0.00
160, 100006.88, 124295.99, 23705.52, 19863.17, 11951.61, 29539.24, 99300.37, 75944.30, 0.00, 0.00, 0.00
161, 100010.51, 124296.73, 23706.33, 19863.88, 11980.36, 29547.04, 99304.59, 75942.73, 0.00, 0.00, 0.00
162, 100006.41, 124297.78, 23705.70, 19865.89, 11974.90, 29547.42, 99302.16, 75939.52, 0.00, 0.00, 0.00
163, 100006.35, 124302.09, 23707.15, 19867.41, 11971.53, 29545.47, 99297.66, 75941.70, 0.00, 0.00, 0.00
164, 100005.12, 124304.33, 23706.57, 19862.56, 11962.94, 29542.88, 99294.78, 75940.45, 0.00, 0.00, 0.00
165, 100004.25, 124299.59, 23705.52, 19862.61, 11959.55, 29539.71, 99295.12, 75939.63, 0.00, 0.00, 0.00
166, 100010.20, 124301.20, 23710.77, 19869.02, 11987.71, 29550.01, 99301.51, 75945.16, 0.00, 0.00, 0.00
167, 100007.60, 124300.98, 23709.48, 19867.86, 11992.78, 29550.41, 99300.77, 75943.16, 0.08, -0.20, 0.98
168, 100003.20, 124299.37, 23705.30, 19864.44, 11976.24, 29545.67, 99300.37, 75941.30, 0.00, 0.00, 0.00
169, 100006.93, 124299.92, 23705.57, 19864.26, 11975.08, 29546.26, 99302.88, 75942.48, 0.00, 0.00, 0.00
170, 100008.74, 124299.59, 23703.82, 19863.19, 11979.89, 29549.21, 99309.42, 75946.40, 0.00, 0.00, 0.00
171, 100003.76, 124298.88, 23705.34, 19862.34, 11964.67, 29544.24, 99309.94, 75947.27, 0.00, 0.00, 0.00
172, 100007.27, 124304.88, 23708.29, 19861.07, 11961.83, 29539.48, 99306.79, 75950.30, 0.00, 0.00, 0.00
173, 100008.36, 124304.73, 23700.18, 19854.03, 11967.01, 29542.26, 99308.06, 75951.88, 0.00, 0.00, 0.00
174, 100009.34, 124298.54, 23699.29, 19858.34, 11988.67, 29554.19, 99313.18, 75950.64, 0.00, 0.00, 0.00
175, 100010.48, 124295.88, 23701.16, 19866.54, 11976.73, 29549.83, 99314.19, 75946.89, 0.00, 0.00, 0.00
176, 100008.85, 124298.96, 23703.29, 19862.59, 11975.71, 29552.43, 99318.27, 75948.23, 0.08, -0.20, 0.98
177, 100002.35, 124300.37, 23707.24, 19862.45, 11975.68, 29552.27, 99318.97, 75943.36, 0.00, 0.00, 0.00
178, 99994.95, 124294.41, 23700.98, 19854.63, 11956.13, 29543.33, 99312.55, 75938.93, 0.00, 0.00, 0.00
179, 99997.59, 124292.33, 23698.35, 19850.43, 11929.86, 29536.71, 99310.77, 75940.48, 0.00, 0.00, 0.00
180, 99998.75, 124292.52, 23696.63, 19849.38, 11954.63, 29538.50, 99313.06, 75942.69, 0.00, 0.00, 0.00
181, 100002.80, 124299.01, 23699.84, 19860.15, 11971.79, 29540.13, 99314.23, 75946.60, 0.00, 0.00, 0.00
182, 100003.24, 124303.43, 23704.00, 19863.59, 11964.58, 29539.24, 99315.15, 75948.66, 0.00, 0.00, 0.00
183, 100000.36, 124299.08, 23702.46, 19857.87, 11953.71, 29534.50, 99311.81, 75943.76, 0.00, 0.00, 0.00
184, 100000.05, 124298.34, 23700.02, 19851.39, 11955.93, 29530.32, 99310.25, 75943.73, 0.00, 0.00, 0.00
185, 100009.68, 124301.38, 23702.82, 19861.51, 11965.47, 29538.97, 99314.63, 75950.13, 0.00, 0.00, 0.00
186, 100010.98, 124300.69, 23700.31, 19859.08, 11975.82, 29537.45, 99313.60, 75950.53, 0.08, -0.20, 0.98
187, 100011.80, 124301.82, 23701.05, 19856.04, 11965.16, 29531.93, 99310.85, 75949.13, 0.00, 0.00, 0.00
188, 100011.73, 124305.09, 23704.05, 19861.69, 11960.89, 29532.93, 99310.85, 75947.72, 0.00, 0.00, 0.00
189, 100007.58, 124303.81, 23700.74, 19856.46, 11958.43, 29534.66, 99309.38, 75946.87, 0.00, 0.00, 0.00
190, 100007.47, 124304.33, 23702.95, 19860.46, 11945.98, 29535.35, 99312.66, 75950.91, 0.00, 0.00, 0.00
191, 100011.78, 124307.39, 23708.56, 19870.50, 11960.93, 29538.39, 99318.72, 75952.32, 0.00, 0.00, 0.00
192, 100013.16, 124308.73, 23705.75, 19867.10, 11985.76, 29541.99, 99321.16, 75953.15, 0.00, 0.00, 0.00
193, 100010.95, 124315.39, 23711.27, 19869.00, 11984.85, 29546.05, 99327.05, 75955.27, 0.00, 0.00, 0.00
194, 100004.92, 124312.30, 23706.01, 19860.93, 11972.62, 29540.80, 99322.59, 75948.27, 0.00, 0.00, 0.00
195, 100006.87, 124303.37, 23697.81, 19856.24, 11965.56, 29540.40, 99322.79, 75946.95, 0.00, 0.00, 0.00
196, 100010.13, 124301.80, 23696.78, 19861.20, 11961.07, 29539.97, 99327.48, 75947.70, 0.08, -0.20, 0.98
197, 100011.18, 124303.95, 23696.60, 19863.75, 11948.97, 29548.83, 99330.88, 75950.51, 0.00, 0.00, 0.00
198, 100009.50, 124304.88, 23696.92, 19854.61, 11940.93, 29544.91, 99325.63, 75947.60, 0.00, 0.00, 0.00
199, 100011.73, 124308.95, 23703.49, 19853.24, 11968.08, 29543.89, 99326.27, 75948.34, 0.00, 0.00, 0.00
200, 100017.73, 124310.74, 23703.94, 19855.54, 11957.22, 29541.21, 99331.02, 75949.68, 0.00, 0.00, 0.00
201, 100017.33, 124310.32, 23705.52, 19854.07, 11948.04, 29534.90, 99332.80, 75951.05, 0.00, 0.00, 0.00
202, 100010.73, 124307.08, 23697.01, 19845.98, 11955.34, 29530.41, 99329.70, 75949.03, 0.00, 0.00, 0.00
203, 100015.47, 124310.48, 23696.60, 19851.84, 11965.69, 29536.60, 99331.55, 75948.72, 0.00, 0.00, 0.00
204, 100018.98, 124315.28, 23699.06, 19854.14, 11968.04, 29538.88, 99334.01, 75949.68, 0.00, 0.00, 0.00
205, 100016.09, 124307.97, 23696.49, 19848.37, 11963.68, 29536.49, 99332.71, 75946.40, 0.00, 0.00, 0.00
206, 100010.77, 124303.48, 23697.05, 19851.84, 11959.30, 29537.03, 99334.99, 75944.41, 0.08, -0.20, 0.98
207, 100011.00, 124304.41, 23696.07, 19853.42, 11958.76, 29534.16, 99336.87, 75948.92, 0.00, 0.00, 0.00
208, 100015.63, 124307.63, 23697.79, 19855.12, 11958.92, 29535.42, 99337.19, 75951.05, 0.00, 0.00, 0.00
209, 100012.56, 124309.34, 23697.25, 19851.75, 11952.84, 29534.46, 99334.30, 75946.02, 0.00, 0.00, 0.00
210, 100008.05, 124309.54, 23695.02, 19848.26, 11934.51, 29528.78, 99330.68, 75942.20, 0.00, 0.00, 0.00
211, 100009.52, 124309.16, 23696.22, 19849.11, 11935.03, 29524.71, 99329.70, 75944.99, 0.00, 0.00, 0.00
212, 100020.03, 124307.16, 23693.14, 19848.04, 11959.03, 29530.47, 99331.13, 75951.07, 0.00, 0.00, 0.00
213, 100012.30, 124312.11, 23700.94, 19855.75, 11962.07, 29536.22, 99334.23, 75940.43, 0.00, 0.00, 0.00
214, 100007.55, 124314.61, 23696.22, 19851.99, 11958.16, 29534.79, 99335.46, 75935.76, 0.00, 0.00, 0.00
215, 100009.41, 124307.91, 23692.83, 19852.04, 11946.65, 29532.87, 99334.39, 75939.22, 0.00, 0.00, 0.00
216, 100011.73, 124305.16, 23693.99, 19854.05, 11963.44, 29538.10, 99334.97, 75940.07, 0.09, -0.20, 0.98
217, 100011.55, 124305.71, 23692.49, 19849.33, 11957.29, 29532.04, 99329.98, 75940.07, 0.00, 0.00, 0.00
218, 100012.27, 124307.37, 23694.79, 19849.98, 11967.44, 29534.19, 99329.65, 75942.42, 0.00, 0.00, 0.00
219, 100014.53, 124309.40, 23699.51, 19856.80, 11974.59, 29540.40, 99334.28, 75944.48, 0.00, 0.00, 0.00
220, 100014.46, 124308.09, 23699.80, 19856.02, 11969.40, 29539.33, 99336.18, 75946.95, 0.00, 0.00, 0.00
221, 100012.54, 124307.08, 23694.23, 19850.16, 11963.26, 29538.75, 99338.93, 75947.23, 0.00, 0.00, 0.00
222, 100007.98, 124303.16, 23691.15, 19845.80, 11954.85, 29536.73, 99340.29, 75944.81, 0.00, 0.00, 0.00
223, 100012.36, 124308.57, 23693.27, 19852.82, 11953.69, 29538.14, 99341.19, 75952.70, 0.00, 0.00, 0.00
224, 100013.86, 124312.30, 23688.82, 19847.28, 11946.69, 29532.04, 99342.13, 75955.70, 0.00, 0.00, 0.00
225, 100016.38, 124310.72, 23687.42, 19845.31, 11939.38, 29525.45, 99344.23, 75958.73, 0.00, 0.00, 0.00
226, 100021.57, 124307.28, 23691.51, 19850.11, 11952.73, 29536.69, 99345.88, 75958.00, 0.09, -0.19, 0.98
227, 100019.34, 124307.61, 23692.04, 19862.52, 11955.93, 29539.42, 99346.88, 75953.30, 0.00, 0.00, 0.00
228, 100021.91, 124311.86, 23697.12, 19867.86, 11952.93, 29544.69, 99352.54, 75955.20, 0.00, 0.00, 0.00
229, 100019.88, 124316.84, 23706.91, 19867.26, 11979.37, 29548.54, 99354.62, 75955.00, 0.00, 0.00, 0.00
230, 100019.67, 124313.05, 23701.54, 19857.00, 11980.58, 29543.82, 99352.70, 75955.23, 0.00, 0.00, 0.00
231, 100019.65, 124314.54, 23703.64, 19861.07, 11968.13, 29539.93, 99348.67, 75954.11, 0.00, 0.00, 0.00
232, 100016.12, 124317.36, 23707.33, 19864.53, 11968.02, 29542.77, 99348.45, 75954.69, 0.00, 0.00, 0.00
233, 100009.32, 124311.59, 23699.24, 19854.12, 11969.13, 29539.93, 99341.21, 75947.41, 0.00, 0.00, 0.00
234, 100016.30, 124316.58, 23700.74, 19857.87, 11966.97, 29542.30, 99344.76, 75950.11, 0.00, 0.00, 0.00
235, 100013.41, 124319.86, 23703.24, 19862.12, 11957.20, 29541.38, 99344.59, 75949.39, 0.00, 0.00, 0.00
236, 100010.69, 124315.10, 23704.34, 19862.97, 11948.82, 29538.61, 99345.70, 75953.46, 0.08, -0.19, 0.98
237, 100013.62, 124313.34, 23703.11, 19860.42, 11975.30, 29542.10, 99349.57, 75954.78, 0.00, 0.00, 0.00
238, 100013.52, 124317.90, 23707.27, 19862.03, 11979.71, 29546.19, 99353.79, 75953.48, 0.00, 0.00, 0.00
239, 100012.56, 124319.13, 23708.25, 19866.54, 11973.14, 29542.66, 99350.08, 75946.73, 0.00, 0.00, 0.00
240, 100016.05, 124318.14, 23706.37, 19862.41, 11969.65, 29539.17, 99345.19, 75943.47, 0.00, 0.00, 0.00
241, 100018.48, 124316.35, 23704.54, 19859.79, 11971.46, 29540.82, 99346.23, 75949.23, 0.00, 0.00, 0.00
242, 100018.66, 124318.59, 23705.72, 19864.17, 11972.64, 29546.97, 99352.38, 75953.69, 0.00, 0.00, 0.00
243, 100023.02, 124320.91, 23709.70, 19868.55, 11976.51, 29553.23, 99360.43, 75956.66, 0.00, 0.00, 0.00
244, 100018.04, 124318.03, 23708.90, 19860.17, 11967.48, 29547.87, 99354.26, 75950.95, 0.00, 0.00, 0.00
245, 100012.34, 124314.05, 23696.45, 19852.73, 11945.84, 29542.39, 99352.92, 75947.85, 0.00, 0.00, 0.00
246, 100016.21, 124318.99, 23700.98, 19857.22, 11936.41, 29540.87, 99357.52, 75953.10, 0.08, -0.19, 0.98
247, 100013.84, 124323.91, 23703.82, 19858.34, 11970.81, 29543.78, 99354.93, 75951.18, 0.00, 0.00, 0.00
248, 100006.30, 124319.37, 23699.46, 19855.66, 11972.73, 29547.20, 99353.08, 75945.73, 0.00, 0.00, 0.00
249, 100008.43, 124320.31, 23704.49, 19855.77, 11957.15, 29544.85, 99358.55, 75952.88, 0.00, 0.00, 0.00
250, 100019.25, 124324.58, 23708.34, 19861.87, 11972.44, 29544.87, 99360.38, 75954.00, 0.00, 0.00, 0.00
251, 100029.64, 124327.55, 23708.32, 19860.20, 11972.89, 29542.97, 99360.27, 75958.22, 0.00, 0.00, 0.00
252, 100026.80, 124325.47, 23705.72, 19855.17, 11958.76, 29542.12, 99361.32, 75959.23, 0.00, 0.00, 0.00
253, 100022.80, 124324.20, 23706.64, 19854.88, 11978.97, 29546.66, 99363.20, 75959.16, 0.00, 0.00, 0.00
254, 100019.00, 124323.73, 23703.46, 19857.24, 11967.55, 29541.94, 99361.44, 75956.09, 0.00, 0.00, 0.00
255, 100016.23, 124326.45, 23701.59, 19853.96, 11968.20, 29541.41, 99358.64, 75954.42, 0.00, 0.00, 0.00
0, 100018.30, 124322.99, 23697.79, 19848.86, 11963.82, 29538.61, 99357.95, 75954.76, 0.08, -0.19, 0.99
1, 100019.52, 124319.48, 23699.62, 19851.37, 11960.87, 29538.37, 99360.79, 75951.94, 0.00, 0.00, 0.00
2, 100017.21, 124319.91, 23700.80, 19859.17, 11958.14, 29538.23, 99361.77, 75952.37, 0.00, 0.00, 0.00
3, 100015.58, 124320.40, 23700.20, 19851.95, 11952.37, 29536.69, 99361.39, 75955.05, 0.00, 0.00, 0.00
4, 100013.03, 124323.05, 23700.43, 19851.43, 11960.53, 29535.17, 99361.05, 75952.05, 0.00, 0.00, 0.00
5, 100012.81, 124322.52, 23698.28, 19855.50, 11961.51, 29535.28, 99361.37, 75949.91, 0.00, 0.00, 0.00
6, 100012.23, 124323.10, 23699.24, 19853.96, 11966.01, 29540.94, 99364.99, 75948.95, 0.00, 0.00, 0.00
7, 100016.72, 124325.18, 23700.20, 19859.68, 11964.29, 29545.27, 99371.07, 75953.17, 0.00, 0.00, 0.00
8, 100013.95, 124324.02, 23697.05, 19852.17, 11950.02, 29539.53, 99365.98, 75951.94, 0.00, 0.00, 0.00
9, 100016.14, 124328.34, 23700.38, 19852.19, 11948.82, 29538.12, 99365.66, 75946.98, 0.00, 0.00, 0.00
10, 100018.58, 124327.62, 23702.88, 19857.02, 11965.96, 29542.54, 99365.99, 75942.71, 0.08, -0.20, 0.99
11, 100021.86, 124322.16, 23702.41, 19856.24, 11968.91, 29546.41, 99364.43, 75947.80, 0.00, 0.00, 0.00
12, 100021.64, 124321.72, 23700.58, 19855.79, 11972.53, 29548.00, 99364.97, 75949.23, 0.00, 0.00, 0.00
13, 100018.06, 124321.85, 23694.05, 19860.87, 11975.01, 29545.36, 99359.06, 75944.25, 0.00, 0.00, 0.00
14, 100016.37, 124323.26, 23697.07, 19861.02, 11963.75, 29539.75, 99359.65, 75944.85, 0.00, 0.00, 0.00
15, 100014.64, 124325.07, 23705.05, 19857.38, 11963.19, 29536.29, 99359.60, 75940.48, 0.00, 0.00, 0.00
16, 100018.13, 124328.69, 23709.30, 19862.18, 11997.70, 29549.18, 99366.09, 75943.11, 0.00, 0.00, 0.00
17, 100012.32, 124328.76, 23706.17, 19862.18, 11981.96, 29543.04, 99366.13, 75945.01, 0.00, 0.00, 0.00
18, 100019.11, 124331.26, 23706.91, 19864.42, 11971.50, 29543.39, 99368.68, 75953.17, 0.00, 0.00, 0.00
19, 100013.08, 124330.14, 23699.64, 19854.63, 11969.18, 29545.25, 99365.52, 75947.83, 0.00, 0.00, 0.00
20, 100008.67, 124329.65, 23692.04, 19848.75, 11967.24, 29543.60, 99363.78, 75941.57, 0.08, -0.19, 0.98
21, 100020.72, 124327.62, 23693.05, 19843.97, 11961.63, 29546.52, 99369.68, 75942.48, 0.00, 0.00, 0.00
22, 100023.38, 124322.52, 23694.17, 19845.85, 11954.72, 29545.03, 99374.04, 75947.73, 0.00, 0.00, 0.00
23, 100022.11, 124323.30, 23693.94, 19845.96, 11961.76, 29547.51, 99374.60, 75947.41, 0.00, 0.00, 0.00
24, 100013.50, 124319.46, 23688.74, 19836.93, 11949.60, 29536.85, 99362.82, 75937.95, 0.00, 0.00, 0.00
25, 100010.84, 124320.29, 23690.08, 19840.62, 11953.11, 29535.48, 99360.23, 75935.06, 0.00, 0.00, 0.00
26, 100010.77, 124323.28, 23692.87, 19842.29, 11955.52, 29537.85, 99361.52, 75935.83, 0.00, 0.00, 0.00
27, 100010.48, 124323.26, 23695.06, 19846.18, 11959.12, 29542.59, 99363.20, 75935.24, 0.00, 0.00, 0.00
28, 100011.18, 124325.27, 23695.82, 19846.92, 11955.12, 29544.76, 99365.55, 75935.60, 0.00, 0.00, 0.00
29, 100013.01, 124324.63, 23693.56, 19845.20, 11957.42, 29545.96, 99367.98, 75939.65, 0.00, 0.00, 0.00
30, 100013.86, 124325.95, 23694.81, 19850.72, 11964.89, 29546.26, 99370.35, 75944.30, 0.08, -0.20, 0.98
31, 100010.46, 124330.45, 23694.99, 19852.57, 11960.02, 29543.71, 99369.62, 75940.95, 0.00, 0.00, 0.00
32, 100012.63, 124330.81, 23696.38, 19859.32, 11962.74, 29547.51, 99372.14, 75946.66, 0.00, 0.00, 0.00
33, 100020.88, 124323.82, 23693.77, 19858.59, 11943.72, 29542.54, 99370.66, 75948.25, 0.00, 0.00, 0.00
34, 100023.70, 124319.41, 23694.50, 19857.69, 11938.07, 29543.62, 99369.77, 75946.66, 0.00, 0.00, 0.00
35, 100024.14, 124326.12, 23703.00, 19858.25, 11989.54, 29554.32, 99377.22, 75947.96, 0.00, 0.00, 0.00
36, 100021.86, 124326.84, 23698.79, 19857.87, 12000.63, 29554.28, 99377.28, 75946.45, 0.00, 0.00, 0.00
37, 100016.92, 124325.16, 23695.87, 19854.45, 11981.38, 29548.13, 99374.02, 75942.84, 0.00, 0.00, 0.00
38, 100016.63, 124328.73, 23700.58, 19852.95, 11955.43, 29537.83, 99372.12, 75943.38, 0.00, 0.00, 0.00
39, 100021.95, 124330.37, 23702.73, 19860.26, 11964.26, 29544.69, 99372.52, 75946.55, 0.00, 0.00, 0.00
40, 100019.23, 124332.78, 23705.54, 19863.57, 11968.49, 29542.37, 99373.70, 75946.95, 0.08, -0.20, 0.97
41, 100014.09, 124335.11, 23703.67, 19861.85, 11971.46, 29539.21, 99372.52, 75945.84, 0.00, 0.00, 0.00
42, 100018.38, 124335.44, 23700.56, 19860.46, 11979.95, 29542.93, 99376.39, 75952.08, 0.00, 0.00, 0.00
43, 100011.13, 124327.66, 23694.48, 19850.99, 11961.85, 29535.75, 99372.12, 75947.67, 0.00, 0.00, 0.00
44, 100016.70, 124325.78, 23691.93, 19843.83, 11957.13, 29532.73, 99372.48, 75952.48, 0.00, 0.00, 0.00
45, 100022.06, 124328.73, 23696.85, 19848.71, 11960.31, 29534.43, 99378.00, 75955.36, 0.00, 0.00, 0.00
46, 100020.70, 124333.02, 23702.19, 19854.58, 11967.39, 29539.04, 99380.93, 75955.00, 0.00, 0.00, 0.00
47, 100019.31, 124332.38, 23696.71, 19848.77, 11961.94, 29538.52, 99375.77, 75954.65, 0.00, 0.00, 0.00
48, 100021.68, 124332.49, 23698.08, 19850.47, 11961.51, 29540.13, 99378.67, 75956.90, 0.00, 0.00, 0.00
49, 100019.00, 124325.14, 23693.70, 19847.30, 11957.71, 29541.29, 99381.09, 75954.58, 0.00, 0.00, 0.00
50, 100018.98, 124326.05, 23695.08, 19852.51, 11960.42, 29545.14, 99382.67, 75951.54, 0.08, -0.20, 0.98
51, 100022.06, 124332.06, 23702.35, 19858.72, 11954.23, 29546.68, 99379.34, 75953.08, 0.00, 0.00, 0.00
52, 100020.09, 124328.42, 23700.13, 19856.51, 11924.52, 29538.34, 99374.16, 75955.20, 0.00, 0.00, 0.00
53, 100020.01, 124327.88, 23696.76, 19855.01, 11967.21, 29543.89, 99375.52, 75954.80, 0.00, 0.00, 0.00
54, 100019.23, 124332.45, 23700.85, 19851.90, 11987.02, 29549.09, 99377.64, 75951.56, 0.00, 0.00, 0.00
55, 100023.56, 124336.54, 23701.81, 19851.34, 11969.94, 29548.87, 99383.41, 75956.61, 0.00, 0.00, 0.00
56, 100021.30, 124338.46, 23698.53, 19854.52, 11976.02, 29550.70, 99386.76, 75956.99, 0.00, 0.00, 0.00
57, 100021.98, 124339.48, 23699.62, 19855.81, 11986.35, 29553.63, 99387.77, 75955.07, 0.00, 0.00, 0.00
58, 100023.25, 124342.13, 23701.01, 19858.23, 11972.22, 29551.38, 99387.50, 75954.09, 0.00, 0.00, 0.00
59, 100020.95, 124341.48, 23694.84, 19850.76, 11946.05, 29542.66, 99384.08, 75953.26, 0.00, 0.00, 0.00
60, 100019.38, 124346.59, 23695.11, 19848.48, 11955.08, 29541.67, 99385.42, 75952.30, 0.08, -0.19, 0.98
61, 100018.73, 124349.19, 23696.18, 19847.19, 11966.52, 29540.04, 99381.95, 75950.09, 0.00, 0.00, 0.00
62, 100016.72, 124343.22, 23696.04, 19843.95, 11977.58, 29542.97, 99380.16, 75950.66, 0.00, 0.00, 0.00
63, 100014.09, 124343.35, 23698.53, 19846.52, 11969.20, 29543.04, 99384.62, 75951.90, 0.00, 0.00, 0.00
64, 100009.62, 124343.94, 23694.77, 19840.06, 11963.86, 29536.26, 99380.16, 75943.76, 0.00, 0.00, 0.00
65, 100010.10, 124345.08, 23692.78, 19839.03, 11956.60, 29536.46, 99378.84, 75944.43, 0.00, 0.00, 0.00
66, 100015.80, 124344.12, 23692.11, 19842.38, 11968.82, 29542.28, 99378.98, 75948.16, 0.00, 0.00, 0.00
67, 100019.98, 124348.65, 23699.62, 19844.24, 11972.24, 29542.52, 99379.59, 75951.09, 0.00, 0.00, 0.00
68, 100015.29, 124351.45, 23701.21, 19841.29, 11946.40, 29535.62, 99373.51, 75947.07, 0.00, 0.00, 0.00
69, 100017.57, 124351.89, 23694.55, 19838.27, 11934.11, 29531.82, 99372.84, 75947.83, 0.00, 0.00, 0.00
70, 100019.11, 124349.70, 23698.19, 19838.89, 11968.93, 29538.37, 99378.20, 75953.28, 0.08, -0.20, 0.98
71, 100012.23, 124345.01, 23694.88, 19837.53, 11956.39, 29531.01, 99373.23, 75948.66, 0.00, 0.00, 0.00
72, 100018.76, 124349.63, 23697.72, 19838.71, 11974.75, 29538.25, 99376.99, 75950.58, 0.00, 0.00, 0.00
73, 100019.43, 124351.89, 23698.84, 19844.55, 11967.68, 29540.24, 99378.83, 75952.52, 0.00, 0.00, 0.00
74, 100020.90, 124352.67, 23696.89, 19845.44, 11972.73, 29539.28, 99383.70, 75956.43, 0.00, 0.00, 0.00
75, 100020.43, 124352.61, 23696.31, 19846.25, 11967.66, 29538.63, 99386.49, 75955.74, 0.00, 0.00, 0.00
76, 100015.70, 124353.28, 23698.86, 19851.41, 11961.16, 29538.97, 99384.52, 75951.38, 0.00, 0.00, 0.00
77, 100017.26, 124354.22, 23701.65, 19851.86, 11993.74, 29550.62, 99389.02, 75954.02, 0.00, 0.00, 0.00
78, 100024.97, 124354.44, 23699.76, 19846.22, 11981.96, 29547.84, 99392.46, 75959.61, 0.00, 0.00, 0.00
79, 100026.53, 124357.84, 23697.34, 19843.95, 11960.22, 29541.83, 99391.37, 75957.69, 0.00, 0.00, 0.00
80, 100024.97, 124355.55, 23699.84, 19842.63, 11969.87, 29547.69, 99389.51, 75954.71, 0.08, -0.20, 0.98
81, 100021.10, 124351.80, 23696.65, 19841.42, 11973.85, 29551.15, 99386.05, 75956.01, 0.00, 0.00, 0.00
82, 100022.78, 124351.55, 23694.03, 19841.24, 11971.84, 29550.37, 99384.81, 75959.96, 0.00, 0.00, 0.00
83, 100021.08, 124352.61, 23694.37, 19838.04, 11962.47, 29544.51, 99381.28, 75958.13, 0.00, 0.00, 0.00
84, 100016.30, 124349.97, 23690.03, 19836.86, 11948.55, 29538.07, 99380.48, 75958.96, 0.00, 0.00, 0.00
85, 100018.45, 124351.65, 23691.91, 19836.64, 11961.98, 29540.91, 99381.38, 75957.23, 0.00, 0.00, 0.00
86, 100018.87, 124353.45, 23695.78, 19839.99, 11974.01, 29543.93, 99380.66, 75956.68, 0.00, 0.00, 0.00
87, 100018.95, 124356.32, 23697.45, 19843.43, 11965.51, 29543.48, 99380.19, 75956.27, 0.00, 0.00, 0.00
88, 100012.79, 124356.70, 23692.87, 19839.36, 11956.66, 29538.70, 99378.31, 75953.28, 0.00, 0.00, 0.00
89, 100014.28, 124360.63, 23694.28, 19840.93, 11963.64, 29540.82, 99381.51, 75957.80, 0.00, 0.00, 0.00
90, 100019.83, 124359.80, 23696.45, 19841.71, 11947.92, 29537.81, 99377.28, 75954.49, 0.08, -0.20, 0.99
