%OpenBCI Raw EEG Data
%Sample Rate = 250.0 Hz
%First Column = SampleIndex
%Other Columns = EEG data in microvolts followed by Accel Data (in G) interleaved with Aux Data
218, 96170.75, 127623.65, 22166.96, 18771.42, 8945.86, 29592.81, 107877.07, 71975.07, 0.00, 0.00, 0.00
219, 96160.71, 127610.77, 22166.11, 18767.28, 8932.41, 29593.35, 107856.69, 71964.91, 0.00, 0.00, 0.00
220, 96161.54, 127586.91, 22178.52, 18781.68, 8940.16, 29607.05, 107857.36, 71970.00, 0.00, 0.00, 0.00
221, 96161.18, 127583.51, 22162.07, 18778.62, 8944.70, 29600.15, 107867.03, 71972.68, 0.00, 0.00, 0.00
222, 96159.37, 127624.19, 22167.19, 18781.70, 8952.50, 29596.86, 107883.22, 71971.01, 0.00, 0.00, 0.00
223, 96144.05, 127586.34, 22156.93, 18768.40, 8939.22, 29593.35, 107874.52, 71953.03, 0.00, 0.00, 0.00
224, 96151.59, 127579.35, 22155.63, 18768.38, 8943.63, 29607.81, 107878.59, 71960.01, 0.00, 0.00, 0.00
225, 96151.13, 127626.29, 22163.45, 18772.47, 8931.89, 29589.19, 107886.03, 71965.38, 0.08, -0.19, 0.98
226, 96162.55, 127660.62, 22181.63, 18785.93, 8947.65, 29603.97, 107872.76, 71980.04, 0.00, 0.00, 0.00
227, 96156.69, 127639.70, 22178.61, 18780.92, 8934.17, 29607.57, 107860.75, 71973.06, 0.00, 0.00, 0.00
228, 96150.56, 127617.68, 22173.33, 18780.67, 8934.80, 29607.10, 107867.91, 71962.02, 0.00, 0.00, 0.00
229, 96147.99, 127585.70, 22174.40, 18779.80, 8971.63, 29618.05, 107882.68, 71958.20, 0.00, 0.00, 0.00
230, 96150.18, 127576.17, 22170.61, 18784.56, 8974.76, 29612.24, 107867.48, 71962.45, 0.00, 0.00, 0.00
231, 96156.15, 127632.75, 22158.58, 18780.34, 8958.96, 29601.53, 107860.22, 71971.85, 0.00, 0.00, 0.00
232, 96150.07, 127573.07, 22150.62, 18773.52, 8954.87, 29607.48, 107862.23, 71962.76, 0.00, 0.00, 0.00
233, 96150.30, 127553.04, 22151.27, 18769.68, 8947.43, 29601.26, 107866.05, 71958.06, 0.00, 0.00, 0.00
234, 96155.44, 127585.95, 22156.26, 18772.58, 8940.12, 29587.25, 107866.95, 71965.04, 0.00, 0.00, 0.00
235, 96147.39, 127602.48, 22163.50, 18773.92, 8934.89, 29592.72, 107866.07, 71964.91, 0.08, -0.20, 0.98
236, 96145.22, 127611.60, 22170.49, 18777.54, 8948.59, 29596.86, 107871.84, 71965.51, 0.00, 0.00, 0.00
237, 96149.29, 127648.04, 22166.00, 18772.76, 8941.86, 29593.13, 107874.81, 71971.27, 0.00, 0.00, 0.00
238, 96152.59, 127628.68, 22161.20, 18772.07, 8940.45, 29589.66, 107885.45, 71977.71, 0.00, 0.00, 0.00
239, 96153.16, 127592.94, 22161.06, 18773.14, 8933.41, 29583.63, 107904.52, 71977.38, 0.00, 0.00, 0.00
240, 96155.70, 127619.88, 22162.42, 18766.37, 8920.31, 29578.98, 107885.97, 71969.13, 0.00, 0.00, 0.00
241, 96155.16, 127619.05, 22170.45, 18770.86, 8932.27, 29593.33, 107883.66, 71962.02, 0.00, 0.00, 0.00
242, 96156.48, 127707.11, 22190.45, 18785.21, 8956.10, 29606.81, 107887.40, 71969.42, 0.00, 0.00, 0.00
243, 96135.66, 127545.95, 22139.22, 18758.68, 8932.23, 29584.07, 107862.66, 71955.25, 0.00, 0.00, 0.00
244, 96148.15, 127531.70, 22136.12, 18761.90, 8926.26, 29576.25, 107859.84, 71968.26, 0.00, 0.00, 0.00
245, 96146.43, 127614.73, 22141.88, 18761.09, 8921.32, 29577.55, 107852.02, 71970.49, 0.07, -0.20, 0.98
246, 96154.70, 127652.82, 22160.10, 18775.42, 8947.51, 29602.27, 107893.14, 71984.04, 0.00, 0.00, 0.00
247, 96152.82, 127600.72, 22162.34, 18775.49, 8949.21, 29596.97, 107892.45, 71982.18, 0.00, 0.00, 0.00
248, 96152.59, 127597.21, 22165.15, 18776.04, 8949.73, 29602.29, 107873.78, 71978.38, 0.00, 0.00, 0.00
249, 96146.16, 127572.98, 22157.04, 18767.66, 8931.42, 29602.20, 107869.65, 71969.20, 0.00, 0.00, 0.00
250, 96148.66, 127649.09, 22175.99, 18785.66, 8929.30, 29619.88, 107894.13, 71971.05, 0.00, 0.00, 0.00
251, 96138.38, 127662.14, 22168.79, 18782.35, 8963.07, 29606.85, 107897.88, 71963.12, 0.00, 0.00, 0.00
252, 96131.59, 127614.77, 22157.98, 18770.41, 8944.79, 29589.17, 107874.45, 71957.55, 0.00, 0.00, 0.00
253, 96144.53, 127587.40, 22164.44, 18782.86, 8964.95, 29604.91, 107881.70, 71967.38, 0.00, 0.00, 0.00
254, 96141.47, 127534.04, 22154.24, 18776.27, 8965.73, 29615.14, 107875.02, 71968.57, 0.00, 0.00, 0.00
255, 96135.88, 127614.89, 22156.17, 18771.66, 8960.48, 29613.58, 107875.08, 71969.06, 0.08, -0.20, 0.98
0, 96130.16, 127585.18, 22155.85, 18769.23, 8950.02, 29592.88, 107882.66, 71960.01, 0.00, 0.00, 0.00
1, 96132.80, 127575.39, 22152.90, 18766.48, 8946.49, 29588.08, 107887.58, 71955.09, 0.00, 0.00, 0.00
2, 96138.52, 127651.68, 22153.95, 18775.71, 8954.09, 29598.02, 107892.54, 71957.93, 0.00, 0.00, 0.00
3, 96125.17, 127650.34, 22153.51, 18774.88, 8934.30, 29583.72, 107868.09, 71946.33, 0.00, 0.00, 0.00
4, 96128.23, 127572.63, 22159.81, 18776.34, 8937.79, 29587.21, 107866.63, 71948.88, 0.00, 0.00, 0.00
5, 96135.59, 127559.66, 22158.85, 18775.80, 8945.75, 29598.54, 107873.85, 71952.84, 0.00, 0.00, 0.00
6, 96138.42, 127592.73, 22163.94, 18783.82, 8954.80, 29611.39, 107891.84, 71957.70, 0.00, 0.00, 0.00
7, 96132.52, 127632.32, 22179.21, 18785.66, 8954.53, 29640.51, 107912.05, 71960.81, 0.00, 0.00, 0.00
8, 96139.72, 127658.23, 22205.29, 18804.59, 8968.50, 29673.59, 107932.86, 71971.19, 0.00, 0.00, 0.00
9, 96150.02, 127688.54, 22170.94, 18781.34, 8948.88, 29608.33, 107887.28, 71970.71, 0.08, -0.19, 0.98
10, 96150.30, 127683.09, 22134.33, 18754.88, 8927.87, 29552.69, 107875.91, 71963.14, 0.00, 0.00, 0.00
11, 96149.89, 127611.98, 22140.38, 18765.23, 8935.09, 29574.91, 107888.91, 71970.91, 0.00, 0.00, 0.00
12, 96135.61, 127576.91, 22141.75, 18765.34, 8948.50, 29592.05, 107889.16, 71964.92, 0.00, 0.00, 0.00
13, 96128.77, 127625.62, 22144.19, 18753.74, 8931.67, 29582.31, 107877.30, 71960.61, 0.00, 0.00, 0.00
14, 96122.34, 127538.31, 22133.50, 18742.85, 8911.95, 29574.29, 107877.65, 71950.53, 0.00, 0.00, 0.00
15, 96122.13, 127542.52, 22140.81, 18748.64, 8918.88, 29586.64, 107872.02, 71941.95, 0.00, 0.00, 0.00
16, 96119.18, 127579.35, 22127.67, 18746.54, 8916.22, 29590.22, 107857.60, 71933.01, 0.00, 0.00, 0.00
17, 96143.99, 127625.13, 22149.06, 18767.22, 8964.37, 29606.20, 107890.05, 71958.29, 0.00, 0.00, 0.00
18, 96131.74, 127608.41, 22147.96, 18764.15, 8942.71, 29592.75, 107909.26, 71957.05, 0.00, 0.00, 0.00
19, 96131.34, 127624.05, 22152.32, 18765.83, 8940.94, 29596.55, 107901.73, 71958.96, 0.08, -0.20, 0.98
20, 96132.70, 127648.04, 22154.80, 18764.33, 8955.36, 29600.88, 107883.75, 71955.70, 0.00, 0.00, 0.00
21, 96135.41, 127626.31, 22156.30, 18766.95, 8959.70, 29610.54, 107880.87, 71954.04, 0.00, 0.00, 0.00
22, 96137.20, 127739.86, 22175.21, 18778.01, 8965.89, 29616.93, 107876.31, 71956.27, 0.00, 0.00, 0.00
23, 96139.88, 127711.78, 22179.63, 18791.58, 8964.05, 29616.40, 107893.70, 71963.48, 0.00, 0.00, 0.00
24, 96131.92, 127545.29, 22147.36, 18770.86, 8942.58, 29601.58, 107899.20, 71959.90, 0.00, 0.00, 0.00
25, 96134.70, 127512.79, 22139.51, 18758.99, 8927.73, 29584.19, 107895.42, 71964.63, 0.00, 0.00, 0.00
26, 96139.74, 127554.83, 22152.30, 18760.94, 8941.21, 29577.21, 107864.53, 71967.38, 0.00, 0.00, 0.00
27, 96142.13, 127611.09, 22163.59, 18774.32, 8962.07, 29594.42, 107875.41, 71960.59, 0.00, 0.00, 0.00
28, 96134.76, 127657.76, 22157.95, 18772.22, 8943.65, 29591.70, 107896.54, 71949.37, 0.00, 0.00, 0.00
29, 96137.66, 127690.13, 22150.87, 18763.53, 8936.76, 29590.47, 107895.45, 71953.73, 0.08, -0.19, 0.98
30, 96140.70, 127626.29, 22152.79, 18768.96, 8948.41, 29597.80, 107876.40, 71963.88, 0.00, 0.00, 0.00
31, 96134.58, 127602.26, 22161.11, 18769.45, 8946.51, 29591.00, 107880.31, 71963.70, 0.00, 0.00, 0.00
32, 96146.12, 127594.17, 22167.92, 18770.97, 8947.43, 29594.87, 107904.67, 71974.42, 0.00, 0.00, 0.00
33, 96144.70, 127632.01, 22177.58, 18773.59, 8944.12, 29593.80, 107898.20, 71972.08, 0.00, 0.00, 0.00
34, 96144.57, 127647.77, 22165.44, 18770.19, 8934.30, 29592.77, 107899.76, 71973.04, 0.00, 0.00, 0.00
35, 96149.73, 127601.61, 22162.47, 18769.41, 8921.94, 29594.00, 107893.05, 71978.98, 0.00, 0.00, 0.00
36, 96143.66, 127608.77, 22161.73, 18763.24, 8955.29, 29595.01, 107874.14, 71970.07, 0.00, 0.00, 0.00
37, 96145.04, 127659.66, 22170.70, 18768.69, 8957.80, 29598.16, 107881.59, 71967.30, 0.00, 0.00, 0.00
38, 96154.50, 127729.91, 22175.81, 18772.87, 8948.72, 29599.30, 107898.46, 71975.16, 0.00, 0.00, 0.00
39, 96139.99, 127592.13, 22146.67, 18756.35, 8926.82, 29590.78, 107887.64, 71963.48, 0.07, -0.19, 0.98
40, 96151.63, 127584.34, 22153.73, 18762.41, 8940.65, 29604.17, 107911.45, 71976.66, 0.00, 0.00, 0.00
41, 96161.41, 127595.69, 22160.17, 18774.66, 8957.24, 29608.71, 107918.11, 71987.21, 0.00, 0.00, 0.00
42, 96159.17, 127640.75, 22164.84, 18779.51, 8953.06, 29611.84, 107883.46, 71980.75, 0.00, 0.00, 0.00
43, 96147.16, 127612.50, 22162.16, 18774.77, 8950.96, 29609.38, 107870.45, 71965.66, 0.00, 0.00, 0.00
44, 96149.71, 127592.00, 22164.77, 18774.77, 8961.44, 29613.00, 107883.15, 71965.66, 0.00, 0.00, 0.00
45, 96161.65, 127685.81, 22167.99, 18779.44, 8972.91, 29636.36, 107890.95, 71976.28, 0.00, 0.00, 0.00
46, 96154.77, 127649.22, 22179.14, 18780.65, 8981.71, 29647.31, 107920.39, 71975.92, 0.00, 0.00, 0.00
47, 96145.20, 127577.85, 22179.75, 18771.38, 8963.18, 29601.60, 107898.64, 71971.34, 0.00, 0.00, 0.00
48, 96154.01, 127577.13, 22143.56, 18773.95, 8951.23, 29590.38, 107900.90, 71973.82, 0.00, 0.00, 0.00
49, 96159.50, 127636.57, 22149.01, 18784.54, 8950.53, 29595.38, 107879.48, 71975.61, 0.08, -0.20, 0.98
50, 96163.52, 127645.00, 22160.66, 18783.60, 8955.92, 29600.50, 107876.31, 71978.18, 0.00, 0.00, 0.00
51, 96158.20, 127595.82, 22159.38, 18778.59, 8943.31, 29594.24, 107878.57, 71971.90, 0.00, 0.00, 0.00
52, 96159.95, 127643.03, 22163.86, 18782.75, 8954.82, 29596.23, 107888.31, 71978.88, 0.00, 0.00, 0.00
53, 96141.58, 127654.88, 22164.06, 18777.52, 8959.90, 29598.20, 107887.75, 71963.70, 0.00, 0.00, 0.00
54, 96150.59, 127646.67, 22188.11, 18794.04, 8965.28, 29617.02, 107897.19, 71974.65, 0.00, 0.00, 0.00
55, 96153.83, 127649.40, 22187.75, 18797.57, 8964.73, 29605.80, 107896.07, 71974.56, 0.00, 0.00, 0.00
56, 96151.37, 127633.35, 22179.43, 18795.00, 8966.67, 29598.98, 107882.10, 71969.06, 0.00, 0.00, 0.00
57, 96150.92, 127664.13, 22178.56, 18791.56, 8964.52, 29604.35, 107882.61, 71967.70, 0.00, 0.00, 0.00
58, 96154.01, 127630.02, 22180.46, 18789.63, 8949.03, 29599.25, 107887.02, 71968.44, 0.00, 0.00, 0.00
59, 96153.76, 127594.19, 22184.75, 18788.85, 8956.63, 29631.13, 107901.79, 71971.05, 0.08, -0.19, 0.98
60, 96155.77, 127643.88, 22188.60, 18797.44, 8959.83, 29659.13, 107910.55, 71978.29, 0.00, 0.00, 0.00
61, 96162.66, 127682.86, 22190.10, 18796.32, 8965.46, 29595.03, 107899.69, 71984.38, 0.00, 0.00, 0.00
62, 96165.09, 127678.70, 22190.10, 18800.52, 8963.90, 29591.70, 107912.20, 71988.06, 0.00, 0.00, 0.00
63, 96167.02, 127696.52, 22174.61, 18789.79, 8955.70, 29599.39, 107901.88, 71992.09, 0.00, 0.00, 0.00
64, 96164.06, 127634.34, 22169.64, 18786.89, 8958.56, 29605.55, 107891.48, 71989.11, 0.00, 0.00, 0.00
65, 96167.23, 127687.66, 22188.13, 18798.91, 8967.81, 29619.66, 107900.43, 71990.81, 0.00, 0.00, 0.00
66, 96162.59, 127587.46, 22185.02, 18791.02, 8964.08, 29618.25, 107888.47, 71982.67, 0.00, 0.00, 0.00
67, 96168.89, 127548.75, 22167.52, 18783.62, 8954.89, 29610.94, 107887.20, 71984.55, 0.00, 0.00, 0.00
68, 96170.21, 127605.39, 22163.30, 18773.86, 8944.21, 29626.12, 107906.06, 71983.30, 0.00, 0.00, 0.00
69, 96184.60, 127658.16, 22183.35, 18788.83, 8974.43, 29636.71, 107922.94, 72004.33, 0.09, -0.19, 0.98
70, 96180.29, 127681.61, 22176.04, 18786.89, 8976.21, 29625.54, 107911.78, 72003.91, 0.00, 0.00, 0.00
71, 96165.96, 127638.80, 22169.55, 18780.99, 8965.93, 29625.47, 107910.89, 71990.07, 0.00, 0.00, 0.00
72, 96175.62, 127682.97, 22178.47, 18787.27, 8969.80, 29629.14, 107902.71, 71998.12, 0.00, 0.00, 0.00
73, 96173.16, 127746.85, 22187.71, 18791.00, 8991.97, 29626.74, 107921.55, 71997.96, 0.00, 0.00, 0.00
74, 96170.26, 127712.12, 22184.02, 18788.18, 8978.14, 29626.77, 107915.94, 71998.72, 0.00, 0.00, 0.00
75, 96179.59, 127612.68, 22178.92, 18786.10, 8968.46, 29620.78, 107896.49, 72007.51, 0.00, 0.00, 0.00
76, 96184.25, 127583.48, 22171.12, 18782.37, 8964.61, 29617.02, 107890.68, 72005.31, 0.00, 0.00, 0.00
77, 96181.32, 127590.75, 22175.37, 18785.43, 8965.87, 29630.12, 107914.62, 71997.63, 0.00, 0.00, 0.00
78, 96181.54, 127634.24, 22180.15, 18784.03, 8971.14, 29621.11, 107903.80, 71998.95, 0.00, 0.00, 0.00
79, 96177.45, 127662.63, 22171.01, 18780.14, 8963.47, 29611.93, 107889.27, 71998.19, 0.08, -0.20, 0.97
80, 96152.75, 127641.80, 22158.78, 18760.11, 8946.31, 29590.89, 107866.45, 71974.49, 0.00, 0.00, 0.00
81, 96144.51, 127604.25, 22161.89, 18769.12, 8946.02, 29591.56, 107872.60, 71964.03, 0.00, 0.00, 0.00
82, 96162.48, 127638.49, 22158.49, 18777.10, 8956.14, 29602.67, 107895.13, 71978.65, 0.00, 0.00, 0.00
83, 96165.20, 127682.28, 22162.78, 18777.65, 8948.30, 29599.27, 107903.69, 71986.83, 0.00, 0.00, 0.00
84, 96163.66, 127696.63, 22167.32, 18776.65, 8946.64, 29599.86, 107893.30, 71987.91, 0.00, 0.00, 0.00
85, 96169.14, 127684.29, 22180.06, 18787.15, 8962.63, 29613.00, 107896.13, 71988.80, 0.00, 0.00, 0.00
86, 96167.88, 127652.95, 22176.75, 18784.49, 8964.19, 29610.00, 107884.05, 71980.30, 0.00, 0.00, 0.00
87, 96169.16, 127581.96, 22173.76, 18773.52, 8955.29, 29608.82, 107899.04, 71975.37, 0.00, 0.00, 0.00
88, 96173.52, 127600.38, 22197.32, 18788.54, 8958.62, 29649.21, 107886.52, 71984.22, 0.00, 0.00, 0.00
89, 96168.58, 127626.84, 22166.25, 18782.71, 8953.30, 29614.09, 107861.02, 71987.32, 0.08, -0.20, 0.98
90, 96158.30, 127681.45, 22156.81, 18772.09, 8945.70, 29565.54, 107882.08, 71983.09, 0.00, 0.00, 0.00
91, 96171.98, 127640.70, 22159.05, 18780.79, 8953.95, 29587.61, 107884.31, 71994.56, 0.00, 0.00, 0.00
92, 96182.19, 127661.18, 22158.98, 18790.64, 8952.01, 29604.44, 107892.65, 71998.95, 0.00, 0.00, 0.00
93, 96178.62, 127757.16, 22166.85, 18783.89, 8957.04, 29604.37, 107889.12, 71991.28, 0.00, 0.00, 0.00
94, 96178.03, 127571.70, 22165.17, 18782.21, 8978.16, 29613.49, 107883.24, 71996.04, 0.00, 0.00, 0.00
95, 96177.16, 127556.06, 22165.11, 18785.01, 8967.36, 29618.14, 107908.09, 72005.38, 0.00, 0.00, 0.00
96, 96182.81, 127621.66, 22170.49, 18789.68, 8979.39, 29631.15, 107921.57, 72013.01, 0.00, 0.00, 0.00
97, 96189.68, 127702.95, 22183.99, 18797.59, 9000.18, 29645.36, 107916.09, 72017.79, 0.00, 0.00, 0.00
98, 96182.13, 127704.07, 22186.68, 18788.41, 8997.83, 29642.57, 107909.21, 72005.38, 0.00, 0.00, 0.00
99, 96175.66, 127620.97, 22170.00, 18771.96, 8974.47, 29624.64, 107891.94, 71993.73, 0.08, -0.20, 0.98
100, 96180.98, 127611.40, 22171.16, 18781.68, 8974.49, 29626.07, 107885.43, 72000.73, 0.00, 0.00, 0.00
101, 96188.74, 127651.66, 22181.11, 18790.20, 8987.28, 29630.30, 107888.76, 72004.66, 0.00, 0.00, 0.00
102, 96190.23, 127708.92, 22180.35, 18791.67, 8990.68, 29623.41, 107890.10, 72001.09, 0.00, 0.00, 0.00
103, 96187.89, 127721.40, 22179.72, 18784.34, 8975.97, 29620.89, 107897.41, 72001.34, 0.00, 0.00, 0.00
104, 96172.27, 127653.52, 22180.62, 18788.27, 8969.42, 29619.10, 107907.54, 71995.86, 0.00, 0.00, 0.00
105, 96174.57, 127708.72, 22193.67, 18803.14, 8978.56, 29625.52, 107915.60, 72003.28, 0.00, 0.00, 0.00
106, 96178.66, 127688.13, 22191.28, 18798.26, 8976.97, 29625.63, 107913.46, 72006.34, 0.00, 0.00, 0.00
107, 96176.16, 127662.63, 22192.35, 18793.21, 8975.25, 29626.41, 107904.20, 72001.29, 0.00, 0.00, 0.00
108, 96176.16, 127699.02, 22198.16, 18796.39, 8976.93, 29624.96, 107916.07, 72006.86, 0.08, -0.20, 0.98
109, 96157.56, 127623.30, 22177.62, 18785.90, 8953.06, 29614.45, 107910.20, 71992.69, 0.00, 0.00, 0.00
110, 96163.93, 127649.34, 22183.14, 18784.94, 8954.06, 29625.67, 107910.13, 72001.70, 0.00, 0.00, 0.00
111, 96182.95, 127668.53, 22196.02, 18796.72, 9007.24, 29645.68, 107900.20, 72013.43, 0.00, 0.00, 0.00
112, 96176.54, 127641.06, 22178.74, 18788.50, 8986.72, 29618.59, 107901.27, 71996.55, 0.00, 0.00, 0.00
113, 96176.55, 127633.62, 22180.15, 18783.42, 8977.40, 29621.29, 107884.40, 71991.01, 0.00, 0.00, 0.00
114, 96180.88, 127651.19, 22215.71, 18796.72, 8979.79, 29621.74, 107884.27, 71997.07, 0.00, 0.00, 0.00
115, 96173.00, 127680.18, 22209.74, 18799.98, 8981.67, 29640.63, 107895.09, 71993.78, 0.00, 0.00, 0.00
116, 96178.97, 127747.03, 22199.13, 18805.44, 9005.32, 29644.96, 107922.55, 71999.23, 0.00, 0.00, 0.00
117, 96181.25, 127699.29, 22169.76, 18794.15, 8993.09, 29628.31, 107915.11, 72002.77, 0.00, 0.00, 0.00
118, 96179.40, 127653.24, 22174.34, 18793.97, 8983.52, 29622.43, 107909.93, 72004.29, 0.09, -0.20, 0.98
119, 96186.15, 127651.26, 22189.22, 18799.87, 8974.11, 29640.89, 107908.95, 72007.70, 0.00, 0.00, 0.00
120, 96181.77, 127666.21, 22185.94, 18795.56, 8975.72, 29649.50, 107885.85, 71998.03, 0.00, 0.00, 0.00
121, 96180.20, 127705.41, 22177.87, 18786.93, 8990.34, 29620.66, 107901.57, 71993.85, 0.00, 0.00, 0.00
122, 96176.18, 127634.80, 22170.94, 18771.53, 8975.63, 29603.50, 107902.02, 71990.23, 0.00, 0.00, 0.00
123, 96191.20, 127686.08, 22184.55, 18780.81, 8979.77, 29620.04, 107909.99, 72006.50, 0.00, 0.00, 0.00
124, 96186.28, 127696.92, 22187.59, 18780.40, 8974.36, 29619.88, 107903.11, 72001.36, 0.00, 0.00, 0.00
125, 96176.22, 127673.20, 22175.19, 18774.48, 8961.48, 29599.05, 107877.88, 71994.34, 0.00, 0.00, 0.00
126, 96177.16, 127613.62, 22170.56, 18778.68, 8974.83, 29610.16, 107866.25, 71993.76, 0.00, 0.00, 0.00
127, 96183.24, 127628.52, 22187.82, 18781.50, 8976.37, 29630.14, 107900.23, 72006.45, 0.00, 0.00, 0.00
128, 96186.95, 127691.17, 22212.65, 18784.52, 8969.38, 29637.14, 107899.04, 72011.22, 0.08, -0.19, 0.98
129, 96184.31, 127695.87, 22186.18, 18773.68, 8986.74, 29618.14, 107885.27, 72004.60, 0.00, 0.00, 0.00
130, 96192.36, 127738.23, 22176.84, 18776.61, 8978.32, 29615.46, 107890.03, 72007.55, 0.00, 0.00, 0.00
131, 96196.92, 127769.45, 22187.10, 18780.25, 8990.01, 29615.86, 107903.53, 72009.02, 0.00, 0.00, 0.00
132, 96186.66, 127723.25, 22185.31, 18777.39, 8968.26, 29604.71, 107920.84, 72006.16, 0.00, 0.00, 0.00
133, 96160.20, 127643.34, 22163.61, 18762.46, 8958.42, 29600.44, 107899.20, 71992.93, 0.00, 0.00, 0.00
134, 96165.27, 127587.35, 22162.63, 18769.07, 8975.48, 29611.93, 107884.54, 71993.73, 0.00, 0.00, 0.00
135, 96171.64, 127612.84, 22174.45, 18777.90, 8977.67, 29620.33, 107888.91, 71993.52, 0.00, 0.00, 0.00
136, 96176.94, 127649.89, 22184.87, 18785.21, 8985.85, 29625.07, 107894.73, 72000.27, 0.00, 0.00, 0.00
137, 96170.61, 127687.87, 22184.02, 18780.45, 8979.46, 29616.24, 107887.15, 71993.02, 0.00, 0.00, 0.00
138, 96167.77, 127709.33, 22183.17, 18773.14, 8962.45, 29607.41, 107884.36, 71990.14, 0.08, -0.20, 0.98
139, 96179.20, 127734.11, 22211.89, 18790.06, 8980.44, 29631.26, 107907.91, 72002.66, 0.00, 0.00, 0.00
140, 96172.04, 127707.94, 22205.70, 18789.28, 8983.23, 29632.96, 107913.39, 71999.80, 0.00, 0.00, 0.00
141, 96172.94, 127661.34, 22197.81, 18783.02, 8981.71, 29635.24, 107896.54, 71998.45, 0.00, 0.00, 0.00
142, 96184.20, 127719.90, 22203.31, 18785.41, 8994.21, 29641.72, 107916.66, 72008.69, 0.00, 0.00, 0.00
143, 96185.74, 127698.38, 22198.25, 18787.31, 8992.04, 29642.48, 107942.41, 72011.30, 0.00, 0.00, 0.00
144, 96174.66, 127643.05, 22188.44, 18777.25, 8976.64, 29610.63, 107912.43, 71999.19, 0.00, 0.00, 0.00
145, 96180.09, 127675.10, 22200.49, 18787.15, 8988.37, 29627.44, 107894.91, 72001.65, 0.00, 0.00, 0.00
146, 96187.69, 127676.45, 22205.54, 18792.29, 8997.74, 29631.64, 107907.36, 72008.29, 0.00, 0.00, 0.00
147, 96183.71, 127665.76, 22194.79, 18782.26, 8976.21, 29622.61, 107896.56, 72000.64, 0.00, 0.00, 0.00
148, 96184.31, 127677.54, 22203.08, 18789.52, 8970.40, 29623.48, 107892.80, 72002.66, 0.08, -0.19, 0.99
149, 96180.78, 127702.42, 22210.46, 18787.04, 8997.52, 29628.35, 107893.37, 72001.85, 0.00, 0.00, 0.00
150, 96177.34, 127685.66, 22212.67, 18788.56, 8980.62, 29622.05, 107896.13, 71999.44, 0.00, 0.00, 0.00
151, 96178.66, 127687.35, 22200.20, 18787.58, 8994.36, 29621.51, 107903.71, 72000.63, 0.00, 0.00, 0.00
152, 96185.88, 127744.59, 22187.55, 18780.47, 9000.22, 29621.40, 107905.45, 72006.21, 0.00, 0.00, 0.00
153, 96187.80, 127707.98, 22190.30, 18777.48, 8990.43, 29623.86, 107902.02, 72007.39, 0.00, 0.00, 0.00
154, 96192.85, 127701.01, 22198.59, 18781.63, 8987.23, 29636.60, 107909.01, 72011.38, 0.00, 0.00, 0.00
155, 96194.84, 127697.52, 22197.67, 18777.57, 8983.90, 29627.39, 107910.33, 72009.90, 0.00, 0.00, 0.00
156, 96191.24, 127663.13, 22192.91, 18772.96, 8983.23, 29626.86, 107904.90, 72006.23, 0.00, 0.00, 0.00
157, 96174.93, 127674.23, 22190.32, 18772.58, 8984.84, 29624.89, 107907.22, 71997.05, 0.00, 0.00, 0.00
158, 96186.70, 127726.42, 22199.89, 18784.70, 8989.74, 29626.77, 107929.28, 72010.99, 0.08, -0.20, 0.98
159, 96185.39, 127678.30, 22184.93, 18771.78, 8976.97, 29612.17, 107906.02, 72007.55, 0.00, 0.00, 0.00
160, 96195.09, 127728.97, 22188.44, 18769.85, 8986.38, 29623.30, 107897.77, 72018.28, 0.00, 0.00, 0.00
161, 96194.41, 127758.41, 22204.07, 18786.89, 8990.41, 29625.69, 107906.44, 72018.57, 0.00, 0.00, 0.00
162, 96183.78, 127638.73, 22201.58, 18784.21, 8984.98, 29626.59, 107901.43, 72006.37, 0.00, 0.00, 0.00
163, 96186.23, 127597.92, 22202.61, 18783.82, 8984.95, 29632.89, 107905.30, 72007.66, 0.00, 0.00, 0.00
164, 96193.61, 127648.59, 22221.08, 18793.46, 8980.28, 29628.71, 107917.59, 72010.52, 0.00, 0.00, 0.00
165, 96191.47, 127714.48, 22201.94, 18787.45, 8993.40, 29637.21, 107922.04, 72012.22, 0.00, 0.00, 0.00
166, 96195.18, 127770.70, 22204.65, 18791.76, 9002.25, 29645.83, 107928.86, 72016.73, 0.00, 0.00, 0.00
167, 96191.16, 127735.14, 22201.45, 18788.16, 8966.76, 29635.01, 107918.22, 72012.22, 0.00, 0.00, 0.00
168, 96184.31, 127658.84, 22190.92, 18784.00, 8961.51, 29623.39, 107920.92, 72013.49, 0.08, -0.20, 0.98
169, 96193.19, 127687.30, 22198.75, 18788.21, 9020.34, 29630.72, 107946.94, 72026.57, 0.00, 0.00, 0.00
170, 96196.00, 127733.27, 22205.99, 18788.61, 9003.17, 29626.30, 107912.01, 72028.00, 0.00, 0.00, 0.00
171, 96186.99, 127702.91, 22199.55, 18780.96, 8990.83, 29619.59, 107891.40, 72015.24, 0.00, 0.00, 0.00
172, 96192.30, 127731.97, 22227.71, 18794.87, 9001.56, 29625.63, 107918.11, 72017.30, 0.00, 0.00, 0.00
173, 96185.21, 127671.64, 22207.22, 18782.95, 8979.34, 29605.96, 107914.77, 72004.00, 0.00, 0.00, 0.00
174, 96188.59, 127670.61, 22188.67, 18779.51, 8981.94, 29622.86, 107905.19, 72011.17, 0.00, 0.00, 0.00
175, 96189.68, 127733.46, 22197.27, 18794.33, 9002.01, 29631.26, 107923.07, 72014.62, 0.00, 0.00, 0.00
176, 96186.57, 127767.51, 22196.35, 18789.10, 8991.21, 29619.01, 107918.94, 72011.59, 0.00, 0.00, 0.00
177, 96167.73, 127632.88, 22185.29, 18763.91, 8966.51, 29599.61, 107892.27, 71995.81, 0.00, 0.00, 0.00
178, 96172.38, 127577.61, 22188.49, 18767.02, 8966.47, 29602.27, 107914.30, 72004.71, 0.07, -0.20, 0.98
179, 96174.81, 127627.52, 22174.07, 18764.36, 8971.16, 29613.13, 107912.41, 72004.91, 0.00, 0.00, 0.00
180, 96176.09, 127697.88, 22190.48, 18769.32, 8973.35, 29613.54, 107886.48, 72004.45, 0.00, 0.00, 0.00
181, 96172.96, 127711.05, 22186.81, 18766.14, 8973.91, 29612.95, 107888.34, 71997.42, 0.00, 0.00, 0.00
182, 96174.28, 127691.58, 22187.71, 18767.46, 8977.20, 29606.40, 107895.17, 71996.87, 0.00, 0.00, 0.00
183, 96182.37, 127709.77, 22200.20, 18779.76, 8980.17, 29614.12, 107911.89, 72005.18, 0.00, 0.00, 0.00
184, 96180.63, 127692.23, 22193.83, 18778.57, 8982.63, 29620.40, 107911.80, 72004.65, 0.00, 0.00, 0.00
185, 96187.29, 127739.92, 22203.08, 18785.77, 8988.46, 29621.89, 107927.14, 72017.07, 0.00, 0.00, 0.00
186, 96181.30, 127676.06, 22201.18, 18780.87, 8990.30, 29624.15, 107912.56, 72014.93, 0.00, 0.00, 0.00
187, 96187.98, 127684.60, 22205.61, 18783.64, 8995.12, 29639.04, 107924.99, 72018.80, 0.00, 0.00, 0.00
188, 96191.47, 127816.81, 22214.12, 18784.05, 8979.86, 29636.06, 107932.59, 72018.68, 0.07, -0.20, 0.98
189, 96179.62, 127772.42, 22215.51, 18772.20, 8964.46, 29619.37, 107916.77, 72004.76, 0.00, 0.00, 0.00
190, 96176.98, 127607.20, 22202.52, 18782.37, 8997.11, 29619.28, 107892.18, 72005.12, 0.00, 0.00, 0.00
191, 96181.07, 127609.48, 22191.41, 18779.11, 9015.71, 29638.59, 107897.56, 72013.16, 0.00, 0.00, 0.00
192, 96184.29, 127645.58, 22194.07, 18784.05, 9017.43, 29645.50, 107918.89, 72016.94, 0.00, 0.00, 0.00
193, 96193.10, 127737.66, 22205.81, 18790.89, 9015.06, 29651.71, 107928.59, 72016.23, 0.00, 0.00, 0.00
194, 96190.15, 127785.52, 22220.40, 18794.15, 9005.54, 29648.78, 107919.78, 72010.30, 0.00, 0.00, 0.00
195, 96176.76, 127662.52, 22218.28, 18782.21, 9002.79, 29639.48, 107905.16, 72001.98, 0.00, 0.00, 0.00
196, 96171.64, 127631.72, 22195.86, 18778.53, 8998.83, 29636.98, 107912.45, 72004.58, 0.00, 0.00, 0.00
197, 96176.60, 127666.55, 22181.94, 18784.70, 9004.22, 29641.43, 107903.60, 72014.68, 0.00, 0.00, 0.00
198, 96187.53, 127710.89, 22193.09, 18784.03, 9000.80, 29633.99, 107919.16, 72025.88, 0.08, -0.20, 0.98
199, 96192.95, 127708.45, 22192.49, 18775.87, 8990.21, 29627.66, 107931.45, 72025.37, 0.00, 0.00, 0.00
200, 96195.89, 127680.94, 22200.27, 18776.89, 8995.24, 29630.23, 107907.29, 72019.53, 0.00, 0.00, 0.00
201, 96199.70, 127682.32, 22206.66, 18777.86, 8996.26, 29651.55, 107916.07, 72020.05, 0.00, 0.00, 0.00
202, 96196.16, 127716.32, 22207.24, 18779.51, 9003.51, 29651.11, 107923.12, 72020.38, 0.00, 0.00, 0.00
203, 96195.78, 127709.95, 22198.97, 18776.45, 8981.89, 29598.80, 107910.58, 72019.11, 0.00, 0.00, 0.00
204, 96195.96, 127678.73, 22202.01, 18774.50, 8972.84, 29597.44, 107891.22, 72019.84, 0.00, 0.00, 0.00
205, 96198.58, 127722.89, 22221.66, 18780.94, 8980.55, 29608.84, 107898.69, 72024.98, 0.00, 0.00, 0.00
206, 96191.00, 127739.05, 22208.42, 18782.19, 8988.82, 29613.11, 107905.37, 72019.24, 0.00, 0.00, 0.00
207, 96199.36, 127799.13, 22214.75, 18788.96, 8996.60, 29623.23, 107918.17, 72024.65, 0.00, 0.00, 0.00
208, 96182.98, 127735.81, 22201.85, 18772.98, 8968.82, 29609.33, 107901.79, 72012.36, 0.07, -0.20, 0.98
209, 96175.44, 127622.20, 22185.58, 18766.32, 8959.83, 29613.58, 107885.12, 72006.79, 0.00, 0.00, 0.00
210, 96194.82, 127627.05, 22194.41, 18781.81, 8996.42, 29637.00, 107903.80, 72024.36, 0.00, 0.00, 0.00
211, 96198.13, 127688.70, 22209.50, 18785.66, 8982.52, 29617.38, 107908.85, 72021.52, 0.00, 0.00, 0.00
212, 96191.71, 127691.82, 22210.79, 18775.22, 8987.52, 29605.02, 107905.88, 72010.75, 0.00, 0.00, 0.00
213, 96190.69, 127699.34, 22206.37, 18776.43, 8987.48, 29615.93, 107913.86, 72012.42, 0.00, 0.00, 0.00
214, 96185.01, 127735.25, 22199.89, 18777.92, 8990.79, 29632.78, 107898.21, 72010.01, 0.00, 0.00, 0.00
215, 96188.80, 127730.45, 22203.69, 18776.89, 8996.62, 29649.05, 107906.93, 72010.12, 0.00, 0.00, 0.00
216, 96191.58, 127651.91, 22192.13, 18769.01, 8992.40, 29616.28, 107900.47, 72012.31, 0.00, 0.00, 0.00
217, 96193.66, 127644.82, 22194.99, 18777.23, 8991.79, 29611.39, 107892.56, 72016.16, 0.00, 0.00, 0.00
218, 96192.49, 127682.37, 22207.24, 18783.87, 8993.29, 29621.38, 107906.17, 72020.29, 0.08, -0.20, 0.99
219, 96193.05, 127707.02, 22223.69, 18797.95, 8994.16, 29626.19, 107931.54, 72021.37, 0.00, 0.00, 0.00
220, 96189.97, 127729.22, 22217.95, 18800.70, 8996.44, 29630.54, 107907.67, 72020.78, 0.00, 0.00, 0.00
221, 96193.88, 127758.37, 22207.78, 18790.57, 9003.91, 29643.84, 107906.77, 72025.81, 0.00, 0.00, 0.00
222, 96195.09, 127718.49, 22213.12, 18785.90, 9007.84, 29637.03, 107906.80, 72025.79, 0.00, 0.00, 0.00
223, 96191.82, 127680.49, 22203.73, 18781.92, 8994.52, 29619.79, 107897.55, 72020.54, 0.00, 0.00, 0.00
224, 96188.00, 127657.02, 22190.72, 18767.26, 8986.36, 29613.91, 107901.55, 72016.78, 0.00, 0.00, 0.00
225, 96187.66, 127673.52, 22190.59, 18769.01, 8986.70, 29618.21, 107911.45, 72019.55, 0.00, 0.00, 0.00
226, 96197.91, 127735.32, 22192.29, 18767.62, 8990.05, 29625.65, 107912.56, 72032.98, 0.00, 0.00, 0.00
227, 96200.01, 127665.20, 22182.59, 18762.08, 8990.18, 29624.87, 107912.27, 72031.02, 0.00, 0.00, 0.00
228, 96205.62, 127677.05, 22180.46, 18752.08, 8987.43, 29621.83, 107935.95, 72028.52, 0.08, -0.21, 0.99
229, 96219.56, 127740.28, 22206.70, 18773.92, 9002.99, 29640.83, 107953.85, 72044.50, 0.00, 0.00, 0.00
230, 96208.23, 127742.36, 22213.74, 18783.87, 8997.78, 29634.23, 107920.56, 72038.58, 0.00, 0.00, 0.00
231, 96195.38, 127703.45, 22202.10, 18775.93, 8986.09, 29619.84, 107899.09, 72026.46, 0.00, 0.00, 0.00
232, 96203.52, 127726.78, 22206.41, 18777.65, 8995.08, 29618.50, 107924.79, 72035.49, 0.00, 0.00, 0.00
233, 96206.02, 127645.91, 22197.38, 18768.85, 8978.43, 29614.47, 107924.30, 72036.79, 0.00, 0.00, 0.00
234, 96209.93, 127665.18, 22206.75, 18772.40, 8970.94, 29615.32, 107883.17, 72039.09, 0.00, 0.00, 0.00
235, 96210.58, 127758.41, 22216.02, 18779.80, 9006.95, 29614.36, 107894.02, 72041.39, 0.00, 0.00, 0.00
236, 96207.96, 127750.79, 22196.49, 18770.03, 9003.04, 29618.41, 107909.79, 72038.04, 0.00, 0.00, 0.00
237, 96221.77, 127724.14, 22224.18, 18794.75, 9010.84, 29639.40, 107941.84, 72052.16, 0.00, 0.00, 0.00
238, 96204.61, 127758.56, 22230.08, 18791.54, 9001.38, 29637.25, 107943.32, 72038.38, 0.09, -0.19, 0.99
239, 96202.11, 127666.74, 22196.91, 18774.26, 8994.50, 29632.11, 107917.68, 72034.95, 0.00, 0.00, 0.00
240, 96207.67, 127621.84, 22204.63, 18787.40, 9004.44, 29629.02, 107904.83, 72038.84, 0.00, 0.00, 0.00
241, 96204.20, 127662.74, 22210.73, 18790.53, 9001.25, 29626.88, 107921.93, 72033.92, 0.00, 0.00, 0.00
242, 96208.63, 127730.58, 22216.90, 18798.29, 9012.49, 29644.07, 107948.38, 72037.84, 0.00, 0.00, 0.00
243, 96204.43, 127679.51, 22220.18, 18795.07, 9015.15, 29649.61, 107915.54, 72034.15, 0.00, 0.00, 0.00
244, 96202.20, 127692.36, 22216.43, 18791.42, 9009.59, 29646.55, 107911.20, 72028.72, 0.00, 0.00, 0.00
245, 96211.05, 127721.95, 22218.06, 18787.96, 9006.10, 29655.53, 107919.34, 72036.67, 0.00, 0.00, 0.00
246, 96213.84, 127802.58, 22224.83, 18790.26, 9015.93, 29660.21, 107918.78, 72039.06, 0.00, 0.00, 0.00
247, 96204.84, 127789.81, 22224.12, 18796.14, 9028.14, 29648.22, 107943.70, 72032.27, 0.00, 0.00, 0.00
248, 96201.41, 127664.09, 22208.45, 18784.81, 9009.23, 29638.39, 107930.16, 72030.02, 0.09, -0.20, 0.98
249, 96205.44, 127657.94, 22205.70, 18784.94, 9000.02, 29632.69, 107914.35, 72033.10, 0.00, 0.00, 0.00
250, 96204.92, 127729.55, 22211.15, 18787.82, 9004.53, 29638.23, 107931.43, 72036.16, 0.00, 0.00, 0.00
251, 96211.20, 127737.73, 22216.45, 18789.05, 9018.55, 29644.83, 107936.77, 72044.38, 0.00, 0.00, 0.00
252, 96211.38, 127711.54, 22230.89, 18785.84, 9001.85, 29639.28, 107935.72, 72047.23, 0.00, 0.00, 0.00
253, 96199.76, 127657.58, 22223.24, 18785.21, 8972.79, 29621.25, 107940.39, 72036.56, 0.00, 0.00, 0.00
254, 96205.10, 127681.05, 22190.41, 18776.72, 8999.21, 29628.04, 107935.72, 72042.11, 0.00, 0.00, 0.00
255, 96211.25, 127719.12, 22199.28, 18775.20, 9022.26, 29630.72, 107924.99, 72049.15, 0.00, 0.00, 0.00
0, 96213.28, 127742.36, 22208.36, 18781.54, 9016.34, 29630.88, 107930.85, 72051.16, 0.00, 0.00, 0.00
1, 96225.71, 127834.25, 22224.18, 18792.59, 9018.46, 29641.18, 107949.80, 72064.62, 0.00, 0.00, 0.00
2, 96226.56, 127796.01, 22224.14, 18786.78, 9005.65, 29637.65, 107963.59, 72065.51, 0.09, -0.20, 0.98
3, 96209.35, 127637.98, 22202.14, 18769.81, 8989.36, 29622.74, 107934.76, 72044.12, 0.00, 0.00, 0.00
4, 96218.65, 127666.45, 22214.41, 18778.73, 9000.53, 29631.55, 107938.88, 72051.67, 0.00, 0.00, 0.00
5, 96218.98, 127737.51, 22211.51, 18783.64, 9009.56, 29639.82, 107945.04, 72052.95, 0.00, 0.00, 0.00
6, 96216.34, 127715.77, 22216.67, 18778.46, 9001.63, 29634.57, 107940.57, 72052.59, 0.00, 0.00, 0.00
7, 96217.46, 127706.35, 22218.77, 18789.61, 9005.07, 29640.11, 107949.53, 72053.15, 0.00, 0.00, 0.00
8, 96216.70, 127713.59, 22216.29, 18793.01, 9008.40, 29650.73, 107944.88, 72052.73, 0.00, 0.00, 0.00
9, 96218.67, 127745.98, 22227.15, 18798.22, 9014.66, 29650.21, 107947.84, 72053.91, 0.00, 0.00, 0.00
10, 96215.88, 127845.98, 22241.73, 18808.81, 9027.78, 29657.14, 107955.41, 72052.39, 0.00, 0.00, 0.00
11, 96204.95, 127757.49, 22232.34, 18799.20, 9013.25, 29655.40, 107942.29, 72039.29, 0.00, 0.00, 0.00
12, 96205.95, 127614.84, 22212.85, 18791.92, 9004.76, 29652.25, 107937.93, 72037.70, 0.09, -0.20, 0.98
13, 96210.64, 127653.34, 22213.32, 18797.06, 9019.78, 29650.24, 107945.09, 72042.60, 0.00, 0.00, 0.00
14, 96207.18, 127694.39, 22248.61, 18799.69, 9026.55, 29648.65, 107940.66, 72040.45, 0.00, 0.00, 0.00
15, 96207.27, 127740.75, 22237.10, 18802.20, 9017.50, 29653.66, 107953.52, 72040.05, 0.00, 0.00, 0.00
16, 96212.66, 127768.29, 22216.47, 18787.38, 9025.72, 29656.61, 107945.31, 72047.13, 0.00, 0.00, 0.00
17, 96211.38, 127729.42, 22213.03, 18788.00, 9030.51, 29651.89, 107936.15, 72049.20, 0.00, 0.00, 0.00
18, 96216.16, 127706.20, 22201.09, 18777.99, 9007.93, 29637.63, 107939.90, 72052.27, 0.00, 0.00, 0.00
19, 96216.75, 127693.26, 22194.30, 18766.95, 8984.31, 29623.03, 107933.95, 72048.90, 0.00, 0.00, 0.00
20, 96212.90, 127702.04, 22196.85, 18761.56, 8984.57, 29624.15, 107937.77, 72050.60, 0.00, 0.00, 0.00
21, 96201.99, 127720.99, 22203.06, 18769.16, 9007.78, 29635.93, 107939.25, 72047.11, 0.00, 0.00, 0.00
22, 96194.04, 127720.52, 22204.09, 18766.46, 8995.71, 29635.93, 107935.85, 72036.72, 0.08, -0.20, 0.98
23, 96198.15, 127764.53, 22212.56, 18767.93, 8995.86, 29625.13, 107947.88, 72036.77, 0.00, 0.00, 0.00
24, 96202.53, 127745.20, 22209.63, 18765.14, 8991.91, 29626.77, 107947.74, 72035.53, 0.00, 0.00, 0.00
25, 96223.20, 127796.36, 22236.56, 18779.46, 9010.12, 29642.08, 107934.29, 72057.51, 0.00, 0.00, 0.00
26, 96211.34, 127720.79, 22240.95, 18778.57, 8994.63, 29631.35, 107918.11, 72050.98, 0.00, 0.00, 0.00
27, 96205.77, 127658.50, 22183.37, 18759.24, 8978.83, 29635.51, 107939.41, 72050.91, 0.00, 0.00, 0.00
28, 96205.33, 127649.22, 22174.90, 18753.52, 8992.42, 29621.00, 107936.28, 72053.38, 0.00, 0.00, 0.00
29, 96216.84, 127677.88, 22198.86, 18763.26, 8993.51, 29617.92, 107940.95, 72062.89, 0.00, 0.00, 0.00
30, 96226.76, 127775.95, 22231.00, 18777.90, 9005.36, 29637.76, 107957.55, 72068.03, 0.00, 0.00, 0.00
31, 96216.73, 127806.42, 22228.74, 18774.30, 8995.59, 29635.93, 107964.27, 72059.65, 0.00, 0.00, 0.00
32, 96206.94, 127669.90, 22208.98, 18765.65, 8997.83, 29631.21, 107945.20, 72051.77, 0.08, -0.20, 0.98
33, 96213.64, 127663.80, 22205.47, 18776.81, 9000.22, 29633.25, 107938.23, 72053.15, 0.00, 0.00, 0.00
34, 96220.32, 127718.18, 22204.92, 18781.63, 9009.65, 29644.80, 107930.96, 72055.12, 0.00, 0.00, 0.00
35, 96219.77, 127727.88, 22212.00, 18781.23, 8997.34, 29639.98, 107935.38, 72054.94, 0.00, 0.00, 0.00
36, 96217.93, 127691.55, 22211.13, 18776.18, 9018.88, 29638.84, 107936.37, 72056.99, 0.00, 0.00, 0.00
37, 96217.93, 127736.21, 22212.47, 18770.30, 9015.22, 29636.27, 107929.15, 72059.85, 0.00, 0.00, 0.00
38, 96217.41, 127676.42, 22205.70, 18759.75, 9000.85, 29628.49, 107927.20, 72060.48, 0.00, 0.00, 0.00
39, 96230.16, 127714.89, 22210.59, 18772.25, 9015.73, 29647.29, 107942.74, 72073.27, 0.00, 0.00, 0.00
40, 96230.38, 127799.72, 22227.60, 18778.01, 9017.50, 29653.19, 107938.76, 72075.63, 0.00, 0.00, 0.00
41, 96227.74, 127721.69, 22219.44, 18770.64, 9008.94, 29644.51, 107952.80, 72076.51, 0.00, 0.00, 0.00
42, 96220.03, 127623.74, 22199.66, 18752.69, 8986.45, 29625.09, 107945.04, 72066.31, 0.08, -0.20, 0.98
43, 96231.50, 127697.12, 22214.46, 18759.17, 8981.20, 29615.95, 107962.61, 72073.80, 0.00, 0.00, 0.00
44, 96246.25, 127833.87, 22229.59, 18773.07, 8998.72, 29629.34, 107958.25, 72087.03, 0.00, 0.00, 0.00
45, 96235.16, 127755.75, 22216.52, 18761.32, 8992.78, 29616.57, 107924.14, 72078.05, 0.00, 0.00, 0.00
46, 96227.27, 127636.26, 22197.76, 18755.13, 8985.58, 29617.60, 107926.53, 72067.38, 0.00, 0.00, 0.00
47, 96233.48, 127673.92, 22200.36, 18759.48, 9005.25, 29628.89, 107940.05, 72072.51, 0.00, 0.00, 0.00
48, 96236.28, 127714.87, 22214.48, 18762.84, 8998.10, 29626.79, 107953.67, 72081.34, 0.00, 0.00, 0.00
49, 96234.83, 127780.36, 22214.59, 18759.15, 8995.35, 29623.39, 107946.94, 72080.98, 0.00, 0.00, 0.00
50, 96253.27, 127800.92, 22226.66, 18769.65, 9017.30, 29641.38, 107956.71, 72091.46, 0.00, 0.00, 0.00
51, 96242.61, 127690.91, 22221.84, 18766.39, 9014.03, 29642.30, 107963.70, 72080.28, 0.00, 0.00, 0.00
52, 96232.19, 127630.71, 22219.22, 18762.86, 9003.91, 29630.12, 107941.69, 72078.00, 0.09, -0.20, 0.98
53, 96217.93, 127687.04, 22216.81, 18763.48, 9000.35, 29623.37, 107936.99, 72064.32, 0.00, 0.00, 0.00
54, 96222.52, 127709.44, 22227.02, 18774.19, 9010.88, 29631.80, 107931.90, 72061.75, 0.00, 0.00, 0.00
55, 96226.18, 127710.51, 22229.84, 18775.78, 9003.46, 29634.43, 107929.75, 72067.14, 0.00, 0.00, 0.00
56, 96224.57, 127766.70, 22249.66, 18785.21, 8992.06, 29641.45, 107934.63, 72063.79, 0.00, 0.00, 0.00
57, 96232.99, 127859.95, 22255.65, 18777.07, 9035.60, 29643.98, 107950.45, 72064.97, 0.00, 0.00, 0.00
58, 96223.45, 127753.07, 22228.99, 18761.45, 9015.22, 29629.34, 107942.12, 72051.13, 0.00, 0.00, 0.00
59, 96228.10, 127712.23, 22240.79, 18787.36, 9017.61, 29642.23, 107941.63, 72057.80, 0.00, 0.00, 0.00
60, 96222.89, 127659.59, 22220.96, 18781.34, 9021.45, 29635.98, 107948.55, 72053.08, 0.00, 0.00, 0.00
61, 96218.34, 127706.93, 22225.50, 18781.52, 9023.26, 29651.98, 107941.78, 72052.90, 0.00, 0.00, 0.00
62, 96218.20, 127741.09, 22235.63, 18790.15, 9030.75, 29674.80, 107951.12, 72060.48, 0.08, -0.20, 0.98
63, 96226.45, 127784.63, 22241.44, 18787.33, 9021.66, 29648.76, 107972.78, 72074.02, 0.00, 0.00, 0.00
64, 96223.50, 127734.36, 22236.61, 18775.49, 9008.16, 29630.52, 107948.15, 72067.77, 0.00, 0.00, 0.00
65, 96219.65, 127696.77, 22233.75, 18771.84, 8999.64, 29633.81, 107939.88, 72053.95, 0.00, 0.00, 0.00
66, 96217.53, 127710.91, 22215.60, 18765.05, 9018.71, 29634.86, 107937.42, 72051.61, 0.00, 0.00, 0.00
67, 96222.49, 127742.65, 22217.39, 18760.18, 9016.25, 29633.94, 107946.67, 72059.41, 0.00, 0.00, 0.00
68, 96228.95, 127788.25, 22230.55, 18768.71, 9005.85, 29630.12, 107956.04, 72063.19, 0.00, 0.00, 0.00
69, 96229.30, 127726.06, 22229.64, 18765.47, 9017.01, 29637.92, 107942.12, 72059.48, 0.00, 0.00, 0.00
70, 96227.25, 127806.16, 22233.41, 18766.50, 9013.88, 29634.84, 107946.05, 72058.91, 0.00, 0.00, 0.00
71, 96221.13, 127748.64, 22222.37, 18760.51, 9003.98, 29631.21, 107949.52, 72052.63, 0.00, 0.00, 0.00
72, 96218.34, 127678.10, 22215.40, 18755.55, 8996.71, 29623.41, 107927.59, 72050.24, 0.08, -0.20, 0.98
73, 96214.76, 127691.33, 22220.29, 18753.09, 8995.77, 29619.50, 107921.04, 72049.64, 0.00, 0.00, 0.00
74, 96209.91, 127737.51, 22232.92, 18752.42, 8995.01, 29616.62, 107931.27, 72049.21, 0.00, 0.00, 0.00
75, 96213.05, 127761.23, 22217.83, 18758.61, 8980.62, 29623.37, 107926.35, 72054.49, 0.00, 0.00, 0.00
76, 96217.46, 127722.96, 22204.96, 18755.06, 9010.79, 29625.98, 107932.50, 72061.84, 0.00, 0.00, 0.00
77, 96220.99, 127697.44, 22208.42, 18753.40, 9025.37, 29626.97, 107934.67, 72064.15, 0.00, 0.00, 0.00
78, 96219.54, 127682.77, 22209.94, 18752.24, 9011.08, 29626.34, 107929.51, 72060.21, 0.00, 0.00, 0.00
79, 96217.80, 127739.27, 22216.05, 18755.33, 9006.14, 29628.78, 107941.42, 72052.32, 0.00, 0.00, 0.00
80, 96229.76, 127763.33, 22231.83, 18764.15, 9017.21, 29639.71, 107961.13, 72063.34, 0.00, 0.00, 0.00
81, 96227.84, 127724.30, 22223.53, 18766.52, 9010.17, 29633.65, 107942.25, 72065.91, 0.00, 0.00, 0.00
82, 96224.73, 127707.31, 22222.69, 18768.42, 9005.83, 29641.16, 107924.86, 72070.27, 0.09, -0.20, 0.98
83, 96227.07, 127754.50, 22245.19, 18771.31, 9004.62, 29639.69, 107929.73, 72071.16, 0.00, 0.00, 0.00
84, 96228.70, 127701.37, 22236.99, 18771.91, 9019.98, 29640.45, 107936.66, 72069.09, 0.00, 0.00, 0.00
85, 96231.32, 127756.27, 22237.71, 18780.40, 9029.84, 29640.13, 107942.12, 72073.76, 0.00, 0.00, 0.00
86, 96226.40, 127757.36, 22234.13, 18777.01, 9024.76, 29634.41, 107941.29, 72069.13, 0.00, 0.00, 0.00
87, 96222.89, 127790.80, 22241.46, 18777.68, 9020.87, 29640.04, 107953.52, 72060.37, 0.00, 0.00, 0.00
88, 96225.20, 127780.60, 22243.25, 18777.99, 9017.77, 29639.37, 107970.19, 72061.26, 0.00, 0.00, 0.00
89, 96225.27, 127656.51, 22224.76, 18768.65, 9011.06, 29631.21, 107952.98, 72060.10, 0.00, 0.00, 0.00
90, 96230.25, 127688.52, 22231.83, 18769.16, 9027.04, 29651.96, 107935.43, 72066.78, 0.00, 0.00, 0.00
91, 96232.30, 127753.11, 22248.54, 18778.88, 9040.16, 29679.34, 107934.27, 72072.21, 0.00, 0.00, 0.00
92, 96226.47, 127764.83, 22247.38, 18775.78, 9019.15, 29649.99, 107940.80, 72068.17, 0.08, -0.20, 0.98
93, 96226.07, 127772.80, 22224.18, 18763.55, 9017.01, 29635.04, 107941.22, 72063.27, 0.00, 0.00, 0.00
94, 96225.46, 127738.96, 22205.21, 18760.89, 9015.98, 29624.06, 107943.12, 72062.63, 0.00, 0.00, 0.00
95, 96240.15, 127750.70, 22222.24, 18771.84, 9033.21, 29645.79, 107961.47, 72077.00, 0.00, 0.00, 0.00
96, 96237.53, 127733.35, 22229.77, 18771.13, 9027.82, 29648.43, 107972.89, 72072.73, 0.00, 0.00, 0.00
97, 96235.25, 127712.99, 22231.09, 18772.38, 9006.37, 29640.89, 107984.83, 72066.18, 0.00, 0.00, 0.00
98, 96241.69, 127706.30, 22223.65, 18766.55, 9017.79, 29636.36, 107995.16, 72070.05, 0.00, 0.00, 0.00
99, 96242.43, 127749.91, 22226.80, 18765.43, 9012.36, 29633.61, 107955.14, 72066.41, 0.00, 0.00, 0.00
100, 96243.95, 127815.67, 22240.03, 18771.33, 9031.40, 29644.51, 107968.71, 72070.91, 0.00, 0.00, 0.00
101, 96244.89, 127835.95, 22238.85, 18768.58, 9049.15, 29651.69, 107974.16, 72072.91, 0.00, 0.00, 0.00
102, 96234.88, 127735.27, 22228.23, 18761.58, 9035.31, 29647.42, 107970.84, 72068.91, 0.08, -0.20, 0.98
103, 96238.63, 127684.13, 22225.86, 18757.90, 9027.94, 29648.40, 107973.23, 72074.41, 0.00, 0.00, 0.00
104, 96243.44, 127699.24, 22230.71, 18764.71, 9032.41, 29653.41, 107984.29, 72078.14, 0.00, 0.00, 0.00
105, 96234.96, 127717.64, 22230.57, 18766.70, 9033.03, 29651.85, 107983.27, 72071.77, 0.00, 0.00, 0.00
106, 96235.16, 127720.86, 22243.74, 18774.26, 9035.22, 29656.20, 107996.63, 72074.38, 0.00, 0.00, 0.00
107, 96241.18, 127799.13, 22246.38, 18781.92, 9035.27, 29659.96, 108014.04, 72083.79, 0.00, 0.00, 0.00
108, 96241.38, 127836.87, 22237.01, 18775.31, 9027.82, 29645.56, 107995.13, 72084.26, 0.00, 0.00, 0.00
109, 96235.05, 127705.81, 22213.19, 18762.05, 9023.82, 29634.75, 107960.87, 72072.03, 0.00, 0.00, 0.00
110, 96228.26, 127700.90, 22216.45, 18766.70, 9035.56, 29638.75, 107971.75, 72065.44, 0.00, 0.00, 0.00
111, 96236.17, 127745.71, 22237.77, 18781.10, 9050.18, 29652.47, 107989.84, 72072.93, 0.00, 0.00, 0.00
112, 96241.16, 127849.27, 22253.06, 18789.86, 9053.08, 29660.00, 107987.40, 72080.04, 0.08, -0.20, 0.98
113, 96234.25, 127819.74, 22253.31, 18786.60, 9039.85, 29647.98, 107979.64, 72076.05, 0.00, 0.00, 0.00
114, 96227.92, 127699.67, 22232.03, 18770.01, 9028.94, 29641.36, 107981.92, 72068.30, 0.00, 0.00, 0.00
115, 96232.51, 127669.56, 22238.11, 18774.86, 9045.66, 29663.20, 107989.37, 72072.70, 0.00, 0.00, 0.00
116, 96237.45, 127718.16, 22239.98, 18777.61, 9035.87, 29644.47, 107986.15, 72078.59, 0.00, 0.00, 0.00
117, 96230.70, 127800.99, 22225.52, 18762.75, 9036.63, 29631.62, 107983.71, 72075.01, 0.00, 0.00, 0.00
118, 96234.59, 127861.14, 22230.51, 18772.27, 9022.37, 29631.84, 107986.62, 72083.86, 0.00, 0.00, 0.00
119, 96236.28, 127725.06, 22235.51, 18773.39, 9049.62, 29641.03, 107976.22, 72084.95, 0.00, 0.00, 0.00
120, 96235.48, 127689.90, 22225.66, 18772.45, 9062.04, 29654.88, 107975.55, 72085.22, 0.00, 0.00, 0.00
121, 96218.73, 127698.64, 22213.52, 18764.58, 9042.76, 29633.52, 107966.99, 72070.13, 0.00, 0.00, 0.00
122, 96212.14, 127694.75, 22208.54, 18753.74, 9023.80, 29607.41, 107972.22, 72063.70, 0.08, -0.20, 0.98
123, 96210.38, 127692.41, 22207.93, 18749.04, 9016.96, 29608.04, 107968.35, 72064.75, 0.00, 0.00, 0.00
124, 96213.10, 127722.36, 22196.24, 18743.52, 9013.32, 29609.62, 107955.55, 72065.91, 0.00, 0.00, 0.00
125, 96222.22, 127757.20, 22204.63, 18746.97, 9017.10, 29618.54, 107967.86, 72063.66, 0.00, 0.00, 0.00
126, 96212.70, 127803.91, 22213.25, 18748.91, 9012.87, 29617.69, 107961.11, 72053.88, 0.00, 0.00, 0.00
127, 96206.73, 127746.72, 22210.21, 18740.66, 9017.25, 29612.84, 107950.43, 72048.19, 0.00, 0.00, 0.00
128, 96213.46, 127719.23, 22203.13, 18735.12, 9017.05, 29612.80, 107948.33, 72051.94, 0.00, 0.00, 0.00
129, 96221.66, 127684.70, 22209.88, 18744.26, 9026.59, 29625.04, 107957.94, 72060.26, 0.00, 0.00, 0.00
130, 96225.15, 127763.26, 22214.73, 18758.43, 9033.30, 29638.59, 107983.51, 72068.48, 0.00, 0.00, 0.00
131, 96218.80, 127737.13, 22209.90, 18754.68, 9041.59, 29643.71, 107994.70, 72068.39, 0.00, 0.00, 0.00
132, 96215.41, 127690.55, 22209.54, 18754.99, 9039.00, 29631.28, 107963.80, 72061.75, 0.08, -0.20, 0.98
133, 96222.49, 127722.36, 22216.92, 18756.49, 9032.99, 29631.13, 107955.37, 72059.25, 0.00, 0.00, 0.00
134, 96223.05, 127790.06, 22235.65, 18760.36, 9042.13, 29644.54, 107970.16, 72059.70, 0.00, 0.00, 0.00
135, 96218.22, 127849.98, 22238.04, 18762.50, 9044.34, 29657.54, 107953.24, 72052.59, 0.00, 0.00, 0.00
136, 96219.70, 127783.98, 22230.26, 18772.71, 9037.64, 29649.14, 107962.79, 72053.26, 0.00, 0.00, 0.00
137, 96222.42, 127652.80, 22214.59, 18769.05, 9018.17, 29616.66, 107980.85, 72063.12, 0.00, 0.00, 0.00
138, 96221.59, 127657.88, 22208.67, 18764.29, 9041.19, 29614.38, 107976.09, 72068.34, 0.00, 0.00, 0.00
139, 96227.20, 127736.70, 22215.64, 18765.54, 9047.32, 29626.14, 107970.41, 72075.30, 0.00, 0.00, 0.00
140, 96226.63, 127771.15, 22219.33, 18757.79, 9045.37, 29628.13, 107976.34, 72072.86, 0.00, 0.00, 0.00
141, 96220.57, 127758.30, 22223.76, 18764.54, 9043.20, 29632.38, 107980.96, 72065.27, 0.00, 0.00, 0.00
142, 96227.14, 127778.37, 22221.08, 18762.54, 9029.43, 29632.11, 107976.83, 72079.55, 0.08, -0.20, 0.99
143, 96229.06, 127802.76, 22217.92, 18757.61, 9033.77, 29635.69, 107982.19, 72082.67, 0.00, 0.00, 0.00
144, 96219.92, 127714.09, 22208.33, 18748.42, 9035.16, 29631.15, 107961.58, 72065.77, 0.00, 0.00, 0.00
145, 96219.52, 127697.48, 22210.30, 18751.57, 9038.13, 29624.87, 107952.20, 72064.57, 0.00, 0.00, 0.00
146, 96224.57, 127781.59, 22217.54, 18759.55, 9040.70, 29628.00, 107982.19, 72070.45, 0.00, 0.00, 0.00
147, 96233.48, 127816.84, 22228.99, 18762.84, 9050.62, 29643.31, 107990.08, 72074.78, 0.00, 0.00, 0.00
148, 96226.05, 127744.38, 22212.34, 18751.15, 9034.89, 29630.23, 107967.44, 72063.07, 0.00, 0.00, 0.00
149, 96226.52, 127698.59, 22195.04, 18743.84, 9030.51, 29626.07, 107972.55, 72063.38, 0.00, 0.00, 0.00
150, 96215.49, 127693.05, 22192.58, 18737.13, 9018.35, 29617.16, 107965.13, 72054.83, 0.00, 0.00, 0.00
151, 96226.18, 127723.52, 22207.60, 18749.60, 9035.98, 29632.53, 107966.95, 72071.12, 0.00, 0.00, 0.00
152, 96232.08, 127789.99, 22215.40, 18753.76, 9052.93, 29640.36, 107981.48, 72084.46, 0.09, -0.20, 0.99
153, 96223.23, 127766.43, 22223.65, 18754.41, 9042.71, 29633.34, 107978.10, 72085.18, 0.00, 0.00, 0.00
154, 96229.38, 127800.81, 22231.49, 18764.45, 9040.77, 29640.85, 107981.50, 72093.38, 0.00, 0.00, 0.00
155, 96226.56, 127799.13, 22219.73, 18754.59, 9036.54, 29644.80, 107974.70, 72080.41, 0.00, 0.00, 0.00
156, 96222.42, 127725.13, 22208.98, 18750.07, 9069.02, 29660.23, 107985.95, 72067.25, 0.00, 0.00, 0.00
157, 96222.98, 127650.98, 22202.41, 18754.70, 9055.00, 29641.18, 107989.41, 72066.34, 0.00, 0.00, 0.00
158, 96227.61, 127701.13, 22213.48, 18768.56, 9056.61, 29642.32, 107973.14, 72066.60, 0.00, 0.00, 0.00
159, 96229.94, 127740.13, 22211.13, 18762.86, 9054.67, 29643.69, 107953.31, 72064.52, 0.00, 0.00, 0.00
160, 96235.43, 127764.24, 22222.77, 18772.85, 9064.10, 29650.55, 107952.66, 72072.73, 0.00, 0.00, 0.00
161, 96227.72, 127744.02, 22224.50, 18776.31, 9075.57, 29650.84, 107961.90, 72072.86, 0.00, 0.00, 0.00
162, 96226.36, 127787.87, 22232.79, 18775.33, 9071.39, 29658.15, 107973.30, 72073.27, 0.08, -0.21, 0.98
163, 96222.42, 127768.71, 22222.28, 18782.33, 9056.08, 29644.98, 107971.62, 72070.94, 0.00, 0.00, 0.00
164, 96228.34, 127805.93, 22235.98, 18790.84, 9062.25, 29637.92, 107983.02, 72079.19, 0.00, 0.00, 0.00
165, 96230.65, 127770.48, 22237.06, 18790.48, 9068.57, 29655.31, 107985.56, 72081.38, 0.00, 0.00, 0.00
166, 96235.03, 127799.18, 22236.83, 18788.59, 9054.22, 29642.23, 107977.95, 72081.73, 0.00, 0.00, 0.00
167, 96233.40, 127727.81, 22221.23, 18776.92, 9061.04, 29636.31, 107973.61, 72077.94, 0.00, 0.00, 0.00
168, 96232.64, 127745.16, 22223.73, 18773.45, 9071.41, 29636.65, 108001.23, 72076.15, 0.00, 0.00, 0.00
169, 96221.73, 127698.26, 22210.73, 18767.55, 9052.21, 29624.02, 107992.30, 72067.61, 0.00, 0.00, 0.00
170, 96239.43, 127806.94, 22226.62, 18776.98, 9061.55, 29632.33, 107956.40, 72091.13, 0.00, 0.00, 0.00
171, 96235.52, 127733.94, 22221.77, 18768.16, 9058.98, 29628.69, 107950.20, 72086.14, 0.00, 0.00, 0.00
172, 96234.49, 127711.45, 22225.70, 18765.21, 9052.81, 29630.46, 107962.14, 72074.20, 0.08, -0.20, 0.98
173, 96240.84, 127722.05, 22225.61, 18759.21, 9044.23, 29635.06, 107969.20, 72068.23, 0.00, 0.00, 0.00
174, 96254.50, 127782.59, 22211.87, 18763.08, 9049.98, 29652.22, 107977.45, 72085.20, 0.00, 0.00, 0.00
175, 96232.05, 127836.95, 22217.86, 18761.94, 9055.83, 29640.45, 107985.72, 72082.77, 0.00, 0.00, 0.00
176, 96218.83, 127736.77, 22200.67, 18745.07, 9042.82, 29615.39, 107966.66, 72076.75, 0.00, 0.00, 0.00
177, 96234.92, 127795.73, 22183.23, 18736.08, 9029.25, 29603.81, 107968.29, 72095.44, 0.00, 0.00, 0.00
178, 96222.67, 127781.74, 22183.35, 18734.54, 9007.51, 29599.79, 107955.84, 72075.45, 0.00, 0.00, 0.00
179, 96213.93, 127657.73, 22166.78, 18722.42, 8992.40, 29601.82, 107940.17, 72060.63, 0.00, 0.00, 0.00
180, 96242.59, 127720.86, 22197.70, 18747.37, 9062.58, 29635.91, 107969.85, 72091.39, 0.00, 0.00, 0.00
181, 96233.22, 127759.73, 22187.99, 18743.35, 9054.54, 29629.54, 107986.55, 72079.27, 0.00, 0.00, 0.00
182, 96229.66, 127713.93, 22185.25, 18744.15, 9028.79, 29621.78, 107981.25, 72069.27, 0.08, -0.20, 0.99
183, 96228.59, 127728.73, 22195.68, 18753.74, 9034.98, 29631.10, 107972.13, 72069.15, 0.00, 0.00, 0.00
184, 96228.57, 127744.33, 22206.95, 18764.96, 9066.29, 29645.03, 107970.30, 72076.38, 0.00, 0.00, 0.00
185, 96226.09, 127741.94, 22207.87, 18764.29, 9058.58, 29642.23, 107961.80, 72081.94, 0.00, 0.00, 0.00
186, 96224.08, 127761.52, 22211.33, 18762.95, 9054.65, 29639.66, 107952.06, 72073.80, 0.00, 0.00, 0.00
187, 96215.70, 127758.84, 22205.12, 18766.61, 9046.13, 29636.09, 107943.45, 72059.90, 0.00, 0.00, 0.00
188, 96221.77, 127777.03, 22207.98, 18775.58, 9044.50, 29641.21, 107950.20, 72068.28, 0.00, 0.00, 0.00
189, 96217.55, 127781.74, 22213.59, 18774.01, 9062.72, 29662.02, 107953.67, 72062.18, 0.00, 0.00, 0.00
190, 96204.95, 127750.85, 22197.09, 18758.57, 9051.38, 29632.58, 107953.52, 72047.41, 0.00, 0.00, 0.00
191, 96217.87, 127814.06, 22212.02, 18774.41, 9062.83, 29637.14, 107987.33, 72067.14, 0.00, 0.00, 0.00
192, 96210.71, 127754.95, 22206.37, 18763.69, 9053.95, 29635.98, 107957.73, 72065.80, 0.08, -0.20, 0.98
193, 96220.19, 127776.54, 22215.15, 18773.50, 9059.81, 29649.14, 107959.55, 72067.37, 0.00, 0.00, 0.00
194, 96219.97, 127746.14, 22186.27, 18755.15, 9046.47, 29645.07, 107947.55, 72057.88, 0.00, 0.00, 0.00
195, 96225.13, 127694.62, 22176.91, 18741.31, 9048.19, 29636.09, 107932.62, 72060.59, 0.00, 0.00, 0.00
196, 96231.32, 127703.23, 22185.58, 18752.02, 9047.45, 29629.96, 107951.95, 72076.23, 0.00, 0.00, 0.00
197, 96232.84, 127736.41, 22189.60, 18752.31, 9044.83, 29633.83, 107958.03, 72082.92, 0.00, 0.00, 0.00
198, 96238.63, 127825.42, 22197.79, 18752.51, 9044.45, 29638.12, 107969.12, 72090.43, 0.00, 0.00, 0.00
199, 96235.52, 127817.30, 22199.28, 18749.67, 9039.63, 29637.21, 107964.02, 72094.72, 0.00, 0.00, 0.00
200, 96226.02, 127769.01, 22192.64, 18746.65, 9021.90, 29630.43, 107954.43, 72082.81, 0.00, 0.00, 0.00
201, 96212.66, 127707.23, 22166.65, 18727.05, 9022.39, 29608.24, 107924.43, 72060.10, 0.00, 0.00, 0.00
202, 96231.16, 127667.37, 22164.03, 18734.74, 9034.58, 29613.04, 107937.77, 72074.25, 0.09, -0.20, 0.98
203, 96233.06, 127731.92, 22161.40, 18735.66, 9029.93, 29620.24, 107952.91, 72075.16, 0.00, 0.00, 0.00
204, 96233.11, 127760.63, 22162.38, 18738.92, 9051.58, 29624.62, 107954.25, 72072.95, 0.00, 0.00, 0.00
205, 96234.56, 127738.23, 22168.97, 18744.87, 9047.72, 29622.52, 107949.55, 72077.18, 0.00, 0.00, 0.00
206, 96237.11, 127816.03, 22184.98, 18753.72, 9046.33, 29627.64, 107945.58, 72086.12, 0.00, 0.00, 0.00
207, 96233.82, 127866.23, 22187.30, 18762.23, 9035.71, 29630.95, 107974.91, 72088.87, 0.00, 0.00, 0.00
208, 96225.73, 127745.36, 22171.01, 18749.96, 9038.67, 29637.81, 107954.70, 72089.60, 0.00, 0.00, 0.00
209, 96207.45, 127662.30, 22160.64, 18742.96, 9040.41, 29625.58, 107908.66, 72074.36, 0.00, 0.00, 0.00
210, 96222.60, 127708.45, 22168.33, 18762.84, 9050.18, 29633.74, 107929.33, 72077.18, 0.00, 0.00, 0.00
211, 96221.44, 127810.87, 22184.55, 18768.13, 9058.45, 29640.40, 107943.16, 72070.90, 0.09, -0.20, 0.98
212, 96210.76, 127831.39, 22182.12, 18768.09, 9054.20, 29645.63, 107943.73, 72061.59, 0.00, 0.00, 0.00
213, 96209.51, 127751.37, 22178.41, 18773.54, 9066.98, 29688.59, 107943.88, 72065.91, 0.00, 0.00, 0.00
214, 96209.03, 127680.38, 22176.53, 18774.03, 9072.57, 29669.57, 107964.82, 72067.59, 0.00, 0.00, 0.00
215, 96205.86, 127719.14, 22148.95, 18752.08, 9067.12, 29629.74, 107943.92, 72062.54, 0.00, 0.00, 0.00
216, 96216.84, 127770.21, 22163.34, 18763.22, 9069.96, 29634.70, 107924.45, 72072.84, 0.00, 0.00, 0.00
217, 96220.52, 127738.94, 22160.12, 18764.51, 9045.50, 29636.91, 107947.66, 72075.86, 0.00, 0.00, 0.00
218, 96227.32, 127737.13, 22156.50, 18755.37, 9032.59, 29636.09, 107952.28, 72081.63, 0.00, 0.00, 0.00
219, 96234.00, 127699.16, 22153.97, 18748.40, 9073.82, 29634.75, 107945.55, 72085.09, 0.00, 0.00, 0.00
220, 96227.41, 127721.98, 22145.06, 18739.08, 9049.57, 29619.77, 107931.54, 72079.01, 0.00, 0.00, 0.00
221, 96242.20, 127770.52, 22164.39, 18755.24, 9050.29, 29627.59, 107957.42, 72094.70, 0.09, -0.20, 0.98
222, 96236.26, 127780.18, 22162.29, 18747.39, 9051.47, 29637.52, 107955.79, 72095.82, 0.00, 0.00, 0.00
223, 96226.00, 127747.62, 22154.00, 18747.14, 9048.23, 29637.43, 107948.33, 72090.12, 0.00, 0.00, 0.00
224, 96221.28, 127741.20, 22157.44, 18748.93, 9045.71, 29642.01, 107950.30, 72082.23, 0.00, 0.00, 0.00
225, 96228.08, 127756.71, 22156.01, 18751.62, 9053.19, 29642.05, 107967.82, 72090.32, 0.00, 0.00, 0.00
226, 96232.41, 127830.43, 22166.85, 18756.22, 9057.33, 29642.90, 107969.63, 72099.08, 0.00, 0.00, 0.00
227, 96216.10, 127775.38, 22145.71, 18735.25, 9031.31, 29622.05, 107928.45, 72081.83, 0.00, 0.00, 0.00
228, 96218.38, 127760.29, 22150.00, 18738.05, 9028.67, 29622.83, 107925.59, 72081.06, 0.00, 0.00, 0.00
229, 96217.10, 127784.61, 22151.99, 18741.67, 9034.11, 29636.45, 107939.88, 72073.89, 0.00, 0.00, 0.00
230, 96210.64, 127705.97, 22135.76, 18730.18, 9028.94, 29619.10, 107930.49, 72068.44, 0.00, 0.00, 0.00
231, 96199.76, 127670.27, 22117.52, 18717.26, 9012.33, 29599.72, 107931.07, 72061.55, 0.08, -0.20, 0.98
232, 96218.29, 127793.70, 22152.68, 18744.93, 9029.10, 29621.80, 107963.55, 72080.10, 0.00, 0.00, 0.00
233, 96219.20, 127747.97, 22146.69, 18741.78, 9031.47, 29623.55, 107935.32, 72075.23, 0.00, 0.00, 0.00
234, 96216.97, 127727.63, 22144.52, 18739.41, 9037.55, 29623.26, 107908.97, 72069.89, 0.00, 0.00, 0.00
235, 96215.83, 127742.16, 22141.48, 18738.29, 9046.09, 29630.23, 107905.59, 72070.56, 0.00, 0.00, 0.00
236, 96211.47, 127725.30, 22150.49, 18751.79, 9050.47, 29645.19, 107930.06, 72074.65, 0.00, 0.00, 0.00
237, 96211.72, 127734.72, 22146.22, 18752.02, 9038.11, 29641.18, 107933.51, 72074.59, 0.00, 0.00, 0.00
238, 96217.64, 127802.29, 22143.07, 18743.68, 9046.40, 29637.07, 107918.78, 72072.80, 0.00, 0.00, 0.00
239, 96228.86, 127860.98, 22161.37, 18756.15, 9054.18, 29631.04, 107950.85, 72084.66, 0.00, 0.00, 0.00
240, 96219.14, 127759.95, 22150.64, 18754.97, 9040.03, 29630.21, 107952.02, 72080.64, 0.00, 0.00, 0.00
241, 96218.34, 127717.88, 22145.17, 18749.18, 9070.72, 29641.25, 107934.27, 72083.55, 0.09, -0.19, 0.98
242, 96225.40, 127744.87, 22143.60, 18748.78, 9057.02, 29638.93, 107942.41, 72092.94, 0.00, 0.00, 0.00
243, 96230.88, 127745.71, 22146.17, 18744.73, 9042.87, 29632.18, 107935.61, 72093.83, 0.00, 0.00, 0.00
244, 96221.53, 127693.21, 22134.89, 18737.00, 9039.38, 29634.05, 107915.58, 72078.92, 0.00, 0.00, 0.00
245, 96230.60, 127744.55, 22123.69, 18734.81, 9039.83, 29628.69, 107929.80, 72086.59, 0.00, 0.00, 0.00
246, 96236.44, 127765.38, 22131.67, 18733.00, 9044.50, 29630.79, 107951.01, 72099.35, 0.00, 0.00, 0.00
247, 96230.20, 127725.66, 22118.79, 18725.31, 9034.37, 29620.58, 107949.18, 72098.84, 0.00, 0.00, 0.00
248, 96230.23, 127725.55, 22113.18, 18728.93, 9030.86, 29621.60, 107943.56, 72098.27, 0.00, 0.00, 0.00
249, 96228.81, 127818.91, 22115.26, 18728.66, 9033.37, 29624.51, 107939.50, 72093.88, 0.00, 0.00, 0.00
250, 96250.92, 127912.28, 22137.93, 18746.50, 9050.40, 29649.90, 107974.44, 72116.41, 0.00, 0.00, 0.00
251, 96225.17, 127698.82, 22099.37, 18713.39, 9005.14, 29615.95, 107926.20, 72091.15, 0.08, -0.19, 0.98
252, 96236.95, 127631.85, 22098.90, 18714.76, 9030.98, 29620.29, 107928.57, 72100.45, 0.00, 0.00, 0.00
253, 96243.37, 127733.94, 22117.59, 18731.74, 9044.03, 29635.64, 107952.69, 72110.77, 0.00, 0.00, 0.00
254, 96238.74, 127775.11, 22130.42, 18736.80, 9041.57, 29640.63, 107949.96, 72109.32, 0.00, 0.00, 0.00
255, 96232.73, 127706.66, 22118.03, 18731.97, 9038.29, 29634.97, 107947.30, 72101.38, 0.00, 0.00, 0.00
0, 96243.03, 127748.09, 22118.93, 18737.49, 9046.33, 29635.53, 107948.13, 72107.26, 0.00, 0.00, 0.00
1, 96245.36, 127772.58, 22119.91, 18735.39, 9036.65, 29633.03, 107945.60, 72109.50, 0.00, 0.00, 0.00
2, 96237.42, 127760.80, 22124.25, 18730.94, 9022.01, 29634.21, 107953.60, 72111.60, 0.00, 0.00, 0.00
3, 96240.93, 127781.05, 22141.95, 18743.39, 9030.84, 29645.74, 107963.52, 72117.14, 0.00, 0.00, 0.00
4, 96241.22, 127836.62, 22153.57, 18754.03, 9069.91, 29656.47, 107970.81, 72109.09, 0.00, 0.00, 0.00
5, 96224.10, 127786.69, 22139.22, 18746.21, 9057.35, 29656.94, 107948.55, 72080.64, 0.08, -0.19, 0.98
6, 96253.85, 127902.17, 22172.88, 18775.80, 9068.39, 29665.81, 107945.24, 72107.59, 0.00, 0.00, 0.00
7, 96232.33, 127764.45, 22128.52, 18757.23, 9053.51, 29646.71, 107925.87, 72094.23, 0.00, 0.00, 0.00
8, 96214.31, 127625.20, 22114.68, 18751.15, 9052.50, 29637.03, 107931.27, 72087.52, 0.00, 0.00, 0.00
9, 96214.45, 127695.49, 22121.63, 18748.93, 9053.24, 29636.85, 107936.46, 72089.09, 0.00, 0.00, 0.00
10, 96223.07, 127715.09, 22124.78, 18749.67, 9046.49, 29644.45, 107948.95, 72103.84, 0.00, 0.00, 0.00
11, 96220.23, 127750.52, 22127.20, 18746.54, 9027.29, 29633.38, 107957.11, 72099.88, 0.00, 0.00, 0.00
12, 96223.59, 127779.17, 22131.60, 18750.27, 9053.53, 29635.08, 107937.71, 72093.60, 0.00, 0.00, 0.00
13, 96238.43, 127851.52, 22160.32, 18767.64, 9074.23, 29657.90, 107958.38, 72108.98, 0.00, 0.00, 0.00
14, 96234.02, 127872.11, 22152.70, 18764.71, 9065.76, 29656.34, 107963.75, 72109.66, 0.00, 0.00, 0.00
15, 96232.28, 127743.44, 22120.98, 18745.67, 9054.54, 29647.69, 107958.66, 72103.02, 0.09, -0.19, 0.98
16, 96234.05, 127713.86, 22117.16, 18739.08, 9043.96, 29637.47, 107962.68, 72100.96, 0.00, 0.00, 0.00
17, 96226.47, 127701.86, 22122.48, 18738.90, 9036.74, 29631.13, 107942.83, 72094.52, 0.00, 0.00, 0.00
18, 96220.23, 127721.48, 22121.21, 18733.67, 9034.44, 29623.75, 107932.39, 72087.57, 0.00, 0.00, 0.00
19, 96231.43, 127721.40, 22109.47, 18724.30, 9028.74, 29617.94, 107936.66, 72088.73, 0.00, 0.00, 0.00
20, 96237.73, 127724.66, 22113.16, 18728.59, 9030.06, 29618.85, 107943.48, 72095.88, 0.00, 0.00, 0.00
21, 96230.54, 127747.08, 22118.26, 18733.55, 9023.24, 29621.45, 107945.84, 72099.41, 0.00, 0.00, 0.00
22, 96232.51, 127808.92, 22133.84, 18743.03, 9032.34, 29631.66, 107958.54, 72108.27, 0.00, 0.00, 0.00
23, 96234.90, 127849.16, 22137.14, 18740.93, 9033.64, 29633.07, 107970.92, 72111.17, 0.00, 0.00, 0.00
24, 96219.48, 127758.07, 22112.24, 18734.03, 9022.77, 29629.38, 107951.23, 72100.29, 0.00, 0.00, 0.00
25, 96218.18, 127715.47, 22101.63, 18725.78, 9013.41, 29623.84, 107923.98, 72096.06, 0.09, -0.20, 0.98
26, 96235.08, 127759.68, 22127.53, 18740.66, 9047.85, 29637.32, 107950.72, 72108.27, 0.00, 0.00, 0.00
27, 96222.45, 127789.30, 22117.30, 18731.70, 9024.43, 29626.10, 107934.40, 72093.88, 0.00, 0.00, 0.00
28, 96214.38, 127736.62, 22107.64, 18724.86, 9037.57, 29623.88, 107920.50, 72080.87, 0.00, 0.00, 0.00
29, 96215.83, 127706.33, 22111.33, 18714.80, 9033.43, 29615.23, 107921.95, 72073.94, 0.00, 0.00, 0.00
30, 96203.38, 127723.83, 22106.57, 18712.95, 9019.69, 29608.13, 107918.64, 72066.85, 0.00, 0.00, 0.00
31, 96197.93, 127766.41, 22109.43, 18724.55, 9015.82, 29616.82, 107929.84, 72071.77, 0.00, 0.00, 0.00
32, 96199.29, 127718.71, 22103.44, 18725.29, 9019.67, 29614.92, 107920.79, 72072.84, 0.00, 0.00, 0.00
33, 96187.29, 127726.73, 22095.55, 18712.50, 9010.46, 29607.63, 107904.90, 72052.77, 0.00, 0.00, 0.00
34, 96196.27, 127713.86, 22105.07, 18722.07, 9015.60, 29608.97, 107908.48, 72059.32, 0.00, 0.00, 0.00
35, 96198.91, 127733.58, 22117.88, 18727.23, 9030.93, 29610.27, 107913.28, 72066.23, 0.08, -0.20, 0.98
36, 96192.02, 127797.97, 22118.39, 18731.25, 9033.23, 29617.71, 107921.66, 72060.86, 0.00, 0.00, 0.00
37, 96191.71, 127784.74, 22115.84, 18731.77, 9032.54, 29627.84, 107932.99, 72064.37, 0.00, 0.00, 0.00
38, 96186.02, 127687.55, 22100.42, 18719.21, 9022.48, 29623.21, 107929.51, 72067.01, 0.00, 0.00, 0.00
39, 96185.81, 127651.45, 22100.71, 18713.19, 9032.16, 29614.43, 107918.51, 72069.87, 0.00, 0.00, 0.00
40, 96201.88, 127713.23, 22112.04, 18726.47, 9044.28, 29624.29, 107931.85, 72075.66, 0.00, 0.00, 0.00
41, 96204.34, 127737.48, 22100.44, 18722.40, 9037.21, 29635.91, 107944.26, 72068.80, 0.00, 0.00, 0.00
42, 96212.37, 127764.24, 22104.36, 18721.51, 9008.38, 29627.13, 107926.47, 72073.38, 0.00, 0.00, 0.00
43, 96215.52, 127786.44, 22116.54, 18724.86, 9046.15, 29612.06, 107940.03, 72082.27, 0.00, 0.00, 0.00
44, 96211.36, 127806.69, 22117.61, 18719.61, 9051.47, 29609.24, 107952.26, 72082.65, 0.00, 0.00, 0.00
45, 96203.49, 127765.16, 22101.31, 18700.74, 9020.76, 29601.76, 107940.99, 72077.94, 0.08, -0.20, 0.98
46, 96217.08, 127762.21, 22098.68, 18712.50, 9033.10, 29604.97, 107951.08, 72087.13, 0.00, 0.00, 0.00
47, 96212.50, 127780.94, 22105.96, 18716.12, 9024.67, 29598.58, 107932.52, 72080.26, 0.00, 0.00, 0.00
48, 96215.72, 127740.55, 22105.72, 18715.25, 9020.05, 29602.49, 107932.16, 72076.15, 0.00, 0.00, 0.00
49, 96229.29, 127780.85, 22106.39, 18717.64, 9035.02, 29620.13, 107947.99, 72085.42, 0.00, 0.00, 0.00
50, 96216.26, 127781.30, 22105.20, 18717.95, 9031.09, 29614.90, 107952.69, 72080.08, 0.00, 0.00, 0.00
51, 96209.59, 127687.22, 22090.43, 18713.30, 9022.28, 29605.42, 107965.72, 72079.12, 0.00, 0.00, 0.00
52, 96215.41, 127714.76, 22099.84, 18718.96, 9022.66, 29612.64, 107963.88, 72085.73, 0.00, 0.00, 0.00
53, 96213.44, 127688.76, 22100.69, 18714.56, 9025.43, 29613.38, 107936.10, 72080.75, 0.00, 0.00, 0.00
54, 96210.60, 127706.13, 22099.84, 18711.49, 9022.64, 29614.45, 107934.91, 72070.80, 0.00, 0.00, 0.00
55, 96213.77, 127747.39, 22101.81, 18710.78, 9022.37, 29600.73, 107939.90, 72068.64, 0.08, -0.20, 0.98
56, 96231.70, 127808.21, 22124.96, 18733.29, 9045.35, 29617.98, 107949.84, 72087.34, 0.00, 0.00, 0.00
57, 96221.46, 127786.33, 22131.06, 18735.39, 9040.21, 29619.03, 107963.37, 72079.43, 0.00, 0.00, 0.00
58, 96212.41, 127754.79, 22119.49, 18733.26, 9040.19, 29617.27, 107957.65, 72070.11, 0.00, 0.00, 0.00
59, 96214.40, 127781.30, 22117.88, 18728.95, 9038.33, 29613.47, 107960.89, 72071.97, 0.00, 0.00, 0.00
60, 96221.35, 127796.19, 22127.91, 18734.65, 9051.29, 29625.85, 107953.00, 72072.33, 0.00, 0.00, 0.00
61, 96217.53, 127735.61, 22126.13, 18753.76, 9046.78, 29631.10, 107930.06, 72069.60, 0.00, 0.00, 0.00
62, 96213.05, 127706.87, 22112.38, 18744.31, 9065.11, 29625.52, 107939.01, 72075.12, 0.00, 0.00, 0.00
63, 96218.98, 127767.44, 22117.74, 18743.52, 9071.61, 29627.73, 107964.09, 72087.05, 0.00, 0.00, 0.00
64, 96225.17, 127812.88, 22118.82, 18736.57, 9063.95, 29624.42, 107978.10, 72094.99, 0.00, 0.00, 0.00
65, 96226.83, 127792.32, 22109.61, 18727.16, 9051.20, 29617.56, 107966.95, 72086.02, 0.08, -0.20, 0.98
66, 96227.14, 127742.05, 22113.36, 18723.32, 9049.04, 29617.33, 107948.10, 72078.79, 0.00, 0.00, 0.00
67, 96224.91, 127726.00, 22104.04, 18716.48, 9038.58, 29613.71, 107952.17, 72078.14, 0.00, 0.00, 0.00
68, 96230.05, 127764.20, 22114.66, 18725.53, 9048.75, 29622.05, 107959.55, 72096.20, 0.00, 0.00, 0.00
69, 96225.89, 127743.86, 22108.78, 18720.14, 9044.16, 29620.91, 107958.81, 72100.40, 0.00, 0.00, 0.00
70, 96234.67, 127757.00, 22105.07, 18719.67, 9040.88, 29621.67, 107975.53, 72104.76, 0.00, 0.00, 0.00
71, 96227.68, 127779.95, 22108.65, 18714.36, 9032.43, 29613.67, 107958.66, 72089.29, 0.00, 0.00, 0.00
72, 96225.73, 127689.70, 22093.94, 18706.31, 9031.20, 29606.38, 107934.89, 72083.32, 0.00, 0.00, 0.00
73, 96233.78, 127703.63, 22092.91, 18704.07, 9031.04, 29607.34, 107951.05, 72090.74, 0.00, 0.00, 0.00
74, 96233.16, 127740.86, 22095.77, 18706.80, 9051.25, 29638.30, 107961.23, 72093.25, 0.00, 0.00, 0.00
75, 96234.16, 127788.52, 22112.20, 18723.18, 9050.06, 29622.21, 107983.13, 72100.94, 0.08, -0.19, 0.98
76, 96238.27, 127844.40, 22122.10, 18726.65, 9046.69, 29622.47, 108008.90, 72107.75, 0.00, 0.00, 0.00
77, 96226.96, 127754.66, 22109.47, 18718.33, 9037.86, 29617.36, 107981.79, 72100.63, 0.00, 0.00, 0.00
78, 96220.19, 127722.65, 22104.71, 18710.78, 9036.23, 29613.89, 107951.45, 72093.29, 0.00, 0.00, 0.00
79, 96232.28, 127810.27, 22118.84, 18726.31, 9058.31, 29639.96, 107954.52, 72095.86, 0.00, 0.00, 0.00
80, 96227.19, 127758.50, 22116.27, 18730.07, 9045.79, 29622.34, 107965.11, 72085.63, 0.00, 0.00, 0.00
81, 96226.05, 127774.68, 22119.87, 18734.70, 9024.18, 29621.16, 107959.99, 72079.95, 0.00, 0.00, 0.00
82, 96226.63, 127804.12, 22121.70, 18727.54, 9057.11, 29620.15, 107949.76, 72074.94, 0.00, 0.00, 0.00
83, 96225.24, 127788.36, 22122.33, 18726.31, 9048.86, 29605.02, 107949.98, 72081.02, 0.00, 0.00, 0.00
84, 96222.70, 127738.83, 22114.73, 18728.62, 9047.83, 29605.85, 107965.18, 72087.28, 0.00, 0.00, 0.00
85, 96227.50, 127780.56, 22123.20, 18729.96, 9052.19, 29614.63, 107984.11, 72093.98, 0.08, -0.20, 0.99
86, 96227.99, 127801.77, 22130.53, 18731.81, 9053.66, 29620.17, 107963.57, 72088.48, 0.00, 0.00, 0.00
87, 96218.80, 127742.61, 22110.57, 18724.64, 9035.71, 29620.26, 107961.80, 72072.46, 0.00, 0.00, 0.00
88, 96229.27, 127760.02, 22105.61, 18729.67, 9055.74, 29628.20, 107971.35, 72084.69, 0.00, 0.00, 0.00
89, 96229.55, 127783.78, 22107.42, 18733.44, 9051.65, 29621.67, 107966.79, 72084.89, 0.00, 0.00, 0.00
90, 96232.82, 127805.91, 22116.22, 18738.94, 9056.14, 29627.15, 107959.99, 72090.84, 0.00, 0.00, 0.00
91, 96233.45, 127752.44, 22112.60, 18728.82, 9053.26, 29613.47, 107951.91, 72087.80, 0.00, 0.00, 0.00
92, 96225.76, 127737.33, 22099.55, 18715.96, 9038.22, 29597.02, 107952.17, 72072.59, 0.00, 0.00, 0.00
93, 96228.39, 127766.91, 22093.98, 18709.71, 9033.73, 29613.40, 107950.12, 72074.07, 0.00, 0.00, 0.00
94, 96224.44, 127781.48, 22096.51, 18707.13, 9031.69, 29606.29, 107935.95, 72076.20, 0.00, 0.00, 0.00
95, 96213.28, 127737.66, 22096.11, 18703.02, 9027.20, 29590.13, 107958.61, 72075.09, 0.08, -0.20, 0.99
96, 96206.27, 127763.41, 22075.32, 18693.63, 9007.31, 29585.35, 107964.13, 72067.92, 0.00, 0.00, 0.00
97, 96204.03, 127775.73, 22069.20, 18684.27, 9005.14, 29559.53, 107919.45, 72058.84, 0.00, 0.00, 0.00
98, 96212.01, 127754.61, 22076.19, 18689.21, 9014.77, 29567.63, 107922.31, 72066.23, 0.00, 0.00, 0.00
99, 96208.97, 127704.01, 22064.21, 18678.30, 9000.38, 29565.63, 107942.56, 72063.27, 0.00, 0.00, 0.00
100, 96210.09, 127700.85, 22059.38, 18677.41, 8984.08, 29565.68, 107920.23, 72057.62, 0.00, 0.00, 0.00
101, 96213.98, 127735.74, 22062.58, 18676.47, 9008.45, 29560.74, 107924.79, 72056.52, 0.00, 0.00, 0.00
102, 96213.84, 127773.61, 22063.70, 18673.61, 9009.63, 29561.79, 107942.16, 72058.31, 0.00, 0.00, 0.00
103, 96210.31, 127802.89, 22062.91, 18673.47, 9013.45, 29572.32, 107943.95, 72060.79, 0.00, 0.00, 0.00
104, 96208.19, 127772.47, 22063.38, 18675.28, 9007.46, 29569.03, 107949.76, 72057.87, 0.00, 0.00, 0.00
105, 96204.14, 127679.62, 22050.96, 18674.17, 8990.45, 29561.79, 107930.98, 72052.63, 0.09, -0.20, 0.98
106, 96200.09, 127697.81, 22049.35, 18673.18, 8988.11, 29559.71, 107914.04, 72052.32, 0.00, 0.00, 0.00
107, 96206.55, 127800.30, 22061.28, 18678.59, 9003.95, 29572.83, 107933.84, 72059.05, 0.00, 0.00, 0.00
108, 96206.46, 127776.91, 22066.96, 18679.78, 9002.19, 29574.75, 107929.69, 72051.78, 0.00, 0.00, 0.00
109, 96193.05, 127722.06, 22056.83, 18666.32, 8993.98, 29559.94, 107914.98, 72035.00, 0.00, 0.00, 0.00
110, 96208.90, 127746.41, 22069.84, 18686.13, 9008.98, 29574.24, 107951.73, 72053.17, 0.00, 0.00, 0.00
111, 96213.44, 127787.94, 22083.61, 18697.41, 9017.03, 29588.97, 107980.13, 72062.05, 0.00, 0.00, 0.00
112, 96207.65, 127736.95, 22076.86, 18699.83, 9011.75, 29585.57, 107950.63, 72059.97, 0.00, 0.00, 0.00
113, 96208.97, 127683.35, 22070.80, 18703.13, 9015.75, 29588.32, 107938.00, 72064.32, 0.00, 0.00, 0.00
114, 96208.23, 127697.81, 22076.73, 18700.72, 9021.32, 29611.30, 107938.67, 72061.22, 0.00, 0.00, 0.00
115, 96206.84, 127718.06, 22078.72, 18694.24, 9022.82, 29611.63, 107948.95, 72054.20, 0.08, -0.19, 0.98
116, 96210.51, 127749.47, 22075.37, 18697.64, 9008.51, 29571.76, 107929.48, 72051.83, 0.00, 0.00, 0.00
117, 96202.35, 127789.01, 22080.35, 18694.28, 9000.02, 29582.89, 107932.21, 72045.39, 0.00, 0.00, 0.00
118, 96213.84, 127808.61, 22088.08, 18702.67, 9007.33, 29587.99, 107950.07, 72065.06, 0.00, 0.00, 0.00
119, 96208.66, 127695.18, 22073.04, 18699.27, 8996.91, 29575.34, 107959.70, 72063.05, 0.00, 0.00, 0.00
120, 96209.30, 127711.76, 22071.92, 18701.30, 9037.10, 29582.64, 107969.34, 72065.11, 0.00, 0.00, 0.00
121, 96209.30, 127733.55, 22076.50, 18698.02, 9026.77, 29575.54, 107975.89, 72064.08, 0.00, 0.00, 0.00
122, 96215.41, 127822.67, 22089.20, 18704.19, 9024.14, 29582.73, 107972.02, 72066.47, 0.00, 0.00, 0.00
123, 96211.16, 127757.00, 22073.40, 18690.15, 9014.41, 29573.19, 107934.52, 72057.17, 0.00, 0.00, 0.00
124, 96206.04, 127695.71, 22065.26, 18683.29, 9011.82, 29575.89, 107933.95, 72056.23, 0.00, 0.00, 0.00
125, 96208.92, 127750.56, 22080.21, 18694.48, 9010.79, 29579.94, 107950.05, 72063.27, 0.08, -0.19, 0.98
126, 96207.67, 127761.18, 22078.45, 18692.23, 9009.45, 29566.24, 107953.76, 72061.55, 0.00, 0.00, 0.00
127, 96214.11, 127743.88, 22075.43, 18689.21, 9004.82, 29574.66, 107956.64, 72068.80, 0.00, 0.00, 0.00
128, 96224.48, 127764.31, 22076.75, 18689.28, 9012.58, 29585.08, 107971.10, 72078.56, 0.00, 0.00, 0.00
129, 96215.41, 127818.29, 22078.96, 18684.85, 9006.88, 29579.02, 107982.81, 72069.60, 0.00, 0.00, 0.00
130, 96217.64, 127792.88, 22078.45, 18686.42, 9003.48, 29576.01, 107990.84, 72069.04, 0.00, 0.00, 0.00
131, 96226.94, 127780.42, 22082.38, 18691.45, 9005.61, 29565.59, 107952.80, 72075.79, 0.00, 0.00, 0.00
132, 96219.63, 127687.94, 22070.67, 18686.13, 9005.85, 29568.09, 107956.27, 72070.59, 0.00, 0.00, 0.00
133, 96215.54, 127675.41, 22055.61, 18681.61, 9003.62, 29567.31, 107950.07, 72065.66, 0.00, 0.00, 0.00
134, 96216.86, 127718.00, 22056.68, 18681.95, 8995.68, 29566.84, 107947.66, 72067.34, 0.00, 0.00, 0.00
135, 96233.73, 127793.05, 22088.64, 18701.46, 9030.73, 29593.66, 107992.27, 72086.85, 0.08, -0.20, 0.98
136, 96224.68, 127858.21, 22092.64, 18702.42, 9026.04, 29610.36, 107979.28, 72084.87, 0.00, 0.00, 0.00
137, 96210.38, 127774.86, 22068.75, 18685.88, 9014.01, 29593.51, 107960.77, 72075.55, 0.00, 0.00, 0.00
138, 96213.55, 127689.97, 22060.19, 18688.47, 8998.01, 29572.43, 107978.19, 72078.85, 0.00, 0.00, 0.00
139, 96205.13, 127655.73, 22042.11, 18677.88, 8997.00, 29565.68, 107966.37, 72066.45, 0.00, 0.00, 0.00
140, 96219.85, 127758.05, 22064.75, 18694.10, 9034.78, 29588.99, 107996.52, 72074.85, 0.00, 0.00, 0.00
141, 96213.10, 127765.77, 22066.02, 18693.17, 9027.74, 29591.83, 107979.24, 72065.91, 0.00, 0.00, 0.00
142, 96203.38, 127726.05, 22058.02, 18693.21, 9014.41, 29583.47, 107963.41, 72059.25, 0.00, 0.00, 0.00
143, 96207.23, 127759.20, 22070.76, 18702.02, 9020.40, 29592.01, 107977.34, 72067.74, 0.00, 0.00, 0.00
144, 96207.25, 127811.38, 22076.26, 18708.74, 9043.54, 29605.18, 107966.14, 72068.55, 0.00, 0.00, 0.00
145, 96214.34, 127829.42, 22074.54, 18707.05, 9037.15, 29601.93, 107980.96, 72075.63, 0.08, -0.20, 0.98
146, 96207.27, 127761.80, 22067.54, 18699.87, 9016.31, 29572.72, 107989.90, 72067.85, 0.00, 0.00, 0.00
147, 96204.61, 127721.10, 22070.60, 18705.91, 9015.71, 29588.17, 107974.01, 72068.19, 0.00, 0.00, 0.00
148, 96207.34, 127683.51, 22066.96, 18699.80, 9012.76, 29579.09, 107986.10, 72071.21, 0.00, 0.00, 0.00
149, 96211.43, 127738.31, 22072.88, 18699.11, 9029.90, 29577.21, 107986.17, 72071.27, 0.00, 0.00, 0.00
150, 96205.86, 127763.86, 22067.52, 18702.62, 9028.63, 29573.84, 107950.34, 72060.48, 0.00, 0.00, 0.00
151, 96203.05, 127714.48, 22055.07, 18696.34, 9008.65, 29573.64, 107944.86, 72055.52, 0.00, 0.00, 0.00
152, 96211.60, 127781.81, 22076.37, 18713.35, 9022.06, 29596.10, 107977.97, 72069.76, 0.00, 0.00, 0.00
153, 96203.52, 127815.32, 22077.35, 18708.16, 9021.92, 29580.70, 107991.24, 72063.01, 0.00, 0.00, 0.00
154, 96212.09, 127760.96, 22067.79, 18700.16, 9027.04, 29584.19, 107986.95, 72070.41, 0.00, 0.00, 0.00
155, 96213.41, 127732.30, 22065.48, 18700.32, 9026.91, 29589.93, 107977.45, 72075.12, 0.08, -0.20, 0.98
156, 96213.21, 127733.35, 22071.36, 18704.90, 9023.00, 29587.58, 107976.05, 72076.13, 0.00, 0.00, 0.00
157, 96215.56, 127758.81, 22075.45, 18708.28, 9023.47, 29590.11, 107974.68, 72078.36, 0.00, 0.00, 0.00
158, 96207.78, 127743.52, 22067.92, 18707.76, 9015.20, 29597.91, 107997.28, 72071.90, 0.00, 0.00, 0.00
159, 96208.74, 127730.85, 22073.26, 18708.43, 9033.99, 29596.10, 107987.40, 72068.64, 0.00, 0.00, 0.00
160, 96213.21, 127750.70, 22086.45, 18715.00, 9055.83, 29603.37, 107989.63, 72070.31, 0.00, 0.00, 0.00
161, 96212.90, 127773.72, 22075.50, 18708.25, 9035.29, 29589.15, 107969.27, 72070.16, 0.00, 0.00, 0.00
162, 96218.00, 127768.16, 22070.87, 18704.12, 9028.90, 29577.97, 107983.46, 72078.88, 0.00, 0.00, 0.00
163, 96217.48, 127798.84, 22072.57, 18703.80, 9031.16, 29575.29, 107995.00, 72076.80, 0.00, 0.00, 0.00
164, 96220.16, 127898.27, 22082.25, 18702.42, 9035.33, 29581.68, 107973.16, 72080.64, 0.00, 0.00, 0.00
165, 96219.88, 127754.92, 22072.59, 18706.53, 9037.95, 29593.46, 107968.38, 72081.87, 0.08, -0.20, 0.98
166, 96212.27, 127683.58, 22060.14, 18691.82, 9021.39, 29575.09, 107966.39, 72074.38, 0.00, 0.00, 0.00
167, 96209.57, 127678.88, 22053.19, 18685.74, 9005.16, 29567.36, 107965.36, 72068.48, 0.00, 0.00, 0.00
168, 96204.34, 127735.90, 22047.27, 18680.11, 8999.33, 29570.20, 107977.98, 72058.04, 0.00, 0.00, 0.00
169, 96195.34, 127774.91, 22057.01, 18676.47, 9019.33, 29570.75, 107974.45, 72047.74, 0.00, 0.00, 0.00
170, 96186.10, 127708.61, 22039.31, 18668.36, 9004.91, 29542.84, 107964.48, 72038.26, 0.00, 0.00, 0.00
171, 96198.17, 127710.80, 22033.01, 18668.49, 8996.44, 29545.12, 107961.72, 72049.46, 0.00, 0.00, 0.00
172, 96197.97, 127798.02, 22046.06, 18668.49, 8996.62, 29561.72, 107960.84, 72050.76, 0.00, 0.00, 0.00
173, 96184.80, 127828.68, 22063.59, 18673.43, 8998.81, 29561.39, 107942.23, 72042.87, 0.00, 0.00, 0.00
174, 96181.99, 127671.91, 22046.26, 18676.98, 9007.82, 29562.48, 107940.73, 72038.02, 0.00, 0.00, 0.00
175, 96186.64, 127657.27, 22032.31, 18665.45, 9002.05, 29555.13, 107939.86, 72041.03, 0.08, -0.19, 0.98
176, 96196.38, 127753.70, 22035.53, 18667.46, 8987.37, 29547.28, 107951.63, 72048.03, 0.00, 0.00, 0.00
177, 96199.27, 127794.15, 22044.47, 18673.16, 8984.15, 29549.72, 107977.41, 72049.91, 0.00, 0.00, 0.00
178, 96181.74, 127703.87, 22040.67, 18669.76, 8990.25, 29550.44, 107971.93, 72037.30, 0.00, 0.00, 0.00
179, 96183.76, 127717.39, 22047.36, 18671.42, 8999.48, 29559.09, 107962.68, 72042.09, 0.00, 0.00, 0.00
180, 96180.85, 127740.64, 22041.81, 18667.62, 9014.41, 29568.96, 107965.74, 72042.91, 0.00, 0.00, 0.00
181, 96181.70, 127838.85, 22049.46, 18667.91, 9012.09, 29555.64, 107967.84, 72048.81, 0.00, 0.00, 0.00
182, 96175.80, 127777.63, 22044.92, 18659.41, 8998.81, 29548.04, 107968.16, 72042.42, 0.00, 0.00, 0.00
183, 96167.20, 127611.34, 22031.13, 18657.09, 8989.31, 29541.56, 107942.52, 72023.20, 0.00, 0.00, 0.00
184, 96162.84, 127649.71, 22025.88, 18652.78, 8987.14, 29540.67, 107930.06, 72014.21, 0.00, 0.00, 0.00
185, 96172.20, 127694.55, 22035.36, 18662.23, 8990.50, 29549.52, 107952.46, 72029.37, 0.08, -0.19, 0.99
186, 96168.87, 127695.69, 22033.28, 18657.94, 8977.53, 29535.93, 107943.48, 72026.51, 0.00, 0.00, 0.00
187, 96166.14, 127713.62, 22026.39, 18652.20, 8973.13, 29531.46, 107923.02, 72024.83, 0.00, 0.00, 0.00
188, 96173.88, 127819.97, 22046.17, 18663.59, 8987.35, 29545.52, 107947.39, 72035.20, 0.00, 0.00, 0.00
189, 96168.78, 127812.37, 22044.72, 18662.28, 8994.65, 29546.12, 107947.84, 72035.78, 0.00, 0.00, 0.00
190, 96152.75, 127630.87, 22022.86, 18651.14, 8979.39, 29534.77, 107927.00, 72020.91, 0.00, 0.00, 0.00
191, 96161.94, 127655.86, 22027.26, 18652.51, 8978.76, 29541.32, 107935.25, 72029.68, 0.00, 0.00, 0.00
192, 96171.08, 127758.03, 22034.19, 18657.98, 8986.16, 29550.55, 107957.85, 72036.79, 0.00, 0.00, 0.00
193, 96172.53, 127699.16, 22026.37, 18651.10, 8984.71, 29543.73, 107953.91, 72030.86, 0.00, 0.00, 0.00
194, 96174.44, 127733.66, 22026.77, 18658.65, 8983.08, 29544.04, 107953.40, 72038.98, 0.00, 0.00, 0.00
195, 96167.98, 127774.88, 22036.00, 18662.10, 8993.36, 29552.87, 107957.76, 72038.13, 0.07, -0.20, 0.98
196, 96153.54, 127687.98, 22006.97, 18645.51, 8981.22, 29537.92, 107944.13, 72022.68, 0.00, 0.00, 0.00
197, 96182.44, 127710.22, 22029.95, 18664.62, 8996.60, 29553.90, 107957.20, 72055.02, 0.00, 0.00, 0.00
198, 96184.27, 127696.45, 22038.26, 18668.09, 8992.82, 29549.09, 107936.99, 72062.16, 0.00, 0.00, 0.00
199, 96183.29, 127728.39, 22041.46, 18671.37, 9000.44, 29551.53, 107948.59, 72056.39, 0.00, 0.00, 0.00
200, 96182.05, 127778.86, 22048.43, 18670.50, 9012.07, 29564.76, 107951.84, 72048.92, 0.00, 0.00, 0.00
201, 96180.29, 127741.58, 22047.20, 18666.08, 8999.10, 29566.48, 107969.61, 72046.46, 0.00, 0.00, 0.00
202, 96177.38, 127688.70, 22044.05, 18660.55, 9004.31, 29564.56, 107965.00, 72046.24, 0.00, 0.00, 0.00
203, 96175.62, 127704.41, 22046.66, 18660.20, 9018.55, 29566.60, 107963.70, 72050.31, 0.00, 0.00, 0.00
204, 96181.03, 127716.16, 22044.61, 18657.76, 9018.10, 29574.31, 107954.05, 72057.62, 0.00, 0.00, 0.00
205, 96195.42, 127803.56, 22056.46, 18676.42, 9019.69, 29573.68, 107972.02, 72068.28, 0.08, -0.20, 0.98
206, 96204.07, 127897.55, 22079.23, 18692.85, 9016.45, 29572.09, 107979.58, 72071.30, 0.00, 0.00, 0.00
207, 96184.42, 127706.60, 22053.21, 18668.71, 8995.35, 29555.33, 107952.13, 72052.12, 0.00, 0.00, 0.00
208, 96185.03, 127623.90, 22054.18, 18670.28, 8998.25, 29560.76, 107953.13, 72053.08, 0.00, 0.00, 0.00
209, 96197.81, 127713.46, 22074.76, 18681.79, 9005.92, 29562.77, 107955.63, 72063.67, 0.00, 0.00, 0.00
210, 96196.88, 127758.09, 22050.53, 18668.49, 8993.04, 29559.38, 107958.61, 72064.55, 0.00, 0.00, 0.00
211, 96188.18, 127753.09, 22028.34, 18651.68, 8981.31, 29553.56, 107956.82, 72057.08, 0.00, 0.00, 0.00
212, 96199.60, 127754.97, 22045.68, 18675.40, 8993.18, 29554.32, 107972.78, 72071.43, 0.00, 0.00, 0.00
213, 96198.69, 127742.70, 22043.31, 18669.43, 9004.91, 29556.49, 107977.25, 72067.05, 0.00, 0.00, 0.00
214, 96194.95, 127742.20, 22049.66, 18667.75, 8998.34, 29555.51, 107983.64, 72065.80, 0.00, 0.00, 0.00
215, 96193.43, 127809.91, 22060.99, 18668.38, 8996.89, 29554.10, 107981.68, 72066.58, 0.08, -0.20, 0.98
216, 96196.61, 127766.41, 22049.12, 18658.81, 8988.89, 29547.71, 107935.03, 72065.95, 0.00, 0.00, 0.00
217, 96201.46, 127650.88, 22033.66, 18653.20, 8993.58, 29549.41, 107927.45, 72068.80, 0.00, 0.00, 0.00
218, 96207.11, 127729.06, 22044.03, 18654.86, 8999.59, 29552.80, 107945.87, 72077.69, 0.00, 0.00, 0.00
219, 96201.23, 127735.56, 22050.20, 18659.59, 9005.47, 29556.74, 107961.47, 72075.48, 0.00, 0.00, 0.00
220, 96187.42, 127701.77, 22047.56, 18665.11, 8996.60, 29559.06, 107953.70, 72058.91, 0.00, 0.00, 0.00
221, 96189.68, 127767.28, 22055.56, 18659.95, 8981.56, 29542.14, 107956.17, 72059.54, 0.00, 0.00, 0.00
222, 96208.19, 127810.55, 22074.02, 18678.59, 8989.76, 29570.40, 107970.50, 72081.13, 0.00, 0.00, 0.00
223, 96200.45, 127797.30, 22060.63, 18672.00, 9005.36, 29568.09, 107966.37, 72077.00, 0.00, 0.00, 0.00
224, 96194.26, 127732.21, 22055.00, 18663.66, 9013.70, 29547.55, 107962.07, 72070.34, 0.00, 0.00, 0.00
225, 96200.81, 127674.30, 22053.91, 18660.78, 9004.44, 29552.74, 107952.62, 72075.05, 0.08, -0.19, 0.98
226, 96198.48, 127701.95, 22055.49, 18671.04, 9008.27, 29576.79, 107947.95, 72076.98, 0.00, 0.00, 0.00
227, 96192.67, 127724.81, 22065.28, 18673.83, 8998.32, 29565.39, 107961.05, 72076.59, 0.00, 0.00, 0.00
228, 96196.67, 127768.94, 22070.92, 18676.87, 9009.14, 29564.07, 107966.09, 72081.94, 0.00, 0.00, 0.00
229, 96200.59, 127735.81, 22060.86, 18671.75, 9003.13, 29568.29, 107964.58, 72083.81, 0.00, 0.00, 0.00
230, 96206.46, 127755.82, 22068.75, 18668.80, 9010.46, 29567.83, 107967.33, 72086.12, 0.00, 0.00, 0.00
231, 96200.20, 127747.23, 22055.25, 18656.02, 8997.72, 29551.22, 107956.77, 72076.73, 0.00, 0.00, 0.00
232, 96199.36, 127784.77, 22052.90, 18658.50, 8992.84, 29553.68, 107955.19, 72079.10, 0.00, 0.00, 0.00
233, 96212.05, 127838.98, 22076.73, 18682.71, 9013.47, 29573.84, 107988.11, 72096.63, 0.00, 0.00, 0.00
234, 96200.19, 127754.84, 22064.72, 18673.34, 9005.83, 29563.45, 107958.79, 72086.52, 0.00, 0.00, 0.00
235, 96198.73, 127664.87, 22049.15, 18659.37, 8990.39, 29553.56, 107956.71, 72084.44, 0.08, -0.19, 0.98
236, 96214.45, 127732.03, 22064.32, 18666.90, 8988.64, 29561.92, 107954.90, 72096.02, 0.00, 0.00, 0.00
237, 96210.16, 127722.42, 22063.70, 18665.58, 8982.18, 29556.69, 107953.58, 72093.16, 0.00, 0.00, 0.00
238, 96201.57, 127707.94, 22073.78, 18670.57, 8989.33, 29563.29, 107961.29, 72089.47, 0.00, 0.00, 0.00
239, 96201.10, 127743.45, 22057.68, 18672.45, 9007.66, 29573.19, 107967.77, 72090.25, 0.00, 0.00, 0.00
240, 96207.63, 127771.87, 22056.39, 18671.22, 9006.14, 29581.91, 107981.23, 72095.23, 0.00, 0.00, 0.00
241, 96215.78, 127775.51, 22067.18, 18671.84, 9001.81, 29578.58, 107989.50, 72104.73, 0.00, 0.00, 0.00
242, 96215.09, 127745.89, 22065.06, 18669.29, 9007.17, 29569.79, 107957.70, 72111.24, 0.00, 0.00, 0.00
243, 96212.39, 127723.14, 22057.59, 18675.46, 9005.76, 29551.08, 107943.03, 72113.01, 0.00, 0.00, 0.00
244, 96218.69, 127814.67, 22073.55, 18684.11, 9015.82, 29549.07, 107974.84, 72114.52, 0.00, 0.00, 0.00
245, 96217.06, 127819.25, 22075.16, 18685.70, 9012.20, 29559.87, 107985.03, 72110.97, 0.08, -0.20, 0.98
246, 96212.03, 127671.95, 22049.32, 18671.13, 8996.31, 29554.91, 107974.81, 72105.30, 0.00, 0.00, 0.00
247, 96218.40, 127664.91, 22054.60, 18670.66, 8979.75, 29560.27, 107972.73, 72110.10, 0.00, 0.00, 0.00
248, 96225.17, 127711.74, 22064.28, 18673.18, 9009.67, 29578.91, 107973.63, 72115.78, 0.00, 0.00, 0.00
249, 96233.16, 127776.89, 22079.86, 18684.72, 9049.95, 29594.02, 107964.04, 72125.91, 0.00, 0.00, 0.00
250, 96224.13, 127776.38, 22076.50, 18678.75, 9031.92, 29595.79, 107971.38, 72121.05, 0.00, 0.00, 0.00
251, 96227.34, 127743.37, 22076.66, 18681.14, 9026.64, 29587.65, 108004.36, 72127.24, 0.00, 0.00, 0.00
252, 96228.95, 127771.77, 22079.86, 18683.58, 9018.28, 29572.52, 107978.21, 72129.81, 0.00, 0.00, 0.00
253, 96232.57, 127821.53, 22092.20, 18686.97, 9024.54, 29574.06, 107975.89, 72136.43, 0.00, 0.00, 0.00
254, 96226.47, 127793.93, 22085.18, 18684.67, 9027.85, 29580.57, 107973.70, 72128.09, 0.00, 0.00, 0.00
255, 96223.27, 127733.24, 22077.82, 18681.34, 9023.11, 29584.81, 107953.71, 72125.45, 0.08, -0.20, 0.99
0, 96220.88, 127714.47, 22083.77, 18679.15, 9013.21, 29570.53, 107959.28, 72122.17, 0.00, 0.00, 0.00
1, 96227.48, 127798.13, 22089.29, 18678.35, 9010.88, 29579.38, 107967.26, 72131.02, 0.00, 0.00, 0.00
2, 96228.62, 127780.85, 22079.75, 18679.46, 9019.35, 29585.46, 107978.01, 72136.85, 0.00, 0.00, 0.00
3, 96219.92, 127695.16, 22065.22, 18674.95, 9018.82, 29566.24, 107988.11, 72133.01, 0.00, 0.00, 0.00
4, 96251.44, 127778.19, 22077.44, 18683.60, 9026.51, 29572.47, 107970.86, 72162.98, 0.00, 0.00, 0.00
5, 96249.56, 127761.18, 22074.60, 18670.59, 9010.50, 29561.70, 107938.94, 72157.89, 0.00, 0.00, 0.00
6, 96230.80, 127779.63, 22074.18, 18677.99, 9002.92, 29554.37, 107935.03, 72137.84, 0.00, 0.00, 0.00
7, 96219.74, 127747.77, 22062.54, 18666.03, 8988.84, 29554.17, 107941.47, 72128.00, 0.00, 0.00, 0.00
8, 96212.86, 127704.20, 22051.72, 18659.19, 8978.94, 29546.01, 107941.24, 72124.59, 0.00, 0.00, 0.00
9, 96213.55, 127719.65, 22051.89, 18655.68, 9008.56, 29540.87, 107958.32, 72126.95, 0.08, -0.20, 0.98
10, 96215.56, 127742.34, 22062.42, 18659.28, 9003.44, 29541.32, 107964.91, 72130.22, 0.00, 0.00, 0.00
11, 96208.07, 127765.47, 22060.52, 18651.41, 8990.05, 29538.43, 107939.90, 72125.99, 0.00, 0.00, 0.00
12, 96209.39, 127804.16, 22062.94, 18646.90, 8989.40, 29543.73, 107914.35, 72129.97, 0.00, 0.00, 0.00
13, 96202.42, 127714.65, 22050.87, 18644.62, 8981.18, 29537.40, 107931.38, 72125.39, 0.00, 0.00, 0.00
14, 96197.52, 127742.30, 22043.24, 18638.20, 8969.60, 29538.46, 107933.69, 72119.94, 0.00, 0.00, 0.00
15, 96190.08, 127716.99, 22033.34, 18636.26, 8964.46, 29538.16, 107917.98, 72111.66, 0.00, 0.00, 0.00
16, 96199.54, 127671.13, 22045.26, 18645.45, 8979.68, 29549.21, 107918.53, 72116.90, 0.00, 0.00, 0.00
17, 96203.49, 127702.53, 22040.79, 18641.53, 8971.39, 29533.00, 107922.24, 72119.22, 0.00, 0.00, 0.00
18, 96198.59, 127706.20, 22050.69, 18639.86, 8976.26, 29535.68, 107935.59, 72125.03, 0.00, 0.00, 0.00
19, 96204.05, 127737.96, 22066.33, 18653.25, 9002.19, 29550.93, 107956.71, 72137.77, 0.09, -0.20, 0.98
20, 96207.13, 127786.77, 22053.77, 18646.03, 8990.07, 29553.52, 107960.48, 72143.12, 0.00, 0.00, 0.00
21, 96205.21, 127749.23, 22039.45, 18641.60, 8982.76, 29550.48, 107939.23, 72138.80, 0.00, 0.00, 0.00
22, 96197.79, 127691.65, 22019.06, 18631.77, 8968.55, 29531.41, 107924.16, 72125.10, 0.00, 0.00, 0.00
23, 96202.89, 127680.16, 22021.45, 18627.47, 8963.70, 29524.66, 107925.10, 72127.36, 0.00, 0.00, 0.00
24, 96194.20, 127664.35, 22020.69, 18620.23, 8968.32, 29523.03, 107911.55, 72122.05, 0.00, 0.00, 0.00
25, 96196.83, 127690.77, 22036.67, 18636.91, 8962.89, 29534.34, 107946.78, 72131.18, 0.00, 0.00, 0.00
26, 96197.81, 127723.32, 22038.69, 18633.20, 8977.38, 29528.46, 107945.78, 72132.02, 0.00, 0.00, 0.00
27, 96202.73, 127751.62, 22039.96, 18630.11, 8991.08, 29531.01, 107931.07, 72131.05, 0.00, 0.00, 0.00
28, 96190.93, 127712.30, 22032.63, 18627.32, 8977.13, 29524.66, 107914.27, 72111.17, 0.00, 0.00, 0.00
29, 96189.30, 127709.17, 22041.21, 18629.91, 8970.25, 29537.79, 107918.45, 72108.36, 0.09, -0.20, 0.98
30, 96197.03, 127784.09, 22051.43, 18633.40, 8970.27, 29532.00, 107929.17, 72120.49, 0.00, 0.00, 0.00
31, 96189.59, 127769.30, 22024.92, 18615.05, 8950.15, 29493.08, 107930.52, 72114.39, 0.00, 0.00, 0.00
32, 96180.89, 127668.66, 22010.83, 18608.83, 8944.83, 29492.81, 107932.08, 72111.77, 0.00, 0.00, 0.00
33, 96182.99, 127689.84, 22021.72, 18625.33, 8958.15, 29509.51, 107926.65, 72119.20, 0.00, 0.00, 0.00
34, 96178.63, 127724.66, 22028.27, 18620.03, 8952.79, 29502.45, 107906.69, 72114.48, 0.00, 0.00, 0.00
35, 96180.67, 127688.43, 22029.63, 18615.40, 8945.01, 29509.91, 107918.29, 72116.74, 0.00, 0.00, 0.00
36, 96180.73, 127684.13, 22021.07, 18613.48, 8940.18, 29522.32, 107907.96, 72115.89, 0.00, 0.00, 0.00
37, 96173.49, 127645.09, 22004.98, 18601.03, 8943.58, 29494.94, 107911.00, 72106.21, 0.00, 0.00, 0.00
38, 96170.86, 127622.49, 21995.03, 18590.41, 8939.56, 29481.68, 107898.37, 72099.53, 0.00, 0.00, 0.00
39, 96188.23, 127677.95, 22016.58, 18608.07, 8954.85, 29503.43, 107919.54, 72116.13, 0.08, -0.20, 0.98
40, 96188.02, 127725.35, 22023.91, 18616.25, 8950.73, 29503.90, 107921.75, 72118.86, 0.00, 0.00, 0.00
41, 96187.22, 127790.71, 22028.47, 18616.21, 8955.14, 29505.87, 107929.64, 72127.42, 0.00, 0.00, 0.00
42, 96181.63, 127711.23, 22020.78, 18608.77, 8952.19, 29505.51, 107947.74, 72126.75, 0.00, 0.00, 0.00
43, 96178.73, 127658.68, 22017.99, 18604.81, 8952.52, 29504.03, 107922.60, 72121.66, 0.00, 0.00, 0.00
44, 96182.10, 127726.52, 22020.58, 18606.78, 8949.62, 29504.66, 107911.27, 72125.73, 0.00, 0.00, 0.00
45, 96182.70, 127687.76, 22026.03, 18611.92, 8952.83, 29512.10, 107917.19, 72123.73, 0.00, 0.00, 0.00
46, 96187.73, 127677.88, 22022.05, 18605.59, 8928.92, 29497.69, 107931.72, 72120.20, 0.00, 0.00, 0.00
47, 96193.10, 127715.34, 22018.81, 18602.55, 8963.50, 29503.50, 107923.56, 72124.80, 0.00, 0.00, 0.00
48, 96181.54, 127673.67, 22014.70, 18599.98, 8967.61, 29507.97, 107912.99, 72124.77, 0.09, -0.20, 0.98
49, 96179.58, 127661.00, 22015.66, 18605.90, 8962.92, 29514.11, 107926.02, 72128.59, 0.00, 0.00, 0.00
50, 96174.32, 127709.73, 22017.74, 18599.42, 8956.23, 29511.81, 107938.05, 72126.20, 0.00, 0.00, 0.00
51, 96175.71, 127744.33, 22021.74, 18603.87, 8947.47, 29506.92, 107940.30, 72123.20, 0.00, 0.00, 0.00
52, 96180.07, 127758.68, 22029.83, 18607.71, 8949.24, 29506.40, 107977.27, 72121.09, 0.00, 0.00, 0.00
53, 96178.80, 127670.41, 22012.29, 18602.95, 8945.26, 29504.66, 108003.63, 72121.32, 0.00, 0.00, 0.00
54, 96184.65, 127742.41, 22021.07, 18609.01, 8954.38, 29509.55, 107999.52, 72129.03, 0.00, 0.00, 0.00
55, 96169.23, 127687.82, 22016.33, 18594.77, 8938.89, 29489.26, 107970.99, 72116.56, 0.00, 0.00, 0.00
56, 96164.24, 127586.86, 22009.90, 18590.91, 8921.23, 29480.88, 107987.04, 72112.89, 0.00, 0.00, 0.00
57, 96167.46, 127637.06, 22016.76, 18600.63, 8931.73, 29482.80, 107993.48, 72110.70, 0.00, 0.00, 0.00
58, 96177.90, 127664.29, 22021.47, 18609.37, 8947.74, 29484.88, 108010.24, 72120.27, 0.09, -0.20, 0.98
59, 96178.52, 127687.71, 22024.34, 18608.05, 8947.25, 29488.72, 108018.96, 72128.49, 0.00, 0.00, 0.00
60, 96180.36, 127694.35, 22024.20, 18606.73, 8948.36, 29496.99, 108028.41, 72135.23, 0.00, 0.00, 0.00
61, 96183.62, 127709.02, 22025.92, 18604.32, 8939.16, 29496.23, 108052.20, 72135.70, 0.00, 0.00, 0.00
62, 96185.72, 127725.40, 22022.08, 18593.63, 8936.96, 29494.40, 108064.89, 72134.20, 0.00, 0.00, 0.00
63, 96179.35, 127701.99, 22010.41, 18589.48, 8938.08, 29489.08, 108042.20, 72131.06, 0.00, 0.00, 0.00
64, 96189.99, 127774.59, 22019.87, 18597.81, 8943.87, 29495.85, 108054.90, 72142.24, 0.00, 0.00, 0.00
65, 96191.89, 127733.58, 22021.70, 18596.16, 8938.84, 29502.00, 108064.80, 72142.13, 0.00, 0.00, 0.00
66, 96182.03, 127636.37, 22023.87, 18596.61, 8920.27, 29497.89, 108057.13, 72140.05, 0.00, 0.00, 0.00
67, 96185.43, 127707.78, 22039.47, 18604.16, 8961.37, 29510.29, 108083.27, 72153.06, 0.00, 0.00, 0.00
68, 96186.15, 127676.16, 22016.71, 18601.12, 8963.32, 29498.02, 108068.09, 72156.30, 0.08, -0.20, 0.98
69, 96188.25, 127660.13, 22006.72, 18591.82, 8955.38, 29491.88, 108073.84, 72154.38, 0.00, 0.00, 0.00
70, 96193.43, 127714.20, 22018.32, 18598.62, 8957.17, 29498.02, 108089.10, 72156.19, 0.00, 0.00, 0.00
71, 96181.45, 127699.38, 22008.94, 18589.05, 8933.61, 29488.23, 108100.97, 72150.87, 0.00, 0.00, 0.00
72, 96187.13, 127688.70, 22010.63, 18591.49, 8935.67, 29489.68, 108093.52, 72162.23, 0.00, 0.00, 0.00
73, 96192.70, 127738.63, 22008.11, 18592.45, 8938.89, 29491.16, 108091.34, 72158.54, 0.00, 0.00, 0.00
74, 96190.39, 127696.05, 22006.59, 18587.96, 8944.94, 29489.66, 108107.25, 72146.16, 0.00, 0.00, 0.00
75, 96191.66, 127629.87, 22002.27, 18584.54, 8929.10, 29476.99, 108114.96, 72148.91, 0.00, 0.00, 0.00
76, 96176.24, 127635.68, 21996.46, 18581.25, 8925.27, 29472.58, 108079.46, 72143.88, 0.00, 0.00, 0.00
77, 96162.30, 127641.60, 21995.37, 18580.58, 8925.16, 29469.32, 108072.09, 72136.92, 0.00, 0.00, 0.00
78, 96180.63, 127665.41, 22013.92, 18594.59, 8936.43, 29486.04, 108097.19, 72159.92, 0.08, -0.19, 0.98
79, 96179.09, 127700.01, 22011.62, 18593.81, 8933.28, 29483.54, 108120.21, 72161.53, 0.00, 0.00, 0.00
80, 96181.77, 127753.20, 22016.22, 18598.01, 8924.87, 29488.88, 108123.03, 72164.46, 0.00, 0.00, 0.00
81, 96176.71, 127719.63, 22019.66, 18598.93, 8911.51, 29494.67, 108105.20, 72151.67, 0.00, 0.00, 0.00
82, 96169.25, 127662.12, 22019.15, 18598.46, 8956.46, 29497.44, 108106.45, 72139.45, 0.00, 0.00, 0.00
83, 96185.43, 127733.04, 22023.80, 18610.38, 8965.20, 29497.04, 108135.21, 72156.55, 0.00, 0.00, 0.00
84, 96184.27, 127733.94, 22014.19, 18599.18, 8935.96, 29480.29, 108137.40, 72155.77, 0.00, 0.00, 0.00
85, 96183.09, 127743.66, 22017.70, 18595.33, 8943.09, 29482.13, 108147.30, 72155.56, 0.00, 0.00, 0.00
86, 96182.21, 127679.62, 22007.73, 18591.40, 8935.47, 29481.12, 108142.50, 72154.73, 0.00, 0.00, 0.00
87, 96183.17, 127617.48, 22002.81, 18585.21, 8933.54, 29482.98, 108151.10, 72154.24, 0.00, 0.00, 0.00
88, 96187.63, 127665.02, 21997.38, 18586.68, 8938.98, 29488.03, 108160.76, 72158.05, 0.08, -0.20, 0.98
89, 96186.75, 127758.55, 22004.46, 18587.13, 8936.79, 29494.49, 108134.52, 72163.66, 0.00, 0.00, 0.00
90, 96194.17, 127784.83, 22017.79, 18589.59, 8944.74, 29503.54, 108143.34, 72174.09, 0.00, 0.00, 0.00
91, 96188.96, 127640.23, 21994.45, 18576.71, 8924.07, 29487.29, 108150.55, 72165.87, 0.00, 0.00, 0.00
92, 96186.30, 127636.66, 22000.29, 18592.94, 8940.23, 29492.30, 108160.42, 72165.06, 0.00, 0.00, 0.00
93, 96181.43, 127644.04, 21995.88, 18588.36, 8941.88, 29491.03, 108153.29, 72160.73, 0.00, 0.00, 0.00
94, 96183.71, 127695.80, 21997.65, 18583.78, 8940.23, 29488.63, 108172.70, 72162.11, 0.00, 0.00, 0.00
95, 96181.52, 127720.32, 21999.19, 18581.18, 8935.80, 29492.63, 108192.54, 72158.11, 0.00, 0.00, 0.00
96, 96167.82, 127669.65, 21989.62, 18579.33, 8923.20, 29487.78, 108176.85, 72145.55, 0.00, 0.00, 0.00
97, 96172.02, 127671.80, 21995.90, 18582.19, 8930.28, 29481.97, 108150.55, 72153.82, 0.00, 0.00, 0.00
98, 96176.63, 127714.27, 22002.10, 18583.53, 8934.44, 29484.65, 108155.08, 72158.45, 0.08, -0.20, 0.98
99, 96177.56, 127723.67, 22000.98, 18581.90, 8930.26, 29483.76, 108171.76, 72159.92, 0.00, 0.00, 0.00
100, 96173.07, 127731.70, 21996.24, 18581.63, 8907.24, 29469.12, 108183.58, 72157.28, 0.00, 0.00, 0.00
101, 96171.71, 127656.09, 21978.80, 18575.48, 8895.95, 29462.48, 108174.86, 72156.01, 0.00, 0.00, 0.00
102, 96162.66, 127675.55, 21981.55, 18573.05, 8911.71, 29470.53, 108150.14, 72144.25, 0.00, 0.00, 0.00
103, 96177.02, 127764.42, 21998.27, 18590.82, 8946.31, 29486.51, 108174.03, 72156.55, 0.00, 0.00, 0.00
104, 96173.16, 127704.77, 21993.62, 18582.64, 8922.17, 29464.43, 108194.89, 72153.06, 0.00, 0.00, 0.00
105, 96158.79, 127637.98, 21986.23, 18576.85, 8904.42, 29453.56, 108188.25, 72145.26, 0.00, 0.00, 0.00
106, 96167.02, 127660.89, 21993.40, 18582.99, 8910.05, 29465.25, 108170.88, 72155.09, 0.00, 0.00, 0.00
107, 96166.12, 127668.16, 21986.87, 18576.78, 8909.83, 29457.90, 108173.81, 72151.56, 0.00, 0.00, 0.00
108, 96175.35, 127698.02, 21984.35, 18577.18, 8913.61, 29463.82, 108173.43, 72156.48, 0.09, -0.19, 0.98
109, 96179.64, 127756.51, 21993.45, 18583.08, 8907.19, 29465.03, 108166.99, 72160.46, 0.00, 0.00, 0.00
110, 96171.35, 127721.51, 21988.37, 18576.67, 8896.51, 29465.70, 108178.55, 72164.37, 0.00, 0.00, 0.00
111, 96173.00, 127665.91, 21986.31, 18577.67, 8915.53, 29471.87, 108192.97, 72172.13, 0.00, 0.00, 0.00
112, 96179.53, 127640.10, 21977.84, 18585.32, 8935.20, 29480.36, 108205.15, 72177.65, 0.00, 0.00, 0.00
113, 96174.61, 127669.00, 21977.38, 18577.16, 8923.67, 29470.86, 108220.02, 72162.78, 0.00, 0.00, 0.00
114, 96164.38, 127711.94, 21978.38, 18573.49, 8910.68, 29456.16, 108204.05, 72154.31, 0.00, 0.00, 0.00
115, 96170.91, 127680.98, 21980.21, 18580.51, 8915.28, 29463.17, 108174.64, 72167.66, 0.00, 0.00, 0.00
116, 96169.16, 127668.69, 21974.65, 18570.83, 8906.86, 29466.17, 108178.39, 72167.95, 0.00, 0.00, 0.00
117, 96167.69, 127692.88, 21975.43, 18570.01, 8908.47, 29475.96, 108192.79, 72165.80, 0.00, 0.00, 0.00
118, 96168.40, 127670.41, 21977.20, 18570.59, 8919.60, 29472.79, 108196.86, 72162.63, 0.09, -0.19, 0.98
119, 96172.58, 127641.78, 21971.90, 18567.84, 8908.62, 29475.98, 108190.30, 72164.98, 0.00, 0.00, 0.00
120, 96185.72, 127692.54, 21978.09, 18572.71, 8938.82, 29503.47, 108216.88, 72183.59, 0.00, 0.00, 0.00
121, 96189.21, 127750.01, 21984.68, 18576.58, 8943.49, 29502.58, 108248.11, 72190.63, 0.00, 0.00, 0.00
122, 96175.44, 127717.10, 21983.95, 18570.81, 8929.66, 29496.34, 108232.26, 72179.34, 0.00, 0.00, 0.00
123, 96166.32, 127672.69, 21967.90, 18561.69, 8922.55, 29495.34, 108208.68, 72172.53, 0.00, 0.00, 0.00
124, 96171.59, 127655.08, 21970.54, 18557.58, 8911.89, 29483.38, 108213.51, 72177.73, 0.00, 0.00, 0.00
125, 96169.34, 127665.70, 21985.94, 18559.26, 8893.13, 29474.80, 108191.89, 72175.26, 0.00, 0.00, 0.00
126, 96168.47, 127679.06, 21987.81, 18568.33, 8887.90, 29468.40, 108209.17, 72166.65, 0.00, 0.00, 0.00
127, 96171.91, 127726.70, 21966.02, 18570.30, 8899.46, 29472.43, 108204.41, 72169.49, 0.00, 0.00, 0.00
128, 96167.10, 127712.37, 21967.58, 18564.08, 8894.29, 29453.03, 108189.86, 72169.60, 0.08, -0.19, 0.98
129, 96151.81, 127605.14, 21949.05, 18548.91, 8881.44, 29454.28, 108174.46, 72151.77, 0.00, 0.00, 0.00
130, 96167.33, 127683.69, 21972.79, 18565.72, 8900.04, 29459.80, 108200.55, 72169.51, 0.00, 0.00, 0.00
131, 96169.74, 127690.84, 21977.38, 18565.94, 8897.87, 29464.25, 108205.53, 72171.32, 0.00, 0.00, 0.00
132, 96166.97, 127687.53, 21985.64, 18565.87, 8905.34, 29510.98, 108200.79, 72171.16, 0.00, 0.00, 0.00
133, 96164.94, 127673.36, 21991.30, 18567.97, 8917.70, 29474.75, 108224.84, 72170.74, 0.00, 0.00, 0.00
134, 96172.60, 127701.57, 21999.53, 18569.36, 8911.13, 29446.84, 108227.59, 72179.05, 0.00, 0.00, 0.00
135, 96169.74, 127727.14, 22001.92, 18566.99, 8905.90, 29458.39, 108212.59, 72179.28, 0.00, 0.00, 0.00
136, 96164.40, 127731.70, 21984.33, 18565.38, 8902.90, 29455.87, 108210.45, 72176.41, 0.00, 0.00, 0.00
137, 96165.78, 127692.54, 21980.28, 18562.10, 8904.13, 29460.85, 108217.73, 72179.88, 0.00, 0.00, 0.00
138, 96165.60, 127664.11, 21990.79, 18573.20, 8916.40, 29478.46, 108211.01, 72172.91, 0.08, -0.20, 0.98
139, 96164.29, 127711.94, 22002.16, 18581.56, 8923.53, 29484.39, 108200.27, 72166.45, 0.00, 0.00, 0.00
140, 96168.42, 127695.09, 21994.65, 18573.38, 8898.30, 29476.94, 108200.27, 72165.84, 0.00, 0.00, 0.00
141, 96165.25, 127613.57, 21987.81, 18555.54, 8899.37, 29470.80, 108196.92, 72160.10, 0.00, 0.00, 0.00
142, 96152.48, 127651.77, 21981.00, 18562.59, 8917.14, 29468.63, 108215.88, 72158.40, 0.00, 0.00, 0.00
143, 96161.59, 127687.84, 21982.29, 18577.38, 8928.16, 29480.63, 108238.92, 72176.28, 0.00, 0.00, 0.00
144, 96165.13, 127694.33, 21978.29, 18565.52, 8921.83, 29476.65, 108226.49, 72188.16, 0.00, 0.00, 0.00
145, 96162.41, 127684.29, 21976.41, 18552.04, 8903.06, 29464.87, 108206.98, 72181.78, 0.00, 0.00, 0.00
146, 96152.59, 127711.09, 21983.52, 18552.95, 8907.57, 29473.08, 108211.70, 72158.34, 0.00, 0.00, 0.00
147, 96146.65, 127692.98, 21987.77, 18559.23, 8912.33, 29475.09, 108190.46, 72153.40, 0.00, 0.00, 0.00
148, 96147.84, 127656.95, 21984.97, 18561.04, 8912.38, 29473.57, 108201.95, 72159.20, 0.08, -0.21, 0.98
149, 96159.84, 127736.10, 21993.51, 18564.93, 8907.97, 29470.84, 108204.73, 72167.32, 0.00, 0.00, 0.00
150, 96162.07, 127755.50, 21999.17, 18563.44, 8910.50, 29453.18, 108175.38, 72172.39, 0.00, 0.00, 0.00
151, 96153.36, 127623.34, 21986.27, 18553.09, 8880.19, 29427.50, 108171.91, 72172.04, 0.00, 0.00, 0.00
152, 96148.82, 127601.39, 21972.05, 18547.30, 8892.22, 29433.98, 108174.51, 72165.58, 0.00, 0.00, 0.00
153, 96144.05, 127650.74, 21970.96, 18545.11, 8894.99, 29432.29, 108171.45, 72154.91, 0.00, 0.00, 0.00
154, 96158.45, 127720.86, 21976.44, 18551.03, 8894.67, 29436.55, 108179.66, 72161.58, 0.00, 0.00, 0.00
155, 96163.59, 127686.77, 21977.15, 18555.54, 8893.45, 29446.75, 108199.83, 72177.22, 0.00, 0.00, 0.00
156, 96153.38, 127650.20, 21973.78, 18554.54, 8893.94, 29446.95, 108201.46, 72176.04, 0.00, 0.00, 0.00
157, 96162.48, 127662.16, 21987.32, 18564.89, 8907.59, 29453.96, 108204.97, 72182.81, 0.00, 0.00, 0.00
158, 96165.78, 127691.66, 21990.83, 18563.30, 8904.78, 29451.51, 108181.01, 72183.01, 0.08, -0.20, 0.98
159, 96170.57, 127721.13, 21990.56, 18559.93, 8883.59, 29446.23, 108174.93, 72186.88, 0.00, 0.00, 0.00
160, 96162.34, 127698.13, 21985.94, 18555.59, 8905.11, 29444.27, 108177.81, 72181.52, 0.00, 0.00, 0.00
161, 96161.13, 127691.91, 21988.95, 18561.11, 8912.36, 29454.70, 108189.13, 72183.33, 0.00, 0.00, 0.00
162, 96168.11, 127740.20, 21997.11, 18567.06, 8912.15, 29460.31, 108191.65, 72188.13, 0.00, 0.00, 0.00
163, 96171.95, 127748.69, 21991.41, 18563.26, 8916.29, 29472.16, 108198.09, 72189.92, 0.00, 0.00, 0.00
164, 96169.05, 127705.26, 21987.95, 18561.09, 8910.17, 29471.87, 108196.50, 72187.91, 0.00, 0.00, 0.00
165, 96162.43, 127648.64, 21981.17, 18560.20, 8910.77, 29477.84, 108176.85, 72187.73, 0.00, 0.00, 0.00
166, 96161.59, 127656.75, 21985.15, 18567.62, 8920.25, 29491.14, 108188.01, 72189.83, 0.00, 0.00, 0.00
167, 96160.66, 127691.76, 21985.42, 18567.79, 8928.76, 29498.13, 108190.93, 72188.17, 0.00, 0.00, 0.00
168, 96148.46, 127693.81, 21977.60, 18565.63, 8919.93, 29492.88, 108180.23, 72179.59, 0.07, -0.20, 0.98
169, 96158.77, 127774.48, 21979.95, 18570.12, 8935.58, 29501.60, 108223.52, 72189.96, 0.00, 0.00, 0.00
170, 96159.75, 127735.21, 21979.54, 18565.60, 8935.85, 29502.38, 108216.48, 72184.98, 0.00, 0.00, 0.00
171, 96149.87, 127602.33, 21967.45, 18560.31, 8917.67, 29487.47, 108142.63, 72172.71, 0.00, 0.00, 0.00
172, 96147.61, 127614.84, 21973.64, 18562.10, 8918.21, 29509.06, 108142.99, 72173.80, 0.00, 0.00, 0.00
173, 96143.63, 127618.51, 21968.95, 18554.94, 8926.82, 29494.87, 108157.34, 72179.28, 0.00, 0.00, 0.00
174, 96146.95, 127658.99, 21968.32, 18556.44, 8918.05, 29463.15, 108166.26, 72182.74, 0.00, 0.00, 0.00
175, 96149.42, 127717.69, 21984.97, 18567.21, 8912.78, 29479.60, 108162.70, 72179.91, 0.00, 0.00, 0.00
176, 96151.08, 127721.77, 21980.41, 18566.68, 8906.59, 29479.42, 108171.46, 72179.23, 0.00, 0.00, 0.00
177, 96144.55, 127711.59, 21969.71, 18556.44, 8876.19, 29438.72, 108158.52, 72170.65, 0.00, 0.00, 0.00
178, 96141.16, 127694.51, 21977.40, 18556.51, 8909.32, 29444.64, 108152.02, 72165.02, 0.07, -0.20, 0.99
179, 96135.54, 127716.99, 21976.99, 18555.70, 8909.07, 29447.04, 108153.59, 72160.13, 0.00, 0.00, 0.00
180, 96128.48, 127643.12, 21964.52, 18548.57, 8890.92, 29438.23, 108129.20, 72154.87, 0.00, 0.00, 0.00
181, 96129.80, 127600.59, 21956.81, 18543.99, 8883.12, 29433.04, 108118.31, 72156.30, 0.00, 0.00, 0.00
182, 96146.49, 127656.40, 21960.57, 18545.31, 8891.61, 29442.97, 108133.89, 72171.97, 0.00, 0.00, 0.00
183, 96156.87, 127741.40, 21973.96, 18551.93, 8898.47, 29454.08, 108147.75, 72182.23, 0.00, 0.00, 0.00
184, 96152.44, 127691.65, 21964.81, 18547.66, 8888.82, 29459.15, 108144.28, 72178.02, 0.00, 0.00, 0.00
185, 96144.28, 127647.19, 21950.13, 18533.37, 8893.51, 29447.95, 108143.28, 72172.02, 0.00, 0.00, 0.00
186, 96154.38, 127696.41, 21962.29, 18542.40, 8898.56, 29452.13, 108147.10, 72184.76, 0.00, 0.00, 0.00
187, 96164.82, 127746.45, 21973.46, 18551.72, 8905.36, 29464.83, 108136.66, 72190.45, 0.00, 0.00, 0.00
188, 96159.01, 127672.49, 21967.07, 18542.52, 8896.04, 29465.14, 108138.48, 72180.77, 0.08, -0.20, 0.98
189, 96157.80, 127656.59, 21970.11, 18549.62, 8898.43, 29463.11, 108144.40, 72180.87, 0.00, 0.00, 0.00
190, 96147.59, 127611.60, 21954.96, 18541.58, 8889.31, 29452.47, 108129.71, 72176.51, 0.00, 0.00, 0.00
191, 96148.22, 127645.49, 21957.15, 18540.86, 8891.84, 29461.36, 108131.61, 72182.23, 0.00, 0.00, 0.00
192, 96152.91, 127683.84, 21963.38, 18548.13, 8910.90, 29474.33, 108143.30, 72181.80, 0.00, 0.00, 0.00
193, 96145.49, 127662.43, 21964.03, 18553.38, 8920.98, 29474.46, 108120.63, 72165.91, 0.00, 0.00, 0.00
194, 96150.41, 127707.49, 21971.45, 18557.15, 8913.72, 29479.31, 108149.38, 72169.53, 0.00, 0.00, 0.00
195, 96151.08, 127700.85, 21962.42, 18554.90, 8886.61, 29479.80, 108163.64, 72172.62, 0.00, 0.00, 0.00
196, 96141.53, 127645.45, 21950.46, 18539.56, 8903.88, 29471.38, 108127.43, 72170.92, 0.00, 0.00, 0.00
197, 96142.96, 127653.29, 21958.87, 18539.63, 8920.42, 29468.81, 108107.38, 72176.73, 0.00, 0.00, 0.00
198, 96152.59, 127764.76, 21984.59, 18553.82, 8914.61, 29470.21, 108104.07, 72190.84, 0.08, -0.20, 0.99
199, 96147.61, 127694.35, 21956.47, 18539.83, 8892.95, 29462.19, 108101.05, 72181.47, 0.00, 0.00, 0.00
200, 96132.57, 127622.69, 21943.18, 18530.89, 8878.18, 29447.62, 108089.34, 72155.56, 0.00, 0.00, 0.00
201, 96131.90, 127659.97, 21944.90, 18532.10, 8873.28, 29444.82, 108077.09, 72153.91, 0.00, 0.00, 0.00
202, 96145.16, 127641.35, 21957.88, 18541.02, 8884.75, 29446.59, 108087.96, 72167.09, 0.00, 0.00, 0.00
203, 96140.15, 127665.85, 21961.71, 18542.65, 8881.11, 29432.49, 108093.05, 72169.60, 0.00, 0.00, 0.00
204, 96141.04, 127683.60, 21963.36, 18543.95, 8888.24, 29447.26, 108097.97, 72170.90, 0.00, 0.00, 0.00
205, 96134.24, 127680.23, 21964.66, 18544.59, 8881.22, 29436.93, 108092.41, 72157.46, 0.00, 0.00, 0.00
206, 96136.86, 127679.22, 21958.42, 18546.47, 8876.64, 29434.18, 108082.23, 72153.80, 0.00, 0.00, 0.00
207, 96144.41, 127712.86, 21961.48, 18541.80, 8883.39, 29443.64, 108081.56, 72157.24, 0.00, 0.00, 0.00
208, 96144.33, 127627.83, 21954.62, 18532.55, 8877.62, 29440.67, 108091.98, 72160.26, 0.08, -0.20, 0.98
209, 96149.89, 127661.20, 21950.55, 18528.61, 8876.35, 29433.25, 108104.07, 72167.43, 0.00, 0.00, 0.00
210, 96146.67, 127705.81, 21956.30, 18534.45, 8875.63, 29428.73, 108081.09, 72167.25, 0.00, 0.00, 0.00
211, 96129.22, 127634.70, 21940.34, 18522.15, 8860.37, 29416.19, 108035.77, 72147.74, 0.00, 0.00, 0.00
212, 96147.52, 127666.70, 21960.48, 18535.25, 8887.75, 29444.60, 108059.13, 72169.16, 0.00, 0.00, 0.00
213, 96148.55, 127643.34, 21957.82, 18540.03, 8888.84, 29443.93, 108050.38, 72175.26, 0.00, 0.00, 0.00
214, 96152.58, 127634.07, 21951.74, 18538.67, 8881.47, 29445.70, 108055.02, 72182.23, 0.00, 0.00, 0.00
215, 96152.13, 127695.47, 21959.58, 18538.74, 8887.57, 29452.47, 108067.51, 72177.42, 0.00, 0.00, 0.00
216, 96146.47, 127688.43, 21956.70, 18539.74, 8900.60, 29460.71, 108065.72, 72164.33, 0.00, 0.00, 0.00
217, 96147.91, 127716.19, 21962.55, 18542.69, 8881.40, 29463.85, 108079.60, 72161.91, 0.00, 0.00, 0.00
218, 96144.41, 127667.52, 21954.84, 18541.69, 8890.16, 29461.48, 108061.07, 72158.70, 0.08, -0.20, 0.99
219, 96144.86, 127615.31, 21957.39, 18542.40, 8927.58, 29470.82, 108052.45, 72163.84, 0.00, 0.00, 0.00
220, 96154.32, 127696.65, 21975.74, 18543.65, 8908.82, 29460.85, 108053.05, 72177.00, 0.00, 0.00, 0.00
221, 96158.27, 127751.39, 21964.97, 18539.18, 8898.86, 29458.90, 108062.19, 72180.77, 0.00, 0.00, 0.00
222, 96159.08, 127688.65, 21949.79, 18532.59, 8897.38, 29457.77, 108068.20, 72181.36, 0.00, 0.00, 0.00
223, 96150.67, 127591.02, 21943.11, 18530.85, 8898.09, 29462.26, 108074.44, 72176.95, 0.00, 0.00, 0.00
224, 96151.68, 127616.21, 21949.05, 18531.00, 8897.02, 29466.06, 108059.80, 72180.24, 0.00, 0.00, 0.00
225, 96147.50, 127665.18, 21949.84, 18531.67, 8881.04, 29448.29, 108014.63, 72173.65, 0.00, 0.00, 0.00
226, 96158.97, 127731.07, 21967.72, 18546.70, 8887.19, 29454.88, 108038.78, 72181.70, 0.00, 0.00, 0.00
227, 96164.11, 127779.98, 21980.48, 18554.99, 8894.74, 29454.55, 108066.95, 72184.82, 0.00, 0.00, 0.00
228, 96147.08, 127658.38, 21957.86, 18541.06, 8886.67, 29451.69, 108062.73, 72176.24, 0.08, -0.20, 0.98
229, 96147.77, 127634.52, 21947.00, 18533.84, 8887.81, 29466.93, 108035.32, 72180.40, 0.00, 0.00, 0.00
230, 96157.94, 127697.44, 21960.23, 18545.87, 8890.05, 29458.88, 108032.62, 72185.88, 0.00, 0.00, 0.00
231, 96140.98, 127623.52, 21945.30, 18527.16, 8867.81, 29430.81, 108013.44, 72162.85, 0.00, 0.00, 0.00
232, 96141.98, 127593.79, 21944.38, 18522.73, 8863.88, 29434.07, 108016.61, 72161.89, 0.00, 0.00, 0.00
233, 96141.29, 127626.45, 21965.37, 18524.54, 8879.61, 29448.24, 108027.20, 72167.05, 0.00, 0.00, 0.00
234, 96144.46, 127666.63, 21967.54, 18528.19, 8885.11, 29464.67, 108038.45, 72176.77, 0.00, 0.00, 0.00
235, 96144.41, 127711.18, 21946.10, 18525.37, 8879.03, 29447.53, 108032.93, 72173.42, 0.00, 0.00, 0.00
236, 96145.04, 127728.77, 21945.23, 18525.93, 8868.41, 29441.96, 108008.79, 72170.05, 0.00, 0.00, 0.00
237, 96137.22, 127718.96, 21947.09, 18533.31, 8865.80, 29449.00, 108002.15, 72168.41, 0.00, 0.00, 0.00
238, 96126.78, 127712.50, 21939.38, 18528.93, 8907.26, 29457.10, 108008.50, 72162.09, 0.08, -0.20, 0.98
239, 96135.45, 127651.28, 21942.15, 18528.21, 8903.66, 29465.88, 108039.59, 72169.63, 0.00, 0.00, 0.00
240, 96130.89, 127646.13, 21936.34, 18520.39, 8886.41, 29452.69, 108022.58, 72167.68, 0.00, 0.00, 0.00
241, 96123.30, 127613.34, 21931.75, 18516.21, 8866.07, 29431.21, 107987.13, 72159.48, 0.00, 0.00, 0.00
242, 96128.05, 127610.53, 21935.35, 18516.07, 8867.70, 29443.37, 107970.19, 72159.45, 0.00, 0.00, 0.00
243, 96144.53, 127624.92, 21939.82, 18526.27, 8881.04, 29450.17, 107986.99, 72169.34, 0.00, 0.00, 0.00
244, 96138.31, 127640.93, 21933.05, 18516.12, 8861.91, 29434.03, 107986.23, 72166.54, 0.00, 0.00, 0.00
245, 96140.28, 127680.00, 21941.28, 18517.12, 8869.26, 29435.41, 107991.38, 72172.13, 0.00, 0.00, 0.00
246, 96147.52, 127783.89, 21953.46, 18528.50, 8869.40, 29434.99, 108003.18, 72175.30, 0.00, 0.00, 0.00
247, 96142.05, 127675.82, 21932.71, 18519.34, 8872.03, 29437.83, 108019.07, 72169.51, 0.00, 0.00, 0.00
248, 96142.65, 127667.55, 21939.49, 18515.92, 8886.34, 29452.85, 107991.40, 72173.31, 0.08, -0.20, 0.98
249, 96138.54, 127643.61, 21934.71, 18507.71, 8873.04, 29434.86, 107971.13, 72169.63, 0.00, 0.00, 0.00
250, 96137.71, 127643.90, 21938.46, 18516.86, 8865.10, 29429.83, 107982.44, 72173.09, 0.00, 0.00, 0.00
251, 96147.16, 127677.27, 21941.10, 18515.85, 8863.79, 29432.42, 107988.16, 72185.42, 0.00, 0.00, 0.00
252, 96154.09, 127674.81, 21940.65, 18515.92, 8866.65, 29429.98, 108004.16, 72194.03, 0.00, 0.00, 0.00
253, 96159.41, 127722.63, 21950.02, 18524.81, 8880.21, 29443.57, 108007.91, 72189.56, 0.00, 0.00, 0.00
254, 96141.76, 127703.38, 21946.46, 18520.83, 8875.63, 29443.17, 107982.03, 72168.86, 0.00, 0.00, 0.00
255, 96134.13, 127717.73, 21942.24, 18513.39, 8863.41, 29436.87, 107998.48, 72160.46, 0.00, 0.00, 0.00
0, 96147.41, 127683.58, 21953.68, 18523.56, 8872.82, 29443.28, 108006.15, 72173.58, 0.00, 0.00, 0.00
1, 96141.98, 127632.05, 21936.20, 18517.44, 8863.81, 29435.39, 107961.85, 72167.84, 0.00, 0.00, 0.00
2, 96148.08, 127639.99, 21940.05, 18521.93, 8868.41, 29444.55, 107964.69, 72168.66, 0.08, -0.20, 0.98
3, 96142.18, 127625.23, 21935.31, 18515.51, 8855.83, 29435.23, 107968.38, 72162.67, 0.00, 0.00, 0.00
4, 96141.20, 127640.46, 21941.54, 18520.43, 8879.97, 29441.36, 107973.54, 72165.98, 0.00, 0.00, 0.00
5, 96137.82, 127687.94, 21942.77, 18525.26, 8887.14, 29446.95, 107975.75, 72164.35, 0.00, 0.00, 0.00
6, 96138.38, 127706.89, 21950.55, 18531.18, 8882.87, 29453.27, 107975.89, 72161.45, 0.00, 0.00, 0.00
7, 96133.76, 127670.37, 21943.20, 18526.27, 8884.46, 29446.37, 107971.95, 72157.95, 0.00, 0.00, 0.00
8, 96132.91, 127661.88, 21945.25, 18531.92, 8874.40, 29442.23, 107961.25, 72163.61, 0.00, 0.00, 0.00
9, 96133.91, 127733.87, 21957.17, 18540.41, 8894.72, 29450.90, 107969.38, 72170.18, 0.00, 0.00, 0.00
10, 96121.95, 127672.02, 21939.00, 18529.39, 8879.61, 29441.18, 107958.34, 72155.66, 0.00, 0.00, 0.00
11, 96112.07, 127624.86, 21930.62, 18520.03, 8871.41, 29436.42, 107948.13, 72138.20, 0.00, 0.00, 0.00
12, 96122.18, 127642.18, 21940.90, 18526.76, 8895.03, 29458.59, 107986.39, 72148.52, 0.08, -0.19, 0.98
13, 96123.47, 127681.67, 21943.29, 18530.96, 8891.28, 29458.90, 107981.59, 72155.66, 0.00, 0.00, 0.00
14, 96122.66, 127643.16, 21930.95, 18524.48, 8866.24, 29443.68, 107936.95, 72162.27, 0.00, 0.00, 0.00
15, 96125.46, 127604.02, 21924.00, 18512.47, 8857.75, 29431.86, 107936.68, 72159.84, 0.00, 0.00, 0.00
16, 96121.51, 127655.95, 21934.50, 18513.73, 8867.99, 29433.76, 107933.33, 72144.92, 0.00, 0.00, 0.00
17, 96122.29, 127709.73, 21935.29, 18511.24, 8859.85, 29424.62, 107931.18, 72138.62, 0.00, 0.00, 0.00
18, 96136.99, 127708.70, 21927.42, 18507.89, 8855.25, 29416.82, 107946.16, 72148.68, 0.00, 0.00, 0.00
19, 96135.77, 127661.20, 21934.77, 18513.46, 8852.65, 29420.71, 107948.17, 72156.86, 0.00, 0.00, 0.00
20, 96122.63, 127661.85, 21939.67, 18515.16, 8853.35, 29422.47, 107946.27, 72152.34, 0.00, 0.00, 0.00
21, 96131.43, 127693.74, 21952.43, 18520.19, 8863.49, 29434.12, 107959.30, 72158.72, 0.00, 0.00, 0.00
22, 96137.94, 127658.27, 21937.30, 18510.26, 8860.25, 29448.29, 107956.27, 72160.77, 0.08, -0.20, 0.98
23, 96131.30, 127651.16, 21921.23, 18504.67, 8842.77, 29428.73, 107934.13, 72154.49, 0.00, 0.00, 0.00
24, 96130.13, 127679.55, 21934.39, 18516.47, 8839.31, 29414.67, 107936.88, 72157.09, 0.00, 0.00, 0.00
25, 96117.39, 127667.86, 21933.23, 18511.47, 8837.05, 29418.29, 107932.86, 72149.88, 0.00, 0.00, 0.00
26, 96113.75, 127645.06, 21922.77, 18502.73, 8881.53, 29425.47, 107931.32, 72142.24, 0.00, 0.00, 0.00
27, 96122.87, 127694.80, 21936.34, 18512.12, 8876.53, 29437.43, 107939.38, 72151.05, 0.00, 0.00, 0.00
28, 96130.67, 127697.81, 21958.53, 18527.43, 8877.75, 29450.93, 107965.70, 72163.90, 0.00, 0.00, 0.00
29, 96114.06, 127654.23, 21946.19, 18524.07, 8867.58, 29444.58, 107956.73, 72150.65, 0.00, 0.00, 0.00
30, 96117.02, 127610.09, 21937.86, 18522.51, 8867.45, 29445.09, 107944.69, 72151.32, 0.00, 0.00, 0.00
31, 96122.96, 127673.79, 21946.98, 18526.47, 8871.83, 29450.01, 107947.05, 72153.91, 0.00, 0.00, 0.00
32, 96119.38, 127697.12, 21948.25, 18526.55, 8873.17, 29451.66, 107945.13, 72146.73, 0.08, -0.20, 0.98
33, 96110.73, 127653.05, 21955.69, 18531.21, 8870.31, 29454.79, 107948.04, 72142.31, 0.00, 0.00, 0.00
34, 96108.20, 127691.24, 21955.49, 18533.69, 8870.40, 29462.35, 107944.15, 72143.41, 0.00, 0.00, 0.00
35, 96105.10, 127697.92, 21941.95, 18518.78, 8854.73, 29448.13, 107943.34, 72141.02, 0.00, 0.00, 0.00
36, 96113.30, 127724.10, 21949.72, 18523.72, 8868.34, 29450.75, 107934.54, 72141.91, 0.00, 0.00, 0.00
37, 96113.98, 127748.04, 21955.51, 18531.29, 8879.25, 29461.05, 107930.22, 72138.66, 0.00, 0.00, 0.00
38, 96110.02, 127663.05, 21940.94, 18521.46, 8864.70, 29459.04, 107927.25, 72134.73, 0.00, 0.00, 0.00
39, 96112.34, 127666.59, 21941.72, 18523.40, 8861.84, 29457.90, 107934.38, 72137.46, 0.00, 0.00, 0.00
40, 96095.80, 127641.95, 21931.15, 18511.96, 8863.72, 29447.39, 107919.05, 72122.05, 0.00, 0.00, 0.00
41, 96096.61, 127627.98, 21939.00, 18520.01, 8872.61, 29455.26, 107940.23, 72127.13, 0.00, 0.00, 0.00
42, 96100.00, 127635.43, 21931.89, 18511.74, 8870.76, 29455.02, 107937.62, 72131.34, 0.08, -0.20, 0.98
43, 96103.84, 127660.02, 21935.49, 18519.83, 8844.21, 29449.76, 107921.55, 72135.56, 0.00, 0.00, 0.00
44, 96105.26, 127668.38, 21936.25, 18517.97, 8833.45, 29436.42, 107916.16, 72137.55, 0.00, 0.00, 0.00
45, 96113.03, 127724.88, 21936.76, 18512.50, 8873.17, 29439.50, 107911.94, 72143.60, 0.00, 0.00, 0.00
46, 96111.34, 127633.91, 21926.72, 18505.16, 8859.43, 29431.41, 107915.16, 72136.14, 0.00, 0.00, 0.00
47, 96116.39, 127692.56, 21942.24, 18514.33, 8872.59, 29441.96, 107916.74, 72131.06, 0.00, 0.00, 0.00
48, 96110.73, 127678.55, 21939.89, 18507.45, 8859.45, 29435.37, 107908.88, 72123.94, 0.00, 0.00, 0.00
49, 96115.83, 127641.82, 21933.68, 18498.41, 8843.58, 29426.38, 107906.59, 72127.98, 0.00, 0.00, 0.00
50, 96116.61, 127672.89, 21927.73, 18501.01, 8846.10, 29426.79, 107912.85, 72130.89, 0.00, 0.00, 0.00
51, 96119.56, 127698.51, 21927.71, 18504.52, 8856.01, 29431.95, 107929.15, 72138.98, 0.00, 0.00, 0.00
52, 96117.93, 127689.50, 21935.91, 18507.31, 8862.58, 29438.45, 107936.03, 72139.36, 0.08, -0.20, 0.98
53, 96112.07, 127629.69, 21930.05, 18501.46, 8856.59, 29434.65, 107917.44, 72134.46, 0.00, 0.00, 0.00
54, 96119.59, 127689.14, 21939.91, 18507.58, 8845.46, 29424.39, 107898.04, 72143.25, 0.00, 0.00, 0.00
55, 96119.77, 127673.30, 21939.35, 18506.66, 8842.37, 29428.78, 107908.59, 72149.15, 0.00, 0.00, 0.00
56, 96128.99, 127721.26, 21955.96, 18519.11, 8857.24, 29457.34, 107925.04, 72164.80, 0.00, 0.00, 0.00
57, 96111.47, 127702.40, 21936.96, 18506.21, 8845.57, 29430.99, 107916.48, 72148.50, 0.00, 0.00, 0.00
58, 96115.56, 127747.99, 21939.69, 18505.14, 8838.06, 29420.66, 107921.75, 72141.62, 0.00, 0.00, 0.00
59, 96126.52, 127694.08, 21940.14, 18507.54, 8846.91, 29429.76, 107937.11, 72147.47, 0.00, 0.00, 0.00
60, 96119.05, 127640.48, 21929.38, 18503.62, 8841.75, 29425.85, 107922.24, 72137.44, 0.00, 0.00, 0.00
61, 96112.48, 127698.80, 21939.55, 18516.50, 8854.71, 29439.30, 107918.48, 72136.54, 0.00, 0.00, 0.00
62, 96108.09, 127631.97, 21938.77, 18514.35, 8856.30, 29439.66, 107915.83, 72137.99, 0.08, -0.20, 0.98
63, 96106.55, 127639.27, 21941.86, 18513.77, 8846.08, 29438.43, 107912.63, 72142.22, 0.00, 0.00, 0.00
64, 96113.02, 127683.24, 21944.58, 18515.65, 8830.53, 29438.86, 107905.03, 72151.74, 0.00, 0.00, 0.00
65, 96106.51, 127702.28, 21942.75, 18509.70, 8863.72, 29441.07, 107898.33, 72136.97, 0.00, 0.00, 0.00
66, 96100.38, 127660.82, 21935.38, 18504.56, 8854.33, 29427.14, 107891.98, 72121.59, 0.00, 0.00, 0.00
67, 96104.72, 127685.09, 21941.16, 18513.84, 8845.28, 29422.74, 107897.99, 72125.48, 0.00, 0.00, 0.00
68, 96101.32, 127710.30, 21952.85, 18520.45, 8839.22, 29430.56, 107898.28, 72128.14, 0.00, 0.00, 0.00
69, 96101.12, 127765.74, 21962.31, 18526.13, 8847.25, 29440.35, 107913.75, 72131.27, 0.00, 0.00, 0.00
70, 96089.90, 127672.18, 21939.78, 18509.77, 8845.64, 29430.23, 107909.55, 72118.52, 0.00, 0.00, 0.00
71, 96092.78, 127616.48, 21919.84, 18498.41, 8837.14, 29423.54, 107889.61, 72115.20, 0.00, 0.00, 0.00
72, 96090.13, 127611.27, 21909.92, 18486.48, 8823.10, 29405.26, 107889.99, 72108.89, 0.09, -0.19, 0.98
73, 96089.32, 127700.34, 21918.77, 18493.23, 8824.54, 29408.46, 107897.70, 72113.88, 0.00, 0.00, 0.00
74, 96089.12, 127721.24, 21930.70, 18491.26, 8828.74, 29408.14, 107865.38, 72120.65, 0.00, 0.00, 0.00
75, 96081.97, 127653.22, 21909.67, 18483.35, 8819.69, 29399.67, 107859.93, 72109.52, 0.00, 0.00, 0.00
76, 96084.18, 127627.85, 21902.67, 18480.06, 8824.20, 29403.65, 107866.19, 72102.27, 0.00, 0.00, 0.00
77, 96085.66, 127726.80, 21912.82, 18481.81, 8829.32, 29412.64, 107883.24, 72100.29, 0.00, 0.00, 0.00
78, 96078.55, 127687.76, 21911.84, 18480.62, 8821.70, 29399.34, 107880.35, 72094.97, 0.00, 0.00, 0.00
79, 96073.83, 127621.55, 21894.67, 18469.54, 8802.30, 29384.83, 107837.80, 72091.75, 0.00, 0.00, 0.00
80, 96085.30, 127620.50, 21896.77, 18473.45, 8818.92, 29395.45, 107846.38, 72102.55, 0.00, 0.00, 0.00
81, 96094.02, 127673.70, 21909.96, 18481.29, 8838.44, 29415.43, 107867.70, 72115.27, 0.00, 0.00, 0.00
82, 96079.06, 127653.40, 21911.46, 18472.69, 8823.53, 29408.88, 107860.91, 72100.31, 0.09, -0.19, 0.98
83, 96081.79, 127625.57, 21924.47, 18471.73, 8821.05, 29418.05, 107892.23, 72101.56, 0.00, 0.00, 0.00
84, 96084.58, 127596.96, 21912.04, 18474.19, 8815.66, 29415.86, 107903.35, 72103.20, 0.00, 0.00, 0.00
85, 96087.95, 127633.58, 21882.29, 18462.79, 8806.56, 29403.03, 107883.51, 72103.69, 0.00, 0.00, 0.00
86, 96073.49, 127672.47, 21866.46, 18447.14, 8783.70, 29399.05, 107840.21, 72086.77, 0.00, 0.00, 0.00
87, 96093.48, 127819.07, 21905.13, 18470.99, 8843.11, 29425.49, 107857.67, 72101.67, 0.00, 0.00, 0.00
88, 96085.67, 127779.98, 21905.40, 18471.21, 8823.24, 29408.10, 107860.41, 72092.76, 0.00, 0.00, 0.00
89, 96075.93, 127527.18, 21881.13, 18460.15, 8802.61, 29399.54, 107833.93, 72084.80, 0.00, 0.00, 0.00
90, 96074.63, 127525.55, 21879.63, 18465.78, 8804.29, 29402.40, 107843.50, 72085.29, 0.00, 0.00, 0.00
91, 96072.31, 127595.55, 21895.95, 18475.57, 8804.13, 29405.02, 107867.62, 72086.85, 0.00, 0.00, 0.00
92, 96070.66, 127636.15, 21908.53, 18479.64, 8818.39, 29408.59, 107851.92, 72087.75, 0.08, -0.20, 0.98
93, 96076.09, 127653.18, 21903.35, 18473.80, 8810.61, 29399.83, 107845.38, 72092.73, 0.00, 0.00, 0.00
