%OpenBCI Raw EEG Data
%Sample Rate = 250.0 Hz
%First Column = SampleIndex
%Other Columns = EEG data in microvolts followed by Accel Data (in G) interleaved with Aux Data
218, 96170.75, 127623.65, 22166.96, 18771.42, 8945.86, 29592.81, 107877.07, 71975.07, 0.00, 0.00, 0.00
219, 96160.71, 127610.77, 22166.11, 18767.28, 8932.41, 29593.35, 107856.69, 71964.91, 0.00, 0.00, 0.00
220, 96161.54, 127586.91, 22178.52, 18781.68, 8940.16, 29607.05, 107857.36, 71970.00, 0.00, 0.00, 0.00
221, 96161.18, 127583.51, 22162.07, 18778.62, 8944.70, 29600.15, 107867.03, 71972.68, 0.00, 0.00, 0.00
222, 96159.37, 127624.19, 22167.19, 18781.70, 8952.50, 29596.86, 107883.22, 71971.01, 0.00, 0.00, 0.00
223, 96144.05, 127586.34, 22156.93, 18768.40, 8939.22, 29593.35, 107874.52, 71953.03, 0.00, 0.00, 0.00
224, 96151.59, 127579.35, 22155.63, 18768.38, 8943.63, 29607.81, 107878.59, 71960.01, 0.00, 0.00, 0.00
225, 96151.13, 127626.29, 22163.45, 18772.47, 8931.89, 29589.19, 107886.03, 71965.38, 0.08, -0.19, 0.98
226, 96162.55, 127660.62, 22181.63, 18785.93, 8947.65, 29603.97, 107872.76, 71980.04, 0.00, 0.00, 0.00
227, 96156.69, 127639.70, 22178.61, 18780.92, 8934.17, 29607.57, 107860.75, 71973.06, 0.00, 0.00, 0.00
228, 96150.56, 127617.68, 22173.33, 18780.67, 8934.80, 29607.10, 107867.91, 71962.02, 0.00, 0.00, 0.00
229, 96147.99, 127585.70, 22174.40, 18779.80, 8971.63, 29618.05, 107882.68, 71958.20, 0.00, 0.00, 0.00
230, 96150.18, 127576.17, 22170.61, 18784.56, 8974.76, 29612.24, 107867.48, 71962.45, 0.00, 0.00, 0.00
231, 96156.15, 127632.75, 22158.58, 18780.34, 8958.96, 29601.53, 107860.22, 71971.85, 0.00, 0.00, 0.00
232, 96150.07, 127573.07, 22150.62, 18773.52, 8954.87, 29607.48, 107862.23, 71962.76, 0.00, 0.00, 0.00
233, 96150.30, 127553.04, 22151.27, 18769.68, 8947.43, 29601.26, 107866.05, 71958.06, 0.00, 0.00, 0.00
234, 96155.44, 127585.95, 22156.26, 18772.58, 8940.12, 29587.25, 107866.95, 71965.04, 0.00, 0.00, 0.00
235, 96147.39, 127602.48, 22163.50, 18773.92, 8934.89, 29592.72, 107866.07, 71964.91, 0.08, -0.20, 0.98
236, 96145.22, 127611.60, 22170.49, 18777.54, 8948.59, 29596.86, 107871.84, 71965.51, 0.00, 0.00, 0.00
237, 96149.29, 127648.04, 22166.00, 18772.76, 8941.86, 29593.13, 107874.81, 71971.27, 0.00, 0.00, 0.00
238, 96152.59, 127628.68, 22161.20, 18772.07, 8940.45, 29589.66, 107885.45, 71977.71, 0.00, 0.00, 0.00
239, 96153.16, 127592.94, 22161.06, 18773.14, 8933.41, 29583.63, 107904.52, 71977.38, 0.00, 0.00, 0.00
240, 96155.70, 127619.88, 22162.42, 18766.37, 8920.31, 29578.98, 107885.97, 71969.13, 0.00, 0.00, 0.00
241, 96155.16, 127619.05, 22170.45, 18770.86, 8932.27, 29593.33, 107883.66, 71962.02, 0.00, 0.00, 0.00
242, 96156.48, 127707.11, 22190.45, 18785.21, 8956.10, 29606.81, 107887.40, 71969.42, 0.00, 0.00, 0.00
243, 96135.66, 127545.95, 22139.22, 18758.68, 8932.23, 29584.07, 107862.66, 71955.25, 0.00, 0.00, 0.00
244, 96148.15, 127531.70, 22136.12, 18761.90, 8926.26, 29576.25, 107859.84, 71968.26, 0.00, 0.00, 0.00
245, 96146.43, 127614.73, 22141.88, 18761.09, 8921.32, 29577.55, 107852.02, 71970.49, 0.07, -0.20, 0.98
246, 96154.70, 127652.82, 22160.10, 18775.42, 8947.51, 29602.27, 107893.14, 71984.04, 0.00, 0.00, 0.00
247, 96152.82, 127600.72, 22162.34, 18775.49, 8949.21, 29596.97, 107892.45, 71982.18, 0.00, 0.00, 0.00
248, 96152.59, 127597.21, 22165.15, 18776.04, 8949.73, 29602.29, 107873.78, 71978.38, 0.00, 0.00, 0.00
249, 96146.16, 127572.98, 22157.04, 18767.66, 8931.42, 29602.20, 107869.65, 71969.20, 0.00, 0.00, 0.00
250, 96148.66, 127649.09, 22175.99, 18785.66, 8929.30, 29619.88, 107894.13, 71971.05, 0.00, 0.00, 0.00
251, 96138.38, 127662.14, 22168.79, 18782.35, 8963.07, 29606.85, 107897.88, 71963.12, 0.00, 0.00, 0.00
252, 96131.59, 127614.77, 22157.98, 18770.41, 8944.79, 29589.17, 107874.45, 71957.55, 0.00, 0.00, 0.00
253, 96144.53, 127587.40, 22164.44, 18782.86, 8964.95, 29604.91, 107881.70, 71967.38, 0.00, 0.00, 0.00
254, 96141.47, 127534.04, 22154.24, 18776.27, 8965.73, 29615.14, 107875.02, 71968.57, 0.00, 0.00, 0.00
255, 96135.88, 127614.89, 22156.17, 18771.66, 8960.48, 29613.58, 107875.08, 71969.06, 0.08, -0.20, 0.98
0, 96130.16, 127585.18, 22155.85, 18769.23, 8950.02, 29592.88, 107882.66, 71960.01, 0.00, 0.00, 0.00
1, 96132.80, 127575.39, 22152.90, 18766.48, 8946.49, 29588.08, 107887.58, 71955.09, 0.00, 0.00, 0.00
2, 96138.52, 127651.68, 22153.95, 18775.71, 8954.09, 29598.02, 107892.54, 71957.93, 0.00, 0.00, 0.00
3, 96125.17, 127650.34, 22153.51, 18774.88, 8934.30, 29583.72, 107868.09, 71946.33, 0.00, 0.00, 0.00
4, 96128.23, 127572.63, 22159.81, 18776.34, 8937.79, 29587.21, 107866.63, 71948.88, 0.00, 0.00, 0.00
5, 96135.59, 127559.66, 22158.85, 18775.80, 8945.75, 29598.54, 107873.85, 71952.84, 0.00, 0.00, 0.00
6, 96138.42, 127592.73, 22163.94, 18783.82, 8954.80, 29611.39, 107891.84, 71957.70, 0.00, 0.00, 0.00
7, 96132.52, 127632.32, 22179.21, 18785.66, 8954.53, 29640.51, 107912.05, 71960.81, 0.00, 0.00, 0.00
8, 96139.72, 127658.23, 22205.29, 18804.59, 8968.50, 29673.59, 107932.86, 71971.19, 0.00, 0.00, 0.00
9, 96150.02, 127688.54, 22170.94, 18781.34, 8948.88, 29608.33, 107887.28, 71970.71, 0.08, -0.19, 0.98
10, 96150.30, 127683.09, 22134.33, 18754.88, 8927.87, 29552.69, 107875.91, 71963.14, 0.00, 0.00, 0.00
11, 96149.89, 127611.98, 22140.38, 18765.23, 8935.09, 29574.91, 107888.91, 71970.91, 0.00, 0.00, 0.00
12, 96135.61, 127576.91, 22141.75, 18765.34, 8948.50, 29592.05, 107889.16, 71964.92, 0.00, 0.00, 0.00
13, 96128.77, 127625.62, 22144.19, 18753.74, 8931.67, 29582.31, 107877.30, 71960.61, 0.00, 0.00, 0.00
14, 96122.34, 127538.31, 22133.50, 18742.85, 8911.95, 29574.29, 107877.65, 71950.53, 0.00, 0.00, 0.00
15, 96122.13, 127542.52, 22140.81, 18748.64, 8918.88, 29586.64, 107872.02, 71941.95, 0.00, 0.00, 0.00
16, 96119.18, 127579.35, 22127.67, 18746.54, 8916.22, 29590.22, 107857.60, 71933.01, 0.00, 0.00, 0.00
17, 96143.99, 127625.13, 22149.06, 18767.22, 8964.37, 29606.20, 107890.05, 71958.29, 0.00, 0.00, 0.00
18, 96131.74, 127608.41, 22147.96, 18764.15, 8942.71, 29592.75, 107909.26, 71957.05, 0.00, 0.00, 0.00
19, 96131.34, 127624.05, 22152.32, 18765.83, 8940.94, 29596.55, 107901.73, 71958.96, 0.08, -0.20, 0.98
20, 96132.70, 127648.04, 22154.80, 18764.33, 8955.36, 29600.88, 107883.75, 71955.70, 0.00, 0.00, 0.00
21, 96135.41, 127626.31, 22156.30, 18766.95, 8959.70, 29610.54, 107880.87, 71954.04, 0.00, 0.00, 0.00
22, 96137.20, 127739.86, 22175.21, 18778.01, 8965.89, 29616.93, 107876.31, 71956.27, 0.00, 0.00, 0.00
23, 96139.88, 127711.78, 22179.63, 18791.58, 8964.05, 29616.40, 107893.70, 71963.48, 0.00, 0.00, 0.00
24, 96131.92, 127545.29, 22147.36, 18770.86, 8942.58, 29601.58, 107899.20, 71959.90, 0.00, 0.00, 0.00
25, 96134.70, 127512.79, 22139.51, 18758.99, 8927.73, 29584.19, 107895.42, 71964.63, 0.00, 0.00, 0.00
26, 96139.74, 127554.83, 22152.30, 18760.94, 8941.21, 29577.21, 107864.53, 71967.38, 0.00, 0.00, 0.00
27, 96142.13, 127611.09, 22163.59, 18774.32, 8962.07, 29594.42, 107875.41, 71960.59, 0.00, 0.00, 0.00
28, 96134.76, 127657.76, 22157.95, 18772.22, 8943.65, 29591.70, 107896.54, 71949.37, 0.00, 0.00, 0.00
29, 96137.66, 127690.13, 22150.87, 18763.53, 8936.76, 29590.47, 107895.45, 71953.73, 0.08, -0.19, 0.98
30, 96140.70, 127626.29, 22152.79, 18768.96, 8948.41, 29597.80, 107876.40, 71963.88, 0.00, 0.00, 0.00
31, 96134.58, 127602.26, 22161.11, 18769.45, 8946.51, 29591.00, 107880.31, 71963.70, 0.00, 0.00, 0.00
32, 96146.12, 127594.17, 22167.92, 18770.97, 8947.43, 29594.87, 107904.67, 71974.42, 0.00, 0.00, 0.00
33, 96144.70, 127632.01, 22177.58, 18773.59, 8944.12, 29593.80, 107898.20, 71972.08, 0.00, 0.00, 0.00
34, 96144.57, 127647.77, 22165.44, 18770.19, 8934.30, 29592.77, 107899.76, 71973.04, 0.00, 0.00, 0.00
35, 96149.73, 127601.61, 22162.47, 18769.41, 8921.94, 29594.00, 107893.05, 71978.98, 0.00, 0.00, 0.00
36, 96143.66, 127608.77, 22161.73, 18763.24, 8955.29, 29595.01, 107874.14, 71970.07, 0.00, 0.00, 0.00
37, 96145.04, 127659.66, 22170.70, 18768.69, 8957.80, 29598.16, 107881.59, 71967.30, 0.00, 0.00, 0.00
38, 96154.50, 127729.91, 22175.81, 18772.87, 8948.72, 29599.30, 107898.46, 71975.16, 0.00, 0.00, 0.00
39, 96139.99, 127592.13, 22146.67, 18756.35, 8926.82, 29590.78, 107887.64, 71963.48, 0.07, -0.19, 0.98
40, 96151.63, 127584.34, 22153.73, 18762.41, 8940.65, 29604.17, 107911.45, 71976.66, 0.00, 0.00, 0.00
41, 96161.41, 127595.69, 22160.17, 18774.66, 8957.24, 29608.71, 107918.11, 71987.21, 0.00, 0.00, 0.00
42, 96159.17, 127640.75, 22164.84, 18779.51, 8953.06, 29611.84, 107883.46, 71980.75, 0.00, 0.00, 0.00
43, 96147.16, 127612.50, 22162.16, 18774.77, 8950.96, 29609.38, 107870.45, 71965.66, 0.00, 0.00, 0.00
44, 96149.71, 127592.00, 22164.77, 18774.77, 8961.44, 29613.00, 107883.15, 71965.66, 0.00, 0.00, 0.00
45, 96161.65, 127685.81, 22167.99, 18779.44, 8972.91, 29636.36, 107890.95, 71976.28, 0.00, 0.00, 0.00
46, 96154.77, 127649.22, 22179.14, 18780.65, 8981.71, 29647.31, 107920.39, 71975.92, 0.00, 0.00, 0.00
47, 96145.20, 127577.85, 22179.75, 18771.38, 8963.18, 29601.60, 107898.64, 71971.34, 0.00, 0.00, 0.00
48, 96154.01, 127577.13, 22143.56, 18773.95, 8951.23, 29590.38, 107900.90, 71973.82, 0.00, 0.00, 0.00
49, 96159.50, 127636.57, 22149.01, 18784.54, 8950.53, 29595.38, 107879.48, 71975.61, 0.08, -0.20, 0.98
50, 96163.52, 127645.00, 22160.66, 18783.60, 8955.92, 29600.50, 107876.31, 71978.18, 0.00, 0.00, 0.00
51, 96158.20, 127595.82, 22159.38, 18778.59, 8943.31, 29594.24, 107878.57, 71971.90, 0.00, 0.00, 0.00
52, 96159.95, 127643.03, 22163.86, 18782.75, 8954.82, 29596.23, 107888.31, 71978.88, 0.00, 0.00, 0.00
53, 96141.58, 127654.88, 22164.06, 18777.52, 8959.90, 29598.20, 107887.75, 71963.70, 0.00, 0.00, 0.00
54, 96150.59, 127646.67, 22188.11, 18794.04, 8965.28, 29617.02, 107897.19, 71974.65, 0.00, 0.00, 0.00
55, 96153.83, 127649.40, 22187.75, 18797.57, 8964.73, 29605.80, 107896.07, 71974.56, 0.00, 0.00, 0.00
56, 96151.37, 127633.35, 22179.43, 18795.00, 8966.67, 29598.98, 107882.10, 71969.06, 0.00, 0.00, 0.00
57, 96150.92, 127664.13, 22178.56, 18791.56, 8964.52, 29604.35, 107882.61, 71967.70, 0.00, 0.00, 0.00
58, 96154.01, 127630.02, 22180.46, 18789.63, 8949.03, 29599.25, 107887.02, 71968.44, 0.00, 0.00, 0.00
59, 96153.76, 127594.19, 22184.75, 18788.85, 8956.63, 29631.13, 107901.79, 71971.05, 0.08, -0.19, 0.98
60, 96155.77, 127643.88, 22188.60, 18797.44, 8959.83, 29659.13, 107910.55, 71978.29, 0.00, 0.00, 0.00
61, 96162.66, 127682.86, 22190.10, 18796.32, 8965.46, 29595.03, 107899.69, 71984.38, 0.00, 0.00, 0.00
62, 96165.09, 127678.70, 22190.10, 18800.52, 8963.90, 29591.70, 107912.20, 71988.06, 0.00, 0.00, 0.00
63, 96167.02, 127696.52, 22174.61, 18789.79, 8955.70, 29599.39, 107901.88, 71992.09, 0.00, 0.00, 0.00
64, 96164.06, 127634.34, 22169.64, 18786.89, 8958.56, 29605.55, 107891.48, 71989.11, 0.00, 0.00, 0.00
65, 96167.23, 127687.66, 22188.13, 18798.91, 8967.81, 29619.66, 107900.43, 71990.81, 0.00, 0.00, 0.00
66, 96162.59, 127587.46, 22185.02, 18791.02, 8964.08, 29618.25, 107888.47, 71982.67, 0.00, 0.00, 0.00
67, 96168.89, 127548.75, 22167.52, 18783.62, 8954.89, 29610.94, 107887.20, 71984.55, 0.00, 0.00, 0.00
68, 96170.21, 127605.39, 22163.30, 18773.86, 8944.21, 29626.12, 107906.06, 71983.30, 0.00, 0.00, 0.00
69, 96184.60, 127658.16, 22183.35, 18788.83, 8974.43, 29636.71, 107922.94, 72004.33, 0.09, -0.19, 0.98
70, 96180.29, 127681.61, 22176.04, 18786.89, 8976.21, 29625.54, 107911.78, 72003.91, 0.00, 0.00, 0.00
71, 96165.96, 127638.80, 22169.55, 18780.99, 8965.93, 29625.47, 107910.89, 71990.07, 0.00, 0.00, 0.00
72, 96175.62, 127682.97, 22178.47, 18787.27, 8969.80, 29629.14, 107902.71, 71998.12, 0.00, 0.00, 0.00
73, 96173.16, 127746.85, 22187.71, 18791.00, 8991.97, 29626.74, 107921.55, 71997.96, 0.00, 0.00, 0.00
74, 96170.26, 127712.12, 22184.02, 18788.18, 8978.14, 29626.77, 107915.94, 71998.72, 0.00, 0.00, 0.00
75, 96179.59, 127612.68, 22178.92, 18786.10, 8968.46, 29620.78, 107896.49, 72007.51, 0.00, 0.00, 0.00
76, 96184.25, 127583.48, 22171.12, 18782.37, 8964.61, 29617.02, 107890.68, 72005.31, 0.00, 0.00, 0.00
77, 96181.32, 127590.75, 22175.37, 18785.43, 8965.87, 29630.12, 107914.62, 71997.63, 0.00, 0.00, 0.00
78, 96181.54, 127634.24, 22180.15, 18784.03, 8971.14, 29621.11, 107903.80, 71998.95, 0.00, 0.00, 0.00
79, 96177.45, 127662.63, 22171.01, 18780.14, 8963.47, 29611.93, 107889.27, 71998.19, 0.08, -0.20, 0.97
80, 96152.75, 127641.80, 22158.78, 18760.11, 8946.31, 29590.89, 107866.45, 71974.49, 0.00, 0.00, 0.00
81, 96144.51, 127604.25, 22161.89, 18769.12, 8946.02, 29591.56, 107872.60, 71964.03, 0.00, 0.00, 0.00
82, 96162.48, 127638.49, 22158.49, 18777.10, 8956.14, 29602.67, 107895.13, 71978.65, 0.00, 0.00, 0.00
83, 96165.20, 127682.28, 22162.78, 18777.65, 8948.30, 29599.27, 107903.69, 71986.83, 0.00, 0.00, 0.00
84, 96163.66, 127696.63, 22167.32, 18776.65, 8946.64, 29599.86, 107893.30, 71987.91, 0.00, 0.00, 0.00
85, 96169.14, 127684.29, 22180.06, 18787.15, 8962.63, 29613.00, 107896.13, 71988.80, 0.00, 0.00, 0.00
86, 96167.88, 127652.95, 22176.75, 18784.49, 8964.19, 29610.00, 107884.05, 71980.30, 0.00, 0.00, 0.00
87, 96169.16, 127581.96, 22173.76, 18773.52, 8955.29, 29608.82, 107899.04, 71975.37, 0.00, 0.00, 0.00
88, 96173.52, 127600.38, 22197.32, 18788.54, 8958.62, 29649.21, 107886.52, 71984.22, 0.00, 0.00, 0.00
89, 96168.58, 127626.84, 22166.25, 18782.71, 8953.30, 29614.09, 107861.02, 71987.32, 0.08, -0.20, 0.98
90, 96158.30, 127681.45, 22156.81, 18772.09, 8945.70, 29565.54, 107882.08, 71983.09, 0.00, 0.00, 0.00
91, 96171.98, 127640.70, 22159.05, 18780.79, 8953.95, 29587.61, 107884.31, 71994.56, 0.00, 0.00, 0.00
92, 96182.19, 127661.18, 22158.98, 18790.64, 8952.01, 29604.44, 107892.65, 71998.95, 0.00, 0.00, 0.00
93, 96178.62, 127757.16, 22166.85, 18783.89, 8957.04, 29604.37, 107889.12, 71991.28, 0.00, 0.00, 0.00
94, 96178.03, 127571.70, 22165.17, 18782.21, 8978.16, 29613.49, 107883.24, 71996.04, 0.00, 0.00, 0.00
95, 96177.16, 127556.06, 22165.11, 18785.01, 8967.36, 29618.14, 107908.09, 72005.38, 0.00, 0.00, 0.00
96, 96182.81, 127621.66, 22170.49, 18789.68, 8979.39, 29631.15, 107921.57, 72013.01, 0.00, 0.00, 0.00
97, 96189.68, 127702.95, 22183.99, 18797.59, 9000.18, 29645.36, 107916.09, 72017.79, 0.00, 0.00, 0.00
98, 96182.13, 127704.07, 22186.68, 18788.41, 8997.83, 29642.57, 107909.21, 72005.38, 0.00, 0.00, 0.00
99, 96175.66, 127620.97, 22170.00, 18771.96, 8974.47, 29624.64, 107891.94, 71993.73, 0.08, -0.20, 0.98
100, 96180.98, 127611.40, 22171.16, 18781.68, 8974.49, 29626.07, 107885.43, 72000.73, 0.00, 0.00, 0.00
101, 96188.74, 127651.66, 22181.11, 18790.20, 8987.28, 29630.30, 107888.76, 72004.66, 0.00, 0.00, 0.00
102, 96190.23, 127708.92, 22180.35, 18791.67, 8990.68, 29623.41, 107890.10, 72001.09, 0.00, 0.00, 0.00
103, 96187.89, 127721.40, 22179.72, 18784.34, 8975.97, 29620.89, 107897.41, 72001.34, 0.00, 0.00, 0.00
104, 96172.27, 127653.52, 22180.62, 18788.27, 8969.42, 29619.10, 107907.54, 71995.86, 0.00, 0.00, 0.00
105, 96174.57, 127708.72, 22193.67, 18803.14, 8978.56, 29625.52, 107915.60, 72003.28, 0.00, 0.00, 0.00
106, 96178.66, 127688.13, 22191.28, 18798.26, 8976.97, 29625.63, 107913.46, 72006.34, 0.00, 0.00, 0.00
107, 96176.16, 127662.63, 22192.35, 18793.21, 8975.25, 29626.41, 107904.20, 72001.29, 0.00, 0.00, 0.00
108, 96176.16, 127699.02, 22198.16, 18796.39, 8976.93, 29624.96, 107916.07, 72006.86, 0.08, -0.20, 0.98
109, 96157.56, 127623.30, 22177.62, 18785.90, 8953.06, 29614.45, 107910.20, 71992.69, 0.00, 0.00, 0.00
110, 96163.93, 127649.34, 22183.14, 18784.94, 8954.06, 29625.67, 107910.13, 72001.70, 0.00, 0.00, 0.00
111, 96182.95, 127668.53, 22196.02, 18796.72, 9007.24, 29645.68, 107900.20, 72013.43, 0.00, 0.00, 0.00
112, 96176.54, 127641.06, 22178.74, 18788.50, 8986.72, 29618.59, 107901.27, 71996.55, 0.00, 0.00, 0.00
113, 96176.55, 127633.62, 22180.15, 18783.42, 8977.40, 29621.29, 107884.40, 71991.01, 0.00, 0.00, 0.00
114, 96180.88, 127651.19, 22215.71, 18796.72, 8979.79, 29621.74, 107884.27, 71997.07, 0.00, 0.00, 0.00
115, 96173.00, 127680.18, 22209.74, 18799.98, 8981.67, 29640.63, 107895.09, 71993.78, 0.00, 0.00, 0.00
116, 96178.97, 127747.03, 22199.13, 18805.44, 9005.32, 29644.96, 107922.55, 71999.23, 0.00, 0.00, 0.00
117, 96181.25, 127699.29, 22169.76, 18794.15, 8993.09, 29628.31, 107915.11, 72002.77, 0.00, 0.00, 0.00
118, 96179.40, 127653.24, 22174.34, 18793.97, 8983.52, 29622.43, 107909.93, 72004.29, 0.09, -0.20, 0.98
119, 96186.15, 127651.26, 22189.22, 18799.87, 8974.11, 29640.89, 107908.95, 72007.70, 0.00, 0.00, 0.00
120, 96181.77, 127666.21, 22185.94, 18795.56, 8975.72, 29649.50, 107885.85, 71998.03, 0.00, 0.00, 0.00
121, 96180.20, 127705.41, 22177.87, 18786.93, 8990.34, 29620.66, 107901.57, 71993.85, 0.00, 0.00, 0.00
122, 96176.18, 127634.80, 22170.94, 18771.53, 8975.63, 29603.50, 107902.02, 71990.23, 0.00, 0.00, 0.00
123, 96191.20, 127686.08, 22184.55, 18780.81, 8979.77, 29620.04, 107909.99, 72006.50, 0.00, 0.00, 0.00
124, 96186.28, 127696.92, 22187.59, 18780.40, 8974.36, 29619.88, 107903.11, 72001.36, 0.00, 0.00, 0.00
125, 96176.22, 127673.20, 22175.19, 18774.48, 8961.48, 29599.05, 107877.88, 71994.34, 0.00, 0.00, 0.00
126, 96177.16, 127613.62, 22170.56, 18778.68, 8974.83, 29610.16, 107866.25, 71993.76, 0.00, 0.00, 0.00
127, 96183.24, 127628.52, 22187.82, 18781.50, 8976.37, 29630.14, 107900.23, 72006.45, 0.00, 0.00, 0.00
128, 96186.95, 127691.17, 22212.65, 18784.52, 8969.38, 29637.14, 107899.04, 72011.22, 0.08, -0.19, 0.98
129, 96184.31, 127695.87, 22186.18, 18773.68, 8986.74, 29618.14, 107885.27, 72004.60, 0.00, 0.00, 0.00
130, 96192.36, 127738.23, 22176.84, 18776.61, 8978.32, 29615.46, 107890.03, 72007.55, 0.00, 0.00, 0.00
131, 96196.92, 127769.45, 22187.10, 18780.25, 8990.01, 29615.86, 107903.53, 72009.02, 0.00, 0.00, 0.00
132, 96186.66, 127723.25, 22185.31, 18777.39, 8968.26, 29604.71, 107920.84, 72006.16, 0.00, 0.00, 0.00
133, 96160.20, 127643.34, 22163.61, 18762.46, 8958.42, 29600.44, 107899.20, 71992.93, 0.00, 0.00, 0.00
134, 96165.27, 127587.35, 22162.63, 18769.07, 8975.48, 29611.93, 107884.54, 71993.73, 0.00, 0.00, 0.00
135, 96171.64, 127612.84, 22174.45, 18777.90, 8977.67, 29620.33, 107888.91, 71993.52, 0.00, 0.00, 0.00
136, 96176.94, 127649.89, 22184.87, 18785.21, 8985.85, 29625.07, 107894.73, 72000.27, 0.00, 0.00, 0.00
137, 96170.61, 127687.87, 22184.02, 18780.45, 8979.46, 29616.24, 107887.15, 71993.02, 0.00, 0.00, 0.00
138, 96167.77, 127709.33, 22183.17, 18773.14, 8962.45, 29607.41, 107884.36, 71990.14, 0.08, -0.20, 0.98
139, 96179.20, 127734.11, 22211.89, 18790.06, 8980.44, 29631.26, 107907.91, 72002.66, 0.00, 0.00, 0.00
140, 96172.04, 127707.94, 22205.70, 18789.28, 8983.23, 29632.96, 107913.39, 71999.80, 0.00, 0.00, 0.00
141, 96172.94, 127661.34, 22197.81, 18783.02, 8981.71, 29635.24, 107896.54, 71998.45, 0.00, 0.00, 0.00
142, 96184.20, 127719.90, 22203.31, 18785.41, 8994.21, 29641.72, 107916.66, 72008.69, 0.00, 0.00, 0.00
143, 96185.74, 127698.38, 22198.25, 18787.31, 8992.04, 29642.48, 107942.41, 72011.30, 0.00, 0.00, 0.00
144, 96174.66, 127643.05, 22188.44, 18777.25, 8976.64, 29610.63, 107912.43, 71999.19, 0.00, 0.00, 0.00
145, 96180.09, 127675.10, 22200.49, 18787.15, 8988.37, 29627.44, 107894.91, 72001.65, 0.00, 0.00, 0.00
146, 96187.69, 127676.45, 22205.54, 18792.29, 8997.74, 29631.64, 107907.36, 72008.29, 0.00, 0.00, 0.00
147, 96183.71, 127665.76, 22194.79, 18782.26, 8976.21, 29622.61, 107896.56, 72000.64, 0.00, 0.00, 0.00
148, 96184.31, 127677.54, 22203.08, 18789.52, 8970.40, 29623.48, 107892.80, 72002.66, 0.08, -0.19, 0.99
149, 96180.78, 127702.42, 22210.46, 18787.04, 8997.52, 29628.35, 107893.37, 72001.85, 0.00, 0.00, 0.00
150, 96177.34, 127685.66, 22212.67, 18788.56, 8980.62, 29622.05, 107896.13, 71999.44, 0.00, 0.00, 0.00
151, 96178.66, 127687.35, 22200.20, 18787.58, 8994.36, 29621.51, 107903.71, 72000.63, 0.00, 0.00, 0.00
152, 96185.88, 127744.59, 22187.55, 18780.47, 9000.22, 29621.40, 107905.45, 72006.21, 0.00, 0.00, 0.00
153, 96187.80, 127707.98, 22190.30, 18777.48, 8990.43, 29623.86, 107902.02, 72007.39, 0.00, 0.00, 0.00
154, 96192.85, 127701.01, 22198.59, 18781.63, 8987.23, 29636.60, 107909.01, 72011.38, 0.00, 0.00, 0.00
155, 96194.84, 127697.52, 22197.67, 18777.57, 8983.90, 29627.39, 107910.33, 72009.90, 0.00, 0.00, 0.00
156, 96191.24, 127663.13, 22192.91, 18772.96, 8983.23, 29626.86, 107904.90, 72006.23, 0.00, 0.00, 0.00
157, 96174.93, 127674.23, 22190.32, 18772.58, 8984.84, 29624.89, 107907.22, 71997.05, 0.00, 0.00, 0.00
158, 96186.70, 127726.42, 22199.89, 18784.70, 8989.74, 29626.77, 107929.28, 72010.99, 0.08, -0.20, 0.98
159, 96185.39, 127678.30, 22184.93, 18771.78, 8976.97, 29612.17, 107906.02, 72007.55, 0.00, 0.00, 0.00
160, 96195.09, 127728.97, 22188.44, 18769.85, 8986.38, 29623.30, 107897.77, 72018.28, 0.00, 0.00, 0.00
161, 96194.41, 127758.41, 22204.07, 18786.89, 8990.41, 29625.69, 107906.44, 72018.57, 0.00, 0.00, 0.00
162, 96183.78, 127638.73, 22201.58, 18784.21, 8984.98, 29626.59, 107901.43, 72006.37, 0.00, 0.00, 0.00
163, 96186.23, 127597.92, 22202.61, 18783.82, 8984.95, 29632.89, 107905.30, 72007.66, 0.00, 0.00, 0.00
164, 96193.61, 127648.59, 22221.08, 18793.46, 8980.28, 29628.71, 107917.59, 72010.52, 0.00, 0.00, 0.00
165, 96191.47, 127714.48, 22201.94, 18787.45, 8993.40, 29637.21, 107922.04, 72012.22, 0.00, 0.00, 0.00
166, 96195.18, 127770.70, 22204.65, 18791.76, 9002.25, 29645.83, 107928.86, 72016.73, 0.00, 0.00, 0.00
167, 96191.16, 127735.14, 22201.45, 18788.16, 8966.76, 29635.01, 107918.22, 72012.22, 0.00, 0.00, 0.00
168, 96184.31, 127658.84, 22190.92, 18784.00, 8961.51, 29623.39, 107920.92, 72013.49, 0.08, -0.20, 0.98
169, 96193.19, 127687.30, 22198.75, 18788.21, 9020.34, 29630.72, 107946.94, 72026.57, 0.00, 0.00, 0.00
170, 96196.00, 127733.27, 22205.99, 18788.61, 9003.17, 29626.30, 107912.01, 72028.00, 0.00, 0.00, 0.00
171, 96186.99, 127702.91, 22199.55, 18780.96, 8990.83, 29619.59, 107891.40, 72015.24, 0.00, 0.00, 0.00
172, 96192.30, 127731.97, 22227.71, 18794.87, 9001.56, 29625.63, 107918.11, 72017.30, 0.00, 0.00, 0.00
173, 96185.21, 127671.64, 22207.22, 18782.95, 8979.34, 29605.96, 107914.77, 72004.00, 0.00, 0.00, 0.00
174, 96188.59, 127670.61, 22188.67, 18779.51, 8981.94, 29622.86, 107905.19, 72011.17, 0.00, 0.00, 0.00
175, 96189.68, 127733.46, 22197.27, 18794.33, 9002.01, 29631.26, 107923.07, 72014.62, 0.00, 0.00, 0.00
176, 96186.57, 127767.51, 22196.35, 18789.10, 8991.21, 29619.01, 107918.94, 72011.59, 0.00, 0.00, 0.00
177, 96167.73, 127632.88, 22185.29, 18763.91, 8966.51, 29599.61, 107892.27, 71995.81, 0.00, 0.00, 0.00
178, 96172.38, 127577.61, 22188.49, 18767.02, 8966.47, 29602.27, 107914.30, 72004.71, 0.07, -0.20, 0.98
179, 96174.81, 127627.52, 22174.07, 18764.36, 8971.16, 29613.13, 107912.41, 72004.91, 0.00, 0.00, 0.00
180, 96176.09, 127697.88, 22190.48, 18769.32, 8973.35, 29613.54, 107886.48, 72004.45, 0.00, 0.00, 0.00
181, 96172.96, 127711.05, 22186.81, 18766.14, 8973.91, 29612.95, 107888.34, 71997.42, 0.00, 0.00, 0.00
182, 96174.28, 127691.58, 22187.71, 18767.46, 8977.20, 29606.40, 107895.17, 71996.87, 0.00, 0.00, 0.00
183, 96182.37, 127709.77, 22200.20, 18779.76, 8980.17, 29614.12, 107911.89, 72005.18, 0.00, 0.00, 0.00
184, 96180.63, 127692.23, 22193.83, 18778.57, 8982.63, 29620.40, 107911.80, 72004.65, 0.00, 0.00, 0.00
185, 96187.29, 127739.92, 22203.08, 18785.77, 8988.46, 29621.89, 107927.14, 72017.07, 0.00, 0.00, 0.00
186, 96181.30, 127676.06, 22201.18, 18780.87, 8990.30, 29624.15, 107912.56, 72014.93, 0.00, 0.00, 0.00
187, 96187.98, 127684.60, 22205.61, 18783.64, 8995.12, 29639.04, 107924.99, 72018.80, 0.00, 0.00, 0.00
188, 96191.47, 127816.81, 22214.12, 18784.05, 8979.86, 29636.06, 107932.59, 72018.68, 0.07, -0.20, 0.98
189, 96179.62, 127772.42, 22215.51, 18772.20, 8964.46, 29619.37, 107916.77, 72004.76, 0.00, 0.00, 0.00
190, 96176.98, 127607.20, 22202.52, 18782.37, 8997.11, 29619.28, 107892.18, 72005.12, 0.00, 0.00, 0.00
191, 96181.07, 127609.48, 22191.41, 18779.11, 9015.71, 29638.59, 107897.56, 72013.16, 0.00, 0.00, 0.00
192, 96184.29, 127645.58, 22194.07, 18784.05, 9017.43, 29645.50, 107918.89, 72016.94, 0.00, 0.00, 0.00
193, 96193.10, 127737.66, 22205.81, 18790.89, 9015.06, 29651.71, 107928.59, 72016.23, 0.00, 0.00, 0.00
194, 96190.15, 127785.52, 22220.40, 18794.15, 9005.54, 29648.78, 107919.78, 72010.30, 0.00, 0.00, 0.00
195, 96176.76, 127662.52, 22218.28, 18782.21, 9002.79, 29639.48, 107905.16, 72001.98, 0.00, 0.00, 0.00
196, 96171.64, 127631.72, 22195.86, 18778.53, 8998.83, 29636.98, 107912.45, 72004.58, 0.00, 0.00, 0.00
197, 96176.60, 127666.55, 22181.94, 18784.70, 9004.22, 29641.43, 107903.60, 72014.68, 0.00, 0.00, 0.00
198, 96187.53, 127710.89, 22193.09, 18784.03, 9000.80, 29633.99, 107919.16, 72025.88, 0.08, -0.20, 0.98
199, 96192.95, 127708.45, 22192.49, 18775.87, 8990.21, 29627.66, 107931.45, 72025.37, 0.00, 0.00, 0.00
200, 96195.89, 127680.94, 22200.27, 18776.89, 8995.24, 29630.23, 107907.29, 72019.53, 0.00, 0.00, 0.00
201, 96199.70, 127682.32, 22206.66, 18777.86, 8996.26, 29651.55, 107916.07, 72020.05, 0.00, 0.00, 0.00
202, 96196.16, 127716.32, 22207.24, 18779.51, 9003.51, 29651.11, 107923.12, 72020.38, 0.00, 0.00, 0.00
203, 96195.78, 127709.95, 22198.97, 18776.45, 8981.89, 29598.80, 107910.58, 72019.11, 0.00, 0.00, 0.00
204, 96195.96, 127678.73, 22202.01, 18774.50, 8972.84, 29597.44, 107891.22, 72019.84, 0.00, 0.00, 0.00
205, 96198.58, 127722.89, 22221.66, 18780.94, 8980.55, 29608.84, 107898.69, 72024.98, 0.00, 0.00, 0.00
206, 96191.00, 127739.05, 22208.42, 18782.19, 8988.82, 29613.11, 107905.37, 72019.24, 0.00, 0.00, 0.00
207, 96199.36, 127799.13, 22214.75, 18788.96, 8996.60, 29623.23, 107918.17, 72024.65, 0.00, 0.00, 0.00
208, 96182.98, 127735.81, 22201.85, 18772.98, 8968.82, 29609.33, 107901.79, 72012.36, 0.07, -0.20, 0.98
209, 96175.44, 127622.20, 22185.58, 18766.32, 8959.83, 29613.58, 107885.12, 72006.79, 0.00, 0.00, 0.00
210, 96194.82, 127627.05, 22194.41, 18781.81, 8996.42, 29637.00, 107903.80, 72024.36, 0.00, 0.00, 0.00
211, 96198.13, 127688.70, 22209.50, 18785.66, 8982.52, 29617.38, 107908.85, 72021.52, 0.00, 0.00, 0.00
212, 96191.71, 127691.82, 22210.79, 18775.22, 8987.52, 29605.02, 107905.88, 72010.75, 0.00, 0.00, 0.00
213, 96190.69, 127699.34, 22206.37, 18776.43, 8987.48, 29615.93, 107913.86, 72012.42, 0.00, 0.00, 0.00
214, 96185.01, 127735.25, 22199.89, 18777.92, 8990.79, 29632.78, 107898.21, 72010.01, 0.00, 0.00, 0.00
215, 96188.80, 127730.45, 22203.69, 18776.89, 8996.62, 29649.05, 107906.93, 72010.12, 0.00, 0.00, 0.00
216, 96191.58, 127651.91, 22192.13, 18769.01, 8992.40, 29616.28, 107900.47, 72012.31, 0.00, 0.00, 0.00
217, 96193.66, 127644.82, 22194.99, 18777.23, 8991.79, 29611.39, 107892.56, 72016.16, 0.00, 0.00, 0.00
218, 96192.49, 127682.37, 22207.24, 18783.87, 8993.29, 29621.38, 107906.17, 72020.29, 0.08, -0.20, 0.99
219, 96193.05, 127707.02, 22223.69, 18797.95, 8994.16, 29626.19, 107931.54, 72021.37, 0.00, 0.00, 0.00
220, 96189.97, 127729.22, 22217.95, 18800.70, 8996.44, 29630.54, 107907.67, 72020.78, 0.00, 0.00, 0.00
221, 96193.88, 127758.37, 22207.78, 18790.57, 9003.91, 29643.84, 107906.77, 72025.81, 0.00, 0.00, 0.00
222, 96195.09, 127718.49, 22213.12, 18785.90, 9007.84, 29637.03, 107906.80, 72025.79, 0.00, 0.00, 0.00
223, 96191.82, 127680.49, 22203.73, 18781.92, 8994.52, 29619.79, 107897.55, 72020.54, 0.00, 0.00, 0.00
224, 96188.00, 127657.02, 22190.72, 18767.26, 8986.36, 29613.91, 107901.55, 72016.78, 0.00, 0.00, 0.00
225, 96187.66, 127673.52, 22190.59, 18769.01, 8986.70, 29618.21, 107911.45, 72019.55, 0.00, 0.00, 0.00
226, 96197.91, 127735.32, 22192.29, 18767.62, 8990.05, 29625.65, 107912.56, 72032.98, 0.00, 0.00, 0.00
227, 96200.01, 127665.20, 22182.59, 18762.08, 8990.18, 29624.87, 107912.27, 72031.02, 0.00, 0.00, 0.00
228, 96205.62, 127677.05, 22180.46, 18752.08, 8987.43, 29621.83, 107935.95, 72028.52, 0.08, -0.21, 0.99
229, 96219.56, 127740.28, 22206.70, 18773.92, 9002.99, 29640.83, 107953.85, 72044.50, 0.00, 0.00, 0.00
230, 96208.23, 127742.36, 22213.74, 18783.87, 8997.78, 29634.23, 107920.56, 72038.58, 0.00, 0.00, 0.00
231, 96195.38, 127703.45, 22202.10, 18775.93, 8986.09, 29619.84, 107899.09, 72026.46, 0.00, 0.00, 0.00
232, 96203.52, 127726.78, 22206.41, 18777.65, 8995.08, 29618.50, 107924.79, 72035.49, 0.00, 0.00, 0.00
233, 96206.02, 127645.91, 22197.38, 18768.85, 8978.43, 29614.47, 107924.30, 72036.79, 0.00, 0.00, 0.00
234, 96209.93, 127665.18, 22206.75, 18772.40, 8970.94, 29615.32, 107883.17, 72039.09, 0.00, 0.00, 0.00
235, 96210.58, 127758.41, 22216.02, 18779.80, 9006.95, 29614.36, 107894.02, 72041.39, 0.00, 0.00, 0.00
236, 96207.96, 127750.79, 22196.49, 18770.03, 9003.04, 29618.41, 107909.79, 72038.04, 0.00, 0.00, 0.00
237, 96221.77, 127724.14, 22224.18, 18794.75, 9010.84, 29639.40, 107941.84, 72052.16, 0.00, 0.00, 0.00
238, 96204.61, 127758.56, 22230.08, 18791.54, 9001.38, 29637.25, 107943.32, 72038.38, 0.09, -0.19, 0.99
239, 96202.11, 127666.74, 22196.91, 18774.26, 8994.50, 29632.11, 107917.68, 72034.95, 0.00, 0.00, 0.00
240, 96207.67, 127621.84, 22204.63, 18787.40, 9004.44, 29629.02, 107904.83, 72038.84, 0.00, 0.00, 0.00
241, 96204.20, 127662.74, 22210.73, 18790.53, 9001.25, 29626.88, 107921.93, 72033.92, 0.00, 0.00, 0.00
242, 96208.63, 127730.58, 22216.90, 18798.29, 9012.49, 29644.07, 107948.38, 72037.84, 0.00, 0.00, 0.00
243, 96204.43, 127679.51, 22220.18, 18795.07, 9015.15, 29649.61, 107915.54, 72034.15, 0.00, 0.00, 0.00
244, 96202.20, 127692.36, 22216.43, 18791.42, 9009.59, 29646.55, 107911.20, 72028.72, 0.00, 0.00, 0.00
245, 96211.05, 127721.95, 22218.06, 18787.96, 9006.10, 29655.53, 107919.34, 72036.67, 0.00, 0.00, 0.00
246, 96213.84, 127802.58, 22224.83, 18790.26, 9015.93, 29660.21, 107918.78, 72039.06, 0.00, 0.00, 0.00
247, 96204.84, 127789.81, 22224.12, 18796.14, 9028.14, 29648.22, 107943.70, 72032.27, 0.00, 0.00, 0.00
248, 96201.41, 127664.09, 22208.45, 18784.81, 9009.23, 29638.39, 107930.16, 72030.02, 0.09, -0.20, 0.98
249, 96205.44, 127657.94, 22205.70, 18784.94, 9000.02, 29632.69, 107914.35, 72033.10, 0.00, 0.00, 0.00
250, 96204.92, 127729.55, 22211.15, 18787.82, 9004.53, 29638.23, 107931.43, 72036.16, 0.00, 0.00, 0.00
251, 96211.20, 127737.73, 22216.45, 18789.05, 9018.55, 29644.83, 107936.77, 72044.38, 0.00, 0.00, 0.00
252, 96211.38, 127711.54, 22230.89, 18785.84, 9001.85, 29639.28, 107935.72, 72047.23, 0.00, 0.00, 0.00
253, 96199.76, 127657.58, 22223.24, 18785.21, 8972.79, 29621.25, 107940.39, 72036.56, 0.00, 0.00, 0.00
254, 96205.10, 127681.05, 22190.41, 18776.72, 8999.21, 29628.04, 107935.72, 72042.11, 0.00, 0.00, 0.00
255, 96211.25, 127719.12, 22199.28, 18775.20, 9022.26, 29630.72, 107924.99, 72049.15, 0.00, 0.00, 0.00
0, 96213.28, 127742.36, 22208.36, 18781.54, 9016.34, 29630.88, 107930.85, 72051.16, 0.00, 0.00, 0.00
1, 96225.71, 127834.25, 22224.18, 18792.59, 9018.46, 29641.18, 107949.80, 72064.62, 0.00, 0.00, 0.00
2, 96226.56, 127796.01, 22224.14, 18786.78, 9005.65, 29637.65, 107963.59, 72065.51, 0.09, -0.20, 0.98
3, 96209.35, 127637.98, 22202.14, 18769.81, 8989.36, 29622.74, 107934.76, 72044.12, 0.00, 0.00, 0.00
4, 96218.65, 127666.45, 22214.41, 18778.73, 9000.53, 29631.55, 107938.88, 72051.67, 0.00, 0.00, 0.00
5, 96218.98, 127737.51, 22211.51, 18783.64, 9009.56, 29639.82, 107945.04, 72052.95, 0.00, 0.00, 0.00
6, 96216.34, 127715.77, 22216.67, 18778.46, 9001.63, 29634.57, 107940.57, 72052.59, 0.00, 0.00, 0.00
7, 96217.46, 127706.35, 22218.77, 18789.61, 9005.07, 29640.11, 107949.53, 72053.15, 0.00, 0.00, 0.00
8, 96216.70, 127713.59, 22216.29, 18793.01, 9008.40, 29650.73, 107944.88, 72052.73, 0.00, 0.00, 0.00
9, 96218.67, 127745.98, 22227.15, 18798.22, 9014.66, 29650.21, 107947.84, 72053.91, 0.00, 0.00, 0.00
10, 96215.88, 127845.98, 22241.73, 18808.81, 9027.78, 29657.14, 107955.41, 72052.39, 0.00, 0.00, 0.00
11, 96204.95, 127757.49, 22232.34, 18799.20, 9013.25, 29655.40, 107942.29, 72039.29, 0.00, 0.00, 0.00
12, 96205.95, 127614.84, 22212.85, 18791.92, 9004.76, 29652.25, 107937.93, 72037.70, 0.09, -0.20, 0.98
13, 96210.64, 127653.34, 22213.32, 18797.06, 9019.78, 29650.24, 107945.09, 72042.60, 0.00, 0.00, 0.00
14, 96207.18, 127694.39, 22248.61, 18799.69, 9026.55, 29648.65, 107940.66, 72040.45, 0.00, 0.00, 0.00
15, 96207.27, 127740.75, 22237.10, 18802.20, 9017.50, 29653.66, 107953.52, 72040.05, 0.00, 0.00, 0.00
16, 96212.66, 127768.29, 22216.47, 18787.38, 9025.72, 29656.61, 107945.31, 72047.13, 0.00, 0.00, 0.00
17, 96211.38, 127729.42, 22213.03, 18788.00, 9030.51, 29651.89, 107936.15, 72049.20, 0.00, 0.00, 0.00
18, 96216.16, 127706.20, 22201.09, 18777.99, 9007.93, 29637.63, 107939.90, 72052.27, 0.00, 0.00, 0.00
19, 96216.75, 127693.26, 22194.30, 18766.95, 8984.31, 29623.03, 107933.95, 72048.90, 0.00, 0.00, 0.00
20, 96212.90, 127702.04, 22196.85, 18761.56, 8984.57, 29624.15, 107937.77, 72050.60, 0.00, 0.00, 0.00
21, 96201.99, 127720.99, 22203.06, 18769.16, 9007.78, 29635.93, 107939.25, 72047.11, 0.00, 0.00, 0.00
22, 96194.04, 127720.52, 22204.09, 18766.46, 8995.71, 29635.93, 107935.85, 72036.72, 0.08, -0.20, 0.98
23, 96198.15, 127764.53, 22212.56, 18767.93, 8995.86, 29625.13, 107947.88, 72036.77, 0.00, 0.00, 0.00
24, 96202.53, 127745.20, 22209.63, 18765.14, 8991.91, 29626.77, 107947.74, 72035.53, 0.00, 0.00, 0.00
25, 96223.20, 127796.36, 22236.56, 18779.46, 9010.12, 29642.08, 107934.29, 72057.51, 0.00, 0.00, 0.00
26, 96211.34, 127720.79, 22240.95, 18778.57, 8994.63, 29631.35, 107918.11, 72050.98, 0.00, 0.00, 0.00
27, 96205.77, 127658.50, 22183.37, 18759.24, 8978.83, 29635.51, 107939.41, 72050.91, 0.00, 0.00, 0.00
28, 96205.33, 127649.22, 22174.90, 18753.52, 8992.42, 29621.00, 107936.28, 72053.38, 0.00, 0.00, 0.00
29, 96216.84, 127677.88, 22198.86, 18763.26, 8993.51, 29617.92, 107940.95, 72062.89, 0.00, 0.00, 0.00
30, 96226.76, 127775.95, 22231.00, 18777.90, 9005.36, 29637.76, 107957.55, 72068.03, 0.00, 0.00, 0.00
31, 96216.73, 127806.42, 22228.74, 18774.30, 8995.59, 29635.93, 107964.27, 72059.65, 0.00, 0.00, 0.00
32, 96206.94, 127669.90, 22208.98, 18765.65, 8997.83, 29631.21, 107945.20, 72051.77, 0.08, -0.20, 0.98
33, 96213.64, 127663.80, 22205.47, 18776.81, 9000.22, 29633.25, 107938.23, 72053.15, 0.00, 0.00, 0.00
34, 96220.32, 127718.18, 22204.92, 18781.63, 9009.65, 29644.80, 107930.96, 72055.12, 0.00, 0.00, 0.00
35, 96219.77, 127727.88, 22212.00, 18781.23, 8997.34, 29639.98, 107935.38, 72054.94, 0.00, 0.00, 0.00
36, 96217.93, 127691.55, 22211.13, 18776.18, 9018.88, 29638.84, 107936.37, 72056.99, 0.00, 0.00, 0.00
37, 96217.93, 127736.21, 22212.47, 18770.30, 9015.22, 29636.27, 107929.15, 72059.85, 0.00, 0.00, 0.00
38, 96217.41, 127676.42, 22205.70, 18759.75, 9000.85, 29628.49, 107927.20, 72060.48, 0.00, 0.00, 0.00
39, 96230.16, 127714.89, 22210.59, 18772.25, 9015.73, 29647.29, 107942.74, 72073.27, 0.00, 0.00, 0.00
40, 96230.38, 127799.72, 22227.60, 18778.01, 9017.50, 29653.19, 107938.76, 72075.63, 0.00, 0.00, 0.00
41, 96227.74, 127721.69, 22219.44, 18770.64, 9008.94, 29644.51, 107952.80, 72076.51, 0.00, 0.00, 0.00
42, 96220.03, 127623.74, 22199.66, 18752.69, 8986.45, 29625.09, 107945.04, 72066.31, 0.08, -0.20, 0.98
43, 96231.50, 127697.12, 22214.46, 18759.17, 8981.20, 29615.95, 107962.61, 72073.80, 0.00, 0.00, 0.00
44, 96246.25, 127833.87, 22229.59, 18773.07, 8998.72, 29629.34, 107958.25, 72087.03, 0.00, 0.00, 0.00
45, 96235.16, 127755.75, 22216.52, 18761.32, 8992.78, 29616.57, 107924.14, 72078.05, 0.00, 0.00, 0.00
46, 96227.27, 127636.26, 22197.76, 18755.13, 8985.58, 29617.60, 107926.53, 72067.38, 0.00, 0.00, 0.00
47, 96233.48, 127673.92, 22200.36, 18759.48, 9005.25, 29628.89, 107940.05, 72072.51, 0.00, 0.00, 0.00
48, 96236.28, 127714.87, 22214.48, 18762.84, 8998.10, 29626.79, 107953.67, 72081.34, 0.00, 0.00, 0.00
49, 96234.83, 127780.36, 22214.59, 18759.15, 8995.35, 29623.39, 107946.94, 72080.98, 0.00, 0.00, 0.00
50, 96253.27, 127800.92, 22226.66, 18769.65, 9017.30, 29641.38, 107956.71, 72091.46, 0.00, 0.00, 0.00
51, 96242.61, 127690.91, 22221.84, 18766.39, 9014.03, 29642.30, 107963.70, 72080.28, 0.00, 0.00, 0.00
52, 96232.19, 127630.71, 22219.22, 18762.86, 9003.91, 29630.12, 107941.69, 72078.00, 0.09, -0.20, 0.98
53, 96217.93, 127687.04, 22216.81, 18763.48, 9000.35, 29623.37, 107936.99, 72064.32, 0.00, 0.00, 0.00
54, 96222.52, 127709.44, 22227.02, 18774.19, 9010.88, 29631.80, 107931.90, 72061.75, 0.00, 0.00, 0.00
55, 96226.18, 127710.51, 22229.84, 18775.78, 9003.46, 29634.43, 107929.75, 72067.14, 0.00, 0.00, 0.00
56, 96224.57, 127766.70, 22249.66, 18785.21, 8992.06, 29641.45, 107934.63, 72063.79, 0.00, 0.00, 0.00
57, 96232.99, 127859.95, 22255.65, 18777.07, 9035.60, 29643.98, 107950.45, 72064.97, 0.00, 0.00, 0.00
58, 96223.45, 127753.07, 22228.99, 18761.45, 9015.22, 29629.34, 107942.12, 72051.13, 0.00, 0.00, 0.00
59, 96228.10, 127712.23, 22240.79, 18787.36, 9017.61, 29642.23, 107941.63, 72057.80, 0.00, 0.00, 0.00
60, 96222.89, 127659.59, 22220.96, 18781.34, 9021.45, 29635.98, 107948.55, 72053.08, 0.00, 0.00, 0.00
61, 96218.34, 127706.93, 22225.50, 18781.52, 9023.26, 29651.98, 107941.78, 72052.90, 0.00, 0.00, 0.00
62, 96218.20, 127741.09, 22235.63, 18790.15, 9030.75, 29674.80, 107951.12, 72060.48, 0.08, -0.20, 0.98
63, 96226.45, 127784.63, 22241.44, 18787.33, 9021.66, 29648.76, 107972.78, 72074.02, 0.00, 0.00, 0.00
64, 96223.50, 127734.36, 22236.61, 18775.49, 9008.16, 29630.52, 107948.15, 72067.77, 0.00, 0.00, 0.00
65, 96219.65, 127696.77, 22233.75, 18771.84, 8999.64, 29633.81, 107939.88, 72053.95, 0.00, 0.00, 0.00
66, 96217.53, 127710.91, 22215.60, 18765.05, 9018.71, 29634.86, 107937.42, 72051.61, 0.00, 0.00, 0.00
67, 96222.49, 127742.65, 22217.39, 18760.18, 9016.25, 29633.94, 107946.67, 72059.41, 0.00, 0.00, 0.00
68, 96228.95, 127788.25, 22230.55, 18768.71, 9005.85, 29630.12, 107956.04, 72063.19, 0.00, 0.00, 0.00
69, 96229.30, 127726.06, 22229.64, 18765.47, 9017.01, 29637.92, 107942.12, 72059.48, 0.00, 0.00, 0.00
70, 96227.25, 127806.16, 22233.41, 18766.50, 9013.88, 29634.84, 107946.05, 72058.91, 0.00, 0.00, 0.00
71, 96221.13, 127748.64, 22222.37, 18760.51, 9003.98, 29631.21, 107949.52, 72052.63, 0.00, 0.00, 0.00
72, 96218.34, 127678.10, 22215.40, 18755.55, 8996.71, 29623.41, 107927.59, 72050.24, 0.08, -0.20, 0.98
73, 96214.76, 127691.33, 22220.29, 18753.09, 8995.77, 29619.50, 107921.04, 72049.64, 0.00, 0.00, 0.00
74, 96209.91, 127737.51, 22232.92, 18752.42, 8995.01, 29616.62, 107931.27, 72049.21, 0.00, 0.00, 0.00
75, 96213.05, 127761.23, 22217.83, 18758.61, 8980.62, 29623.37, 107926.35, 72054.49, 0.00, 0.00, 0.00
76, 96217.46, 127722.96, 22204.96, 18755.06, 9010.79, 29625.98, 107932.50, 72061.84, 0.00, 0.00, 0.00
77, 96220.99, 127697.44, 22208.42, 18753.40, 9025.37, 29626.97, 107934.67, 72064.15, 0.00, 0.00, 0.00
78, 96219.54, 127682.77, 22209.94, 18752.24, 9011.08, 29626.34, 107929.51, 72060.21, 0.00, 0.00, 0.00
79, 96217.80, 127739.27, 22216.05, 18755.33, 9006.14, 29628.78, 107941.42, 72052.32, 0.00, 0.00, 0.00
80, 96229.76, 127763.33, 22231.83, 18764.15, 9017.21, 29639.71, 107961.13, 72063.34, 0.00, 0.00, 0.00
81, 96227.84, 127724.30, 22223.53, 18766.52, 9010.17, 29633.65, 107942.25, 72065.91, 0.00, 0.00, 0.00
82, 96224.73, 127707.31, 22222.69, 18768.42, 9005.83, 29641.16, 107924.86, 72070.27, 0.09, -0.20, 0.98
83, 96227.07, 127754.50, 22245.19, 18771.31, 9004.62, 29639.69, 107929.73, 72071.16, 0.00, 0.00, 0.00
84, 96228.70, 127701.37, 22236.99, 18771.91, 9019.98, 29640.45, 107936.66, 72069.09, 0.00, 0.00, 0.00
85, 96231.32, 127756.27, 22237.71, 18780.40, 9029.84, 29640.13, 107942.12, 72073.76, 0.00, 0.00, 0.00
86, 96226.40, 127757.36, 22234.13, 18777.01, 9024.76, 29634.41, 107941.29, 72069.13, 0.00, 0.00, 0.00
87, 96222.89, 127790.80, 22241.46, 18777.68, 9020.87, 29640.04, 107953.52, 72060.37, 0.00, 0.00, 0.00
88, 96225.20, 127780.60, 22243.25, 18777.99, 9017.77, 29639.37, 107970.19, 72061.26, 0.00, 0.00, 0.00
89, 96225.27, 127656.51, 22224.76, 18768.65, 9011.06, 29631.21, 107952.98, 72060.10, 0.00, 0.00, 0.00
90, 96230.25, 127688.52, 22231.83, 18769.16, 9027.04, 29651.96, 107935.43, 72066.78, 0.00, 0.00, 0.00
91, 96232.30, 127753.11, 22248.54, 18778.88, 9040.16, 29679.34, 107934.27, 72072.21, 0.00, 0.00, 0.00
92, 96226.47, 127764.83, 22247.38, 18775.78, 9019.15, 29649.99, 107940.80, 72068.17, 0.08, -0.20, 0.98
93, 96226.07, 127772.80, 22224.18, 18763.55, 9017.01, 29635.04, 107941.22, 72063.27, 0.00, 0.00, 0.00
94, 96225.46, 127738.96, 22205.21, 18760.89, 9015.98, 29624.06, 107943.12, 72062.63, 0.00, 0.00, 0.00
95, 96240.15, 127750.70, 22222.24, 18771.84, 9033.21, 29645.79, 107961.47, 72077.00, 0.00, 0.00, 0.00
96, 96237.53, 127733.35, 22229.77, 18771.13, 9027.82, 29648.43, 107972.89, 72072.73, 0.00, 0.00, 0.00
97, 96235.25, 127712.99, 22231.09, 18772.38, 9006.37, 29640.89, 107984.83, 72066.18, 0.00, 0.00, 0.00
98, 96241.69, 127706.30, 22223.65, 18766.55, 9017.79, 29636.36, 107995.16, 72070.05, 0.00, 0.00, 0.00
99, 96242.43, 127749.91, 22226.80, 18765.43, 9012.36, 29633.61, 107955.14, 72066.41, 0.00, 0.00, 0.00
100, 96243.95, 127815.67, 22240.03, 18771.33, 9031.40, 29644.51, 107968.71, 72070.91, 0.00, 0.00, 0.00
101, 96244.89, 127835.95, 22238.85, 18768.58, 9049.15, 29651.69, 107974.16, 72072.91, 0.00, 0.00, 0.00
102, 96234.88, 127735.27, 22228.23, 18761.58, 9035.31, 29647.42, 107970.84, 72068.91, 0.08, -0.20, 0.98
103, 96238.63, 127684.13, 22225.86, 18757.90, 9027.94, 29648.40, 107973.23, 72074.41, 0.00, 0.00, 0.00
104, 96243.44, 127699.24, 22230.71, 18764.71, 9032.41, 29653.41, 107984.29, 72078.14, 0.00, 0.00, 0.00
105, 96234.96, 127717.64, 22230.57, 18766.70, 9033.03, 29651.85, 107983.27, 72071.77, 0.00, 0.00, 0.00
106, 96235.16, 127720.86, 22243.74, 18774.26, 9035.22, 29656.20, 107996.63, 72074.38, 0.00, 0.00, 0.00
107, 96241.18, 127799.13, 22246.38, 18781.92, 9035.27, 29659.96, 108014.04, 72083.79, 0.00, 0.00, 0.00
108, 96241.38, 127836.87, 22237.01, 18775.31, 9027.82, 29645.56, 107995.13, 72084.26, 0.00, 0.00, 0.00
109, 96235.05, 127705.81, 22213.19, 18762.05, 9023.82, 29634.75, 107960.87, 72072.03, 0.00, 0.00, 0.00
110, 96228.26, 127700.90, 22216.45, 18766.70, 9035.56, 29638.75, 107971.75, 72065.44, 0.00, 0.00, 0.00
111, 96236.17, 127745.71, 22237.77, 18781.10, 9050.18, 29652.47, 107989.84, 72072.93, 0.00, 0.00, 0.00
112, 96241.16, 127849.27, 22253.06, 18789.86, 9053.08, 29660.00, 107987.40, 72080.04, 0.08, -0.20, 0.98
113, 96234.25, 127819.74, 22253.31, 18786.60, 9039.85, 29647.98, 107979.64, 72076.05, 0.00, 0.00, 0.00
114, 96227.92, 127699.67, 22232.03, 18770.01, 9028.94, 29641.36, 107981.92, 72068.30, 0.00, 0.00, 0.00
115, 96232.51, 127669.56, 22238.11, 18774.86, 9045.66, 29663.20, 107989.37, 72072.70, 0.00, 0.00, 0.00
116, 96237.45, 127718.16, 22239.98, 18777.61, 9035.87, 29644.47, 107986.15, 72078.59, 0.00, 0.00, 0.00
117, 96230.70, 127800.99, 22225.52, 18762.75, 9036.63, 29631.62, 107983.71, 72075.01, 0.00, 0.00, 0.00
118, 96234.59, 127861.14, 22230.51, 18772.27, 9022.37, 29631.84, 107986.62, 72083.86, 0.00, 0.00, 0.00
119, 96236.28, 127725.06, 22235.51, 18773.39, 9049.62, 29641.03, 107976.22, 72084.95, 0.00, 0.00, 0.00
120, 96235.48, 127689.90, 22225.66, 18772.45, 9062.04, 29654.88, 107975.55, 72085.22, 0.00, 0.00, 0.00
121, 96218.73, 127698.64, 22213.52, 18764.58, 9042.76, 29633.52, 107966.99, 72070.13, 0.00, 0.00, 0.00
122, 96212.14, 127694.75, 22208.54, 18753.74, 9023.80, 29607.41, 107972.22, 72063.70, 0.08, -0.20, 0.98
123, 96210.38, 127692.41, 22207.93, 18749.04, 9016.96, 29608.04, 107968.35, 72064.75, 0.00, 0.00, 0.00
124, 96213.10, 127722.36, 22196.24, 18743.52, 9013.32, 29609.62, 107955.55, 72065.91, 0.00, 0.00, 0.00
125, 96222.22, 127757.20, 22204.63, 18746.97, 9017.10, 29618.54, 107967.86, 72063.66, 0.00, 0.00, 0.00
126, 96212.70, 127803.91, 22213.25, 18748.91, 9012.87, 29617.69, 107961.11, 72053.88, 0.00, 0.00, 0.00
127, 96206.73, 127746.72, 22210.21, 18740.66, 9017.25, 29612.84, 107950.43, 72048.19, 0.00, 0.00, 0.00
128, 96213.46, 127719.23, 22203.13, 18735.12, 9017.05, 29612.80, 107948.33, 72051.94, 0.00, 0.00, 0.00
129, 96221.66, 127684.70, 22209.88, 18744.26, 9026.59, 29625.04, 107957.94, 72060.26, 0.00, 0.00, 0.00
130, 96225.15, 127763.26, 22214.73, 18758.43, 9033.30, 29638.59, 107983.51, 72068.48, 0.00, 0.00, 0.00
131, 96218.80, 127737.13, 22209.90, 18754.68, 9041.59, 29643.71, 107994.70, 72068.39, 0.00, 0.00, 0.00
132, 96215.41, 127690.55, 22209.54, 18754.99, 9039.00, 29631.28, 107963.80, 72061.75, 0.08, -0.20, 0.98
133, 96222.49, 127722.36, 22216.92, 18756.49, 9032.99, 29631.13, 107955.37, 72059.25, 0.00, 0.00, 0.00
134, 96223.05, 127790.06, 22235.65, 18760.36, 9042.13, 29644.54, 107970.16, 72059.70, 0.00, 0.00, 0.00
135, 96218.22, 127849.98, 22238.04, 18762.50, 9044.34, 29657.54, 107953.24, 72052.59, 0.00, 0.00, 0.00
136, 96219.70, 127783.98, 22230.26, 18772.71, 9037.64, 29649.14, 107962.79, 72053.26, 0.00, 0.00, 0.00
137, 96222.42, 127652.80, 22214.59, 18769.05, 9018.17, 29616.66, 107980.85, 72063.12, 0.00, 0.00, 0.00
138, 96221.59, 127657.88, 22208.67, 18764.29, 9041.19, 29614.38, 107976.09, 72068.34, 0.00, 0.00, 0.00
139, 96227.20, 127736.70, 22215.64, 18765.54, 9047.32, 29626.14, 107970.41, 72075.30, 0.00, 0.00, 0.00
140, 96226.63, 127771.15, 22219.33, 18757.79, 9045.37, 29628.13, 107976.34, 72072.86, 0.00, 0.00, 0.00
141, 96220.57, 127758.30, 22223.76, 18764.54, 9043.20, 29632.38, 107980.96, 72065.27, 0.00, 0.00, 0.00
142, 96227.14, 127778.37, 22221.08, 18762.54, 9029.43, 29632.11, 107976.83, 72079.55, 0.08, -0.20, 0.99
143, 96229.06, 127802.76, 22217.92, 18757.61, 9033.77, 29635.69, 107982.19, 72082.67, 0.00, 0.00, 0.00
144, 96219.92, 127714.09, 22208.33, 18748.42, 9035.16, 29631.15, 107961.58, 72065.77, 0.00, 0.00, 0.00
145, 96219.52, 127697.48, 22210.30, 18751.57, 9038.13, 29624.87, 107952.20, 72064.57, 0.00, 0.00, 0.00
146, 96224.57, 127781.59, 22217.54, 18759.55, 9040.70, 29628.00, 107982.19, 72070.45, 0.00, 0.00, 0.00
147, 96233.48, 127816.84, 22228.99, 18762.84, 9050.62, 29643.31, 107990.08, 72074.78, 0.00, 0.00, 0.00
148, 96226.05, 127744.38, 22212.34, 18751.15, 9034.89, 29630.23, 107967.44, 72063.07, 0.00, 0.00, 0.00
149, 96226.52, 127698.59, 22195.04, 18743.84, 9030.51, 29626.07, 107972.55, 72063.38, 0.00, 0.00, 0.00
150, 96215.49, 127693.05, 22192.58, 18737.13, 9018.35, 29617.16, 107965.13, 72054.83, 0.00, 0.00, 0.00
151, 96226.18, 127723.52, 22207.60, 18749.60, 9035.98, 29632.53, 107966.95, 72071.12, 0.00, 0.00, 0.00
152, 96232.08, 127789.99, 22215.40, 18753.76, 9052.93, 29640.36, 107981.48, 72084.46, 0.09, -0.20, 0.99
153, 96223.23, 127766.43, 22223.65, 18754.41, 9042.71, 29633.34, 107978.10, 72085.18, 0.00, 0.00, 0.00
154, 96229.38, 127800.81, 22231.49, 18764.45, 9040.77, 29640.85, 107981.50, 72093.38, 0.00, 0.00, 0.00
155, 96226.56, 127799.13, 22219.73, 18754.59, 9036.54, 29644.80, 107974.70, 72080.41, 0.00, 0.00, 0.00
156, 96222.42, 127725.13, 22208.98, 18750.07, 9069.02, 29660.23, 107985.95, 72067.25, 0.00, 0.00, 0.00
157, 96222.98, 127650.98, 22202.41, 18754.70, 9055.00, 29641.18, 107989.41, 72066.34, 0.00, 0.00, 0.00
158, 96227.61, 127701.13, 22213.48, 18768.56, 9056.61, 29642.32, 107973.14, 72066.60, 0.00, 0.00, 0.00
159, 96229.94, 127740.13, 22211.13, 18762.86, 9054.67, 29643.69, 107953.31, 72064.52, 0.00, 0.00, 0.00
160, 96235.43, 127764.24, 22222.77, 18772.85, 9064.10, 29650.55, 107952.66, 72072.73, 0.00, 0.00, 0.00
161, 96227.72, 127744.02, 22224.50, 18776.31, 9075.57, 29650.84, 107961.90, 72072.86, 0.00, 0.00, 0.00
162, 96226.36, 127787.87, 22232.79, 18775.33, 9071.39, 29658.15, 107973.30, 72073.27, 0.08, -0.21, 0.98
163, 96222.42, 127768.71, 22222.28, 18782.33, 9056.08, 29644.98, 107971.62, 72070.94, 0.00, 0.00, 0.00
164, 96228.34, 127805.93, 22235.98, 18790.84, 9062.25, 29637.92, 107983.02, 72079.19, 0.00, 0.00, 0.00
165, 96230.65, 127770.48, 22237.06, 18790.48, 9068.57, 29655.31, 107985.56, 72081.38, 0.00, 0.00, 0.00
166, 96235.03, 127799.18, 22236.83, 18788.59, 9054.22, 29642.23, 107977.95, 72081.73, 0.00, 0.00, 0.00
167, 96233.40, 127727.81, 22221.23, 18776.92, 9061.04, 29636.31, 107973.61, 72077.94, 0.00, 0.00, 0.00
168, 96232.64, 127745.16, 22223.73, 18773.45, 9071.41, 29636.65, 108001.23, 72076.15, 0.00, 0.00, 0.00
169, 96221.73, 127698.26, 22210.73, 18767.55, 9052.21, 29624.02, 107992.30, 72067.61, 0.00, 0.00, 0.00
170, 96239.43, 127806.94, 22226.62, 18776.98, 9061.55, 29632.33, 107956.40, 72091.13, 0.00, 0.00, 0.00
171, 96235.52, 127733.94, 22221.77, 18768.16, 9058.98, 29628.69, 107950.20, 72086.14, 0.00, 0.00, 0.00
172, 96234.49, 127711.45, 22225.70, 18765.21, 9052.81, 29630.46, 107962.14, 72074.20, 0.08, -0.20, 0.98
173, 96240.84, 127722.05, 22225.61, 18759.21, 9044.23, 29635.06, 107969.20, 72068.23, 0.00, 0.00, 0.00
174, 96254.50, 127782.59, 22211.87, 18763.08, 9049.98, 29652.22, 107977.45, 72085.20, 0.00, 0.00, 0.00
175, 96232.05, 127836.95, 22217.86, 18761.94, 9055.83, 29640.45, 107985.72, 72082.77, 0.00, 0.00, 0.00
176, 96218.83, 127736.77, 22200.67, 18745.07, 9042.82, 29615.39, 107966.66, 72076.75, 0.00, 0.00, 0.00
177, 96234.92, 127795.73, 22183.23, 18736.08, 9029.25, 29603.81, 107968.29, 72095.44, 0.00, 0.00, 0.00
178, 96222.67, 127781.74, 22183.35, 18734.54, 9007.51, 29599.79, 107955.84, 72075.45, 0.00, 0.00, 0.00
179, 96213.93, 127657.73, 22166.78, 18722.42, 8992.40, 29601.82, 107940.17, 72060.63, 0.00, 0.00, 0.00
180, 96242.59, 127720.86, 22197.70, 18747.37, 9062.58, 29635.91, 107969.85, 72091.39, 0.00, 0.00, 0.00
181, 96233.22, 127759.73, 22187.99, 18743.35, 9054.54, 29629.54, 107986.55, 72079.27, 0.00, 0.00, 0.00
182, 96229.66, 127713.93, 22185.25, 18744.15, 9028.79, 29621.78, 107981.25, 72069.27, 0.08, -0.20, 0.99
183, 96228.59, 127728.73, 22195.68, 18753.74, 9034.98, 29631.10, 107972.13, 72069.15, 0.00, 0.00, 0.00
184, 96228.57, 127744.33, 22206.95, 18764.96, 9066.29, 29645.03, 107970.30, 72076.38, 0.00, 0.00, 0.00
185, 96226.09, 127741.94, 22207.87, 18764.29, 9058.58, 29642.23, 107961.80, 72081.94, 0.00, 0.00, 0.00
186, 96224.08, 127761.52, 22211.33, 18762.95, 9054.65, 29639.66, 107952.06, 72073.80, 0.00, 0.00, 0.00
187, 96215.70, 127758.84, 22205.12, 18766.61, 9046.13, 29636.09, 107943.45, 72059.90, 0.00, 0.00, 0.00
188, 96221.77, 127777.03, 22207.98, 18775.58, 9044.50, 29641.21, 107950.20, 72068.28, 0.00, 0.00, 0.00
189, 96217.55, 127781.74, 22213.59, 18774.01, 9062.72, 29662.02, 107953.67, 72062.18, 0.00, 0.00, 0.00
190, 96204.95, 127750.85, 22197.09, 18758.57, 9051.38, 29632.58, 107953.52, 72047.41, 0.00, 0.00, 0.00
191, 96217.87, 127814.06, 22212.02, 18774.41, 9062.83, 29637.14, 107987.33, 72067.14, 0.00, 0.00, 0.00
192, 96210.71, 127754.95, 22206.37, 18763.69, 9053.95, 29635.98, 107957.73, 72065.80, 0.08, -0.20, 0.98
193, 96220.19, 127776.54, 22215.15, 18773.50, 9059.81, 29649.14, 107959.55, 72067.37, 0.00, 0.00, 0.00
194, 96219.97, 127746.14, 22186.27, 18755.15, 9046.47, 29645.07, 107947.55, 72057.88, 0.00, 0.00, 0.00
195, 96225.13, 127694.62, 22176.91, 18741.31, 9048.19, 29636.09, 107932.62, 72060.59, 0.00, 0.00, 0.00
196, 96231.32, 127703.23, 22185.58, 18752.02, 9047.45, 29629.96, 107951.95, 72076.23, 0.00, 0.00, 0.00
197, 96232.84, 127736.41, 22189.60, 18752.31, 9044.83, 29633.83, 107958.03, 72082.92, 0.00, 0.00, 0.00
198, 96238.63, 127825.42, 22197.79, 18752.51, 9044.45, 29638.12, 107969.12, 72090.43, 0.00, 0.00, 0.00
199, 96235.52, 127817.30, 22199.28, 18749.67, 9039.63, 29637.21, 107964.02, 72094.72, 0.00, 0.00, 0.00
200, 96226.02, 127769.01, 22192.64, 18746.65, 9021.90, 29630.43, 107954.43, 72082.81, 0.00, 0.00, 0.00
201, 96212.66, 127707.23, 22166.65, 18727.05, 9022.39, 29608.24, 107924.43, 72060.10, 0.00, 0.00, 0.00
202, 96231.16, 127667.37, 22164.03, 18734.74, 9034.58, 29613.04, 107937.77, 72074.25, 0.09, -0.20, 0.98
203, 96233.06, 127731.92, 22161.40, 18735.66, 9029.93, 29620.24, 107952.91, 72075.16, 0.00, 0.00, 0.00
204, 96233.11, 127760.63, 22162.38, 18738.92, 9051.58, 29624.62, 107954.25, 72072.95, 0.00, 0.00, 0.00
205, 96234.56, 127738.23, 22168.97, 18744.87, 9047.72, 29622.52, 107949.55, 72077.18, 0.00, 0.00, 0.00
206, 96237.11, 127816.03, 22184.98, 18753.72, 9046.33, 29627.64, 107945.58, 72086.12, 0.00, 0.00, 0.00
207, 96233.82, 127866.23, 22187.30, 18762.23, 9035.71, 29630.95, 107974.91, 72088.87, 0.00, 0.00, 0.00
208, 96225.73, 127745.36, 22171.01, 18749.96, 9038.67, 29637.81, 107954.70, 72089.60, 0.00, 0.00, 0.00
209, 96207.45, 127662.30, 22160.64, 18742.96, 9040.41, 29625.58, 107908.66, 72074.36, 0.00, 0.00, 0.00
210, 96222.60, 127708.45, 22168.33, 18762.84, 9050.18, 29633.74, 107929.33, 72077.18, 0.00, 0.00, 0.00
211, 96221.44, 127810.87, 22184.55, 18768.13, 9058.45, 29640.40, 107943.16, 72070.90, 0.09, -0.20, 0.98
212, 96210.76, 127831.39, 22182.12, 18768.09, 9054.20, 29645.63, 107943.73, 72061.59, 0.00, 0.00, 0.00
213, 96209.51, 127751.37, 22178.41, 18773.54, 9066.98, 29688.59, 107943.88, 72065.91, 0.00, 0.00, 0.00
214, 96209.03, 127680.38, 22176.53, 18774.03, 9072.57, 29669.57, 107964.82, 72067.59, 0.00, 0.00, 0.00
215, 96205.86, 127719.14, 22148.95, 18752.08, 9067.12, 29629.74, 107943.92, 72062.54, 0.00, 0.00, 0.00
216, 96216.84, 127770.21, 22163.34, 18763.22, 9069.96, 29634.70, 107924.45, 72072.84, 0.00, 0.00, 0.00
217, 96220.52, 127738.94, 22160.12, 18764.51, 9045.50, 29636.91, 107947.66, 72075.86, 0.00, 0.00, 0.00
218, 96227.32, 127737.13, 22156.50, 18755.37, 9032.59, 29636.09, 107952.28, 72081.63, 0.00, 0.00, 0.00
219, 96234.00, 127699.16, 22153.97, 18748.40, 9073.82, 29634.75, 107945.55, 72085.09, 0.00, 0.00, 0.00
220, 96227.41, 127721.98, 22145.06, 18739.08, 9049.57, 29619.77, 107931.54, 72079.01, 0.00, 0.00, 0.00
221, 96242.20, 127770.52, 22164.39, 18755.24, 9050.29, 29627.59, 107957.42, 72094.70, 0.09, -0.20, 0.98
222, 96236.26, 127780.18, 22162.29, 18747.39, 9051.47, 29637.52, 107955.79, 72095.82, 0.00, 0.00, 0.00
223, 96226.00, 127747.62, 22154.00, 18747.14, 9048.23, 29637.43, 107948.33, 72090.12, 0.00, 0.00, 0.00
224, 96221.28, 127741.20, 22157.44, 18748.93, 9045.71, 29642.01, 107950.30, 72082.23, 0.00, 0.00, 0.00
225, 96228.08, 127756.71, 22156.01, 18751.62, 9053.19, 29642.05, 107967.82, 72090.32, 0.00, 0.00, 0.00
226, 96232.41, 127830.43, 22166.85, 18756.22, 9057.33, 29642.90, 107969.63, 72099.08, 0.00, 0.00, 0.00
227, 96216.10, 127775.38, 22145.71, 18735.25, 9031.31, 29622.05, 107928.45, 72081.83, 0.00, 0.00, 0.00
228, 96218.38, 127760.29, 22150.00, 18738.05, 9028.67, 29622.83, 107925.59, 72081.06, 0.00, 0.00, 0.00
229, 96217.10, 127784.61, 22151.99, 18741.67, 9034.11, 29636.45, 107939.88, 72073.89, 0.00, 0.00, 0.00
230, 96210.64, 127705.97, 22135.76, 18730.18, 9028.94, 29619.10, 107930.49, 72068.44, 0.00, 0.00, 0.00
231, 96199.76, 127670.27, 22117.52, 18717.26, 9012.33, 29599.72, 107931.07, 72061.55, 0.08, -0.20, 0.98
232, 96218.29, 127793.70, 22152.68, 18744.93, 9029.10, 29621.80, 107963.55, 72080.10, 0.00, 0.00, 0.00
233, 96219.20, 127747.97, 22146.69, 18741.78, 9031.47, 29623.55, 107935.32, 72075.23, 0.00, 0.00, 0.00
234, 96216.97, 127727.63, 22144.52, 18739.41, 9037.55, 29623.26, 107908.97, 72069.89, 0.00, 0.00, 0.00
235, 96215.83, 127742.16, 22141.48, 18738.29, 9046.09, 29630.23, 107905.59, 72070.56, 0.00, 0.00, 0.00
236, 96211.47, 127725.30, 22150.49, 18751.79, 9050.47, 29645.19, 107930.06, 72074.65, 0.00, 0.00, 0.00
237, 96211.72, 127734.72, 22146.22, 18752.02, 9038.11, 29641.18, 107933.51, 72074.59, 0.00, 0.00, 0.00
238, 96217.64, 127802.29, 22143.07, 18743.68, 9046.40, 29637.07, 107918.78, 72072.80, 0.00, 0.00, 0.00
239, 96228.86, 127860.98, 22161.37, 18756.15, 9054.18, 29631.04, 107950.85, 72084.66, 0.00, 0.00, 0.00
240, 96219.14, 127759.95, 22150.64, 18754.97, 9040.03, 29630.21, 107952.02, 72080.64, 0.00, 0.00, 0.00
241, 96218.34, 127717.88, 22145.17, 18749.18, 9070.72, 29641.25, 107934.27, 72083.55, 0.09, -0.19, 0.98
242, 96225.40, 127744.87, 22143.60, 18748.78, 9057.02, 29638.93, 107942.41, 72092.94, 0.00, 0.00, 0.00
243, 96230.88, 127745.71, 22146.17, 18744.73, 9042.87, 29632.18, 107935.61, 72093.83, 0.00, 0.00, 0.00
244, 96221.53, 127693.21, 22134.89, 18737.00, 9039.38, 29634.05, 107915.58, 72078.92, 0.00, 0.00, 0.00
245, 96230.60, 127744.55, 22123.69, 18734.81, 9039.83, 29628.69, 107929.80, 72086.59, 0.00, 0.00, 0.00
246, 96236.44, 127765.38, 22131.67, 18733.00, 9044.50, 29630.79, 107951.01, 72099.35, 0.00, 0.00, 0.00
247, 96230.20, 127725.66, 22118.79, 18725.31, 9034.37, 29620.58, 107949.18, 72098.84, 0.00, 0.00, 0.00
248, 96230.23, 127725.55, 22113.18, 18728.93, 9030.86, 29621.60, 107943.56, 72098.27, 0.00, 0.00, 0.00
249, 96228.81, 127818.91, 22115.26, 18728.66, 9033.37, 29624.51, 107939.50, 72093.88, 0.00, 0.00, 0.00
250, 96250.92, 127912.28, 22137.93, 18746.50, 9050.40, 29649.90, 107974.44, 72116.41, 0.00, 0.00, 0.00
251, 96225.17, 127698.82, 22099.37, 18713.39, 9005.14, 29615.95, 107926.20, 72091.15, 0.08, -0.19, 0.98
252, 96236.95, 127631.85, 22098.90, 18714.76, 9030.98, 29620.29, 107928.57, 72100.45, 0.00, 0.00, 0.00
253, 96243.37, 127733.94, 22117.59, 18731.74, 9044.03, 29635.64, 107952.69, 72110.77, 0.00, 0.00, 0.00
254, 96238.74, 127775.11, 22130.42, 18736.80, 9041.57, 29640.63, 107949.96, 72109.32, 0.00, 0.00, 0.00
255, 96232.73, 127706.66, 22118.03, 18731.97, 9038.29, 29634.97, 107947.30, 72101.38, 0.00, 0.00, 0.00
0, 96243.03, 127748.09, 22118.93, 18737.49, 9046.33, 29635.53, 107948.13, 72107.26, 0.00, 0.00, 0.00
1, 96245.36, 127772.58, 22119.91, 18735.39, 9036.65, 29633.03, 107945.60, 72109.50, 0.00, 0.00, 0.00
2, 96237.42, 127760.80, 22124.25, 18730.94, 9022.01, 29634.21, 107953.60, 72111.60, 0.00, 0.00, 0.00
3, 96240.93, 127781.05, 22141.95, 18743.39, 9030.84, 29645.74, 107963.52, 72117.14, 0.00, 0.00, 0.00
4, 96241.22, 127836.62, 22153.57, 18754.03, 9069.91, 29656.47, 107970.81, 72109.09, 0.00, 0.00, 0.00
5, 96224.10, 127786.69, 22139.22, 18746.21, 9057.35, 29656.94, 107948.55, 72080.64, 0.08, -0.19, 0.98
6, 96253.85, 127902.17, 22172.88, 18775.80, 9068.39, 29665.81, 107945.24, 72107.59, 0.00, 0.00, 0.00
7, 96232.33, 127764.45, 22128.52, 18757.23, 9053.51, 29646.71, 107925.87, 72094.23, 0.00, 0.00, 0.00
8, 96214.31, 127625.20, 22114.68, 18751.15, 9052.50, 29637.03, 107931.27, 72087.52, 0.00, 0.00, 0.00
9, 96214.45, 127695.49, 22121.63, 18748.93, 9053.24, 29636.85, 107936.46, 72089.09, 0.00, 0.00, 0.00
10, 96223.07, 127715.09, 22124.78, 18749.67, 9046.49, 29644.45, 107948.95, 72103.84, 0.00, 0.00, 0.00
11, 96220.23, 127750.52, 22127.20, 18746.54, 9027.29, 29633.38, 107957.11, 72099.88, 0.00, 0.00, 0.00
12, 96223.59, 127779.17, 22131.60, 18750.27, 9053.53, 29635.08, 107937.71, 72093.60, 0.00, 0.00, 0.00
13, 96238.43, 127851.52, 22160.32, 18767.64, 9074.23, 29657.90, 107958.38, 72108.98, 0.00, 0.00, 0.00
14, 96234.02, 127872.11, 22152.70, 18764.71, 9065.76, 29656.34, 107963.75, 72109.66, 0.00, 0.00, 0.00
15, 96232.28, 127743.44, 22120.98, 18745.67, 9054.54, 29647.69, 107958.66, 72103.02, 0.09, -0.19, 0.98
16, 96234.05, 127713.86, 22117.16, 18739.08, 9043.96, 29637.47, 107962.68, 72100.96, 0.00, 0.00, 0.00
17, 96226.47, 127701.86, 22122.48, 18738.90, 9036.74, 29631.13, 107942.83, 72094.52, 0.00, 0.00, 0.00
18, 96220.23, 127721.48, 22121.21, 18733.67, 9034.44, 29623.75, 107932.39, 72087.57, 0.00, 0.00, 0.00
19, 96231.43, 127721.40, 22109.47, 18724.30, 9028.74, 29617.94, 107936.66, 72088.73, 0.00, 0.00, 0.00
20, 96237.73, 127724.66, 22113.16, 18728.59, 9030.06, 29618.85, 107943.48, 72095.88, 0.00, 0.00, 0.00
21, 96230.54, 127747.08, 22118.26, 18733.55, 9023.24, 29621.45, 107945.84, 72099.41, 0.00, 0.00, 0.00
22, 96232.51, 127808.92, 22133.84, 18743.03, 9032.34, 29631.66, 107958.54, 72108.27, 0.00, 0.00, 0.00
23, 96234.90, 127849.16, 22137.14, 18740.93, 9033.64, 29633.07, 107970.92, 72111.17, 0.00, 0.00, 0.00
24, 96219.48, 127758.07, 22112.24, 18734.03, 9022.77, 29629.38, 107951.23, 72100.29, 0.00, 0.00, 0.00
25, 96218.18, 127715.47, 22101.63, 18725.78, 9013.41, 29623.84, 107923.98, 72096.06, 0.09, -0.20, 0.98
26, 96235.08, 127759.68, 22127.53, 18740.66, 9047.85, 29637.32, 107950.72, 72108.27, 0.00, 0.00, 0.00
27, 96222.45, 127789.30, 22117.30, 18731.70, 9024.43, 29626.10, 107934.40, 72093.88, 0.00, 0.00, 0.00
28, 96214.38, 127736.62, 22107.64, 18724.86, 9037.57, 29623.88, 107920.50, 72080.87, 0.00, 0.00, 0.00
29, 96215.83, 127706.33, 22111.33, 18714.80, 9033.43, 29615.23, 107921.95, 72073.94, 0.00, 0.00, 0.00
30, 96203.38, 127723.83, 22106.57, 18712.95, 9019.69, 29608.13, 107918.64, 72066.85, 0.00, 0.00, 0.00
31, 96197.93, 127766.41, 22109.43, 18724.55, 9015.82, 29616.82, 107929.84, 72071.77, 0.00, 0.00, 0.00
32, 96199.29, 127718.71, 22103.44, 18725.29, 9019.67, 29614.92, 107920.79, 72072.84, 0.00, 0.00, 0.00
33, 96187.29, 127726.73, 22095.55, 18712.50, 9010.46, 29607.63, 107904.90, 72052.77, 0.00, 0.00, 0.00
34, 96196.27, 127713.86, 22105.07, 18722.07, 9015.60, 29608.97, 107908.48, 72059.32, 0.00, 0.00, 0.00
35, 96198.91, 127733.58, 22117.88, 18727.23, 9030.93, 29610.27, 107913.28, 72066.23, 0.08, -0.20, 0.98
36, 96192.02, 127797.97, 22118.39, 18731.25, 9033.23, 29617.71, 107921.66, 72060.86, 0.00, 0.00, 0.00
37, 96191.71, 127784.74, 22115.84, 18731.77, 9032.54, 29627.84, 107932.99, 72064.37, 0.00, 0.00, 0.00
38, 96186.02, 127687.55, 22100.42, 18719.21, 9022.48, 29623.21, 107929.51, 72067.01, 0.00, 0.00, 0.00
39, 96185.81, 127651.45, 22100.71, 18713.19, 9032.16, 29614.43, 107918.51, 72069.87, 0.00, 0.00, 0.00
40, 96201.88, 127713.23, 22112.04, 18726.47, 9044.28, 29624.29, 107931.85, 72075.66, 0.00, 0.00, 0.00
41, 96204.34, 127737.48, 22100.44, 18722.40, 9037.21, 29635.91, 107944.26, 72068.80, 0.00, 0.00, 0.00
42, 96212.37, 127764.24, 22104.36, 18721.51, 9008.38, 29627.13, 107926.47, 72073.38, 0.00, 0.00, 0.00
43, 96215.52, 127786.44, 22116.54, 18724.86, 9046.15, 29612.06, 107940.03, 72082.27, 0.00, 0.00, 0.00
44, 96211.36, 127806.69, 22117.61, 18719.61, 9051.47, 29609.24, 107952.26, 72082.65, 0.00, 0.00, 0.00
45, 96203.49, 127765.16, 22101.31, 18700.74, 9020.76, 29601.76, 107940.99, 72077.94, 0.08, -0.20, 0.98
46, 96217.08, 127762.21, 22098.68, 18712.50, 9033.10, 29604.97, 107951.08, 72087.13, 0.00, 0.00, 0.00
47, 96212.50, 127780.94, 22105.96, 18716.12, 9024.67, 29598.58, 107932.52, 72080.26, 0.00, 0.00, 0.00
48, 96215.72, 127740.55, 22105.72, 18715.25, 9020.05, 29602.49, 107932.16, 72076.15, 0.00, 0.00, 0.00
49, 96229.29, 127780.85, 22106.39, 18717.64, 9035.02, 29620.13, 107947.99, 72085.42, 0.00, 0.00, 0.00
50, 96216.26, 127781.30, 22105.20, 18717.95, 9031.09, 29614.90, 107952.69, 72080.08, 0.00, 0.00, 0.00
51, 96209.59, 127687.22, 22090.43, 18713.30, 9022.28, 29605.42, 107965.72, 72079.12, 0.00, 0.00, 0.00
52, 96215.41, 127714.76, 22099.84, 18718.96, 9022.66, 29612.64, 107963.88, 72085.73, 0.00, 0.00, 0.00
53, 96213.44, 127688.76, 22100.69, 18714.56, 9025.43, 29613.38, 107936.10, 72080.75, 0.00, 0.00, 0.00
54, 96210.60, 127706.13, 22099.84, 18711.49, 9022.64, 29614.45, 107934.91, 72070.80, 0.00, 0.00, 0.00
55, 96213.77, 127747.39, 22101.81, 18710.78, 9022.37, 29600.73, 107939.90, 72068.64, 0.08, -0.20, 0.98
56, 96231.70, 127808.21, 22124.96, 18733.29, 9045.35, 29617.98, 107949.84, 72087.34, 0.00, 0.00, 0.00
57, 96221.46, 127786.33, 22131.06, 18735.39, 9040.21, 29619.03, 107963.37, 72079.43, 0.00, 0.00, 0.00
58, 96212.41, 127754.79, 22119.49, 18733.26, 9040.19, 29617.27, 107957.65, 72070.11, 0.00, 0.00, 0.00
59, 96214.40, 127781.30, 22117.88, 18728.95, 9038.33, 29613.47, 107960.89, 72071.97, 0.00, 0.00, 0.00
60, 96221.35, 127796.19, 22127.91, 18734.65, 9051.29, 29625.85, 107953.00, 72072.33, 0.00, 0.00, 0.00
61, 96217.53, 127735.61, 22126.13, 18753.76, 9046.78, 29631.10, 107930.06, 72069.60, 0.00, 0.00, 0.00
62, 96213.05, 127706.87, 22112.38, 18744.31, 9065.11, 29625.52, 107939.01, 72075.12, 0.00, 0.00, 0.00
63, 96218.98, 127767.44, 22117.74, 18743.52, 9071.61, 29627.73, 107964.09, 72087.05, 0.00, 0.00, 0.00
64, 96225.17, 127812.88, 22118.82, 18736.57, 9063.95, 29624.42, 107978.10, 72094.99, 0.00, 0.00, 0.00
65, 96226.83, 127792.32, 22109.61, 18727.16, 9051.20, 29617.56, 107966.95, 72086.02, 0.08, -0.20, 0.98
66, 96227.14, 127742.05, 22113.36, 18723.32, 9049.04, 29617.33, 107948.10, 72078.79, 0.00, 0.00, 0.00
67, 96224.91, 127726.00, 22104.04, 18716.48, 9038.58, 29613.71, 107952.17, 72078.14, 0.00, 0.00, 0.00
68, 96230.05, 127764.20, 22114.66, 18725.53, 9048.75, 29622.05, 107959.55, 72096.20, 0.00, 0.00, 0.00
69, 96225.89, 127743.86, 22108.78, 18720.14, 9044.16, 29620.91, 107958.81, 72100.40, 0.00, 0.00, 0.00
70, 96234.67, 127757.00, 22105.07, 18719.67, 9040.88, 29621.67, 107975.53, 72104.76, 0.00, 0.00, 0.00
71, 96227.68, 127779.95, 22108.65, 18714.36, 9032.43, 29613.67, 107958.66, 72089.29, 0.00, 0.00, 0.00
72, 96225.73, 127689.70, 22093.94, 18706.31, 9031.20, 29606.38, 107934.89, 72083.32, 0.00, 0.00, 0.00
73, 96233.78, 127703.63, 22092.91, 18704.07, 9031.04, 29607.34, 107951.05, 72090.74, 0.00, 0.00, 0.00
74, 96233.16, 127740.86, 22095.77, 18706.80, 9051.25, 29638.30, 107961.23, 72093.25, 0.00, 0.00, 0.00
75, 96234.16, 127788.52, 22112.20, 18723.18, 9050.06, 29622.21, 107983.13, 72100.94, 0.08, -0.19, 0.98
76, 96238.27, 127844.40, 22122.10, 18726.65, 9046.69, 29622.47, 108008.90, 72107.75, 0.00, 0.00, 0.00
77, 96226.96, 127754.66, 22109.47, 18718.33, 9037.86, 29617.36, 107981.79, 72100.63, 0.00, 0.00, 0.00
78, 96220.19, 127722.65, 22104.71, 18710.78, 9036.23, 29613.89, 107951.45, 72093.29, 0.00, 0.00, 0.00
79, 96232.28, 127810.27, 22118.84, 18726.31, 9058.31, 29639.96, 107954.52, 72095.86, 0.00, 0.00, 0.00
80, 96227.19, 127758.50, 22116.27, 18730.07, 9045.79, 29622.34, 107965.11, 72085.63, 0.00, 0.00, 0.00
81, 96226.05, 127774.68, 22119.87, 18734.70, 9024.18, 29621.16, 107959.99, 72079.95, 0.00, 0.00, 0.00
82, 96226.63, 127804.12, 22121.70, 18727.54, 9057.11, 29620.15, 107949.76, 72074.94, 0.00, 0.00, 0.00
83, 96225.24, 127788.36, 22122.33, 18726.31, 9048.86, 29605.02, 107949.98, 72081.02, 0.00, 0.00, 0.00
84, 96222.70, 127738.83, 22114.73, 18728.62, 9047.83, 29605.85, 107965.18, 72087.28, 0.00, 0.00, 0.00
85, 96227.50, 127780.56, 22123.20, 18729.96, 9052.19, 29614.63, 107984.11, 72093.98, 0.08, -0.20, 0.99
86, 96227.99, 127801.77, 22130.53, 18731.81, 9053.66, 29620.17, 107963.57, 72088.48, 0.00, 0.00, 0.00
87, 96218.80, 127742.61, 22110.57, 18724.64, 9035.71, 29620.26, 107961.80, 72072.46, 0.00, 0.00, 0.00
88, 96229.27, 127760.02, 22105.61, 18729.67, 9055.74, 29628.20, 107971.35, 72084.69, 0.00, 0.00, 0.00
89, 96229.55, 127783.78, 22107.42, 18733.44, 9051.65, 29621.67, 107966.79, 72084.89, 0.00, 0.00, 0.00
90, 96232.82, 127805.91, 22116.22, 18738.94, 9056.14, 29627.15, 107959.99, 72090.84, 0.00, 0.00, 0.00
91, 96233.45, 127752.44, 22112.60, 18728.82, 9053.26, 29613.47, 107951.91, 72087.80, 0.00, 0.00, 0.00
92, 96225.76, 127737.33, 22099.55, 18715.96, 9038.22, 29597.02, 107952.17, 72072.59, 0.00, 0.00, 0.00
93, 96228.39, 127766.91, 22093.98, 18709.71, 9033.73, 29613.40, 107950.12, 72074.07, 0.00, 0.00, 0.00
94, 96224.44, 127781.48, 22096.51, 18707.13, 9031.69, 29606.29, 107935.95, 72076.20, 0.00, 0.00, 0.00
95, 96213.28, 127737.66, 22096.11, 18703.02, 9027.20, 29590.13, 107958.61, 72075.09, 0.08, -0.20, 0.99
96, 96206.27, 127763.41, 22075.32, 18693.63, 9007.31, 29585.35, 107964.13, 72067.92, 0.00, 0.00, 0.00
97, 96204.03, 127775.73, 22069.20, 18684.27, 9005.14, 29559.53, 107919.45, 72058.84, 0.00, 0.00, 0.00
98, 96212.01, 127754.61, 22076.19, 18689.21, 9014.77, 29567.63, 107922.31, 72066.23, 0.00, 0.00, 0.00
99, 96208.97, 127704.01, 22064.21, 18678.30, 9000.38, 29565.63, 107942.56, 72063.27, 0.00, 0.00, 0.00
100, 96210.09, 127700.85, 22059.38, 18677.41, 8984.08, 29565.68, 107920.23, 72057.62, 0.00, 0.00, 0.00
101, 96213.98, 127735.74, 22062.58, 18676.47, 9008.45, 29560.74, 107924.79, 72056.52, 0.00, 0.00, 0.00
102, 96213.84, 127773.61, 22063.70, 18673.61, 9009.63, 29561.79, 107942.16, 72058.31, 0.00, 0.00, 0.00
103, 96210.31, 127802.89, 22062.91, 18673.47, 9013.45, 29572.32, 107943.95, 72060.79, 0.00, 0.00, 0.00
104, 96208.19, 127772.47, 22063.38, 18675.28, 9007.46, 29569.03, 107949.76, 72057.87, 0.00, 0.00, 0.00
105, 96204.14, 127679.62, 22050.96, 18674.17, 8990.45, 29561.79, 107930.98, 72052.63, 0.09, -0.20, 0.98
106, 96200.09, 127697.81, 22049.35, 18673.18, 8988.11, 29559.71, 107914.04, 72052.32, 0.00, 0.00, 0.00
107, 96206.55, 127800.30, 22061.28, 18678.59, 9003.95, 29572.83, 107933.84, 72059.05, 0.00, 0.00, 0.00
108, 96206.46, 127776.91, 22066.96, 18679.78, 9002.19, 29574.75, 107929.69, 72051.78, 0.00, 0.00, 0.00
109, 96193.05, 127722.06, 22056.83, 18666.32, 8993.98, 29559.94, 107914.98, 72035.00, 0.00, 0.00, 0.00
110, 96208.90, 127746.41, 22069.84, 18686.13, 9008.98, 29574.24, 107951.73, 72053.17, 0.00, 0.00, 0.00
111, 96213.44, 127787.94, 22083.61, 18697.41, 9017.03, 29588.97, 107980.13, 72062.05, 0.00, 0.00, 0.00
112, 96207.65, 127736.95, 22076.86, 18699.83, 9011.75, 29585.57, 107950.63, 72059.97, 0.00, 0.00, 0.00
113, 96208.97, 127683.35, 22070.80, 18703.13, 9015.75, 29588.32, 107938.00, 72064.32, 0.00, 0.00, 0.00
114, 96208.23, 127697.81, 22076.73, 18700.72, 9021.32, 29611.30, 107938.67, 72061.22, 0.00, 0.00, 0.00
115, 96206.84, 127718.06, 22078.72, 18694.24, 9022.82, 29611.63, 107948.95, 72054.20, 0.08, -0.19, 0.98
116, 96210.51, 127749.47, 22075.37, 18697.64, 9008.51, 29571.76, 107929.48, 72051.83, 0.00, 0.00, 0.00
117, 96202.35, 127789.01, 22080.35, 18694.28, 9000.02, 29582.89, 107932.21, 72045.39, 0.00, 0.00, 0.00
118, 96213.84, 127808.61, 22088.08, 18702.67, 9007.33, 29587.99, 107950.07, 72065.06, 0.00, 0.00, 0.00
119, 96208.66, 127695.18, 22073.04, 18699.27, 8996.91, 29575.34, 107959.70, 72063.05, 0.00, 0.00, 0.00
120, 96209.30, 127711.76, 22071.92, 18701.30, 9037.10, 29582.64, 107969.34, 72065.11, 0.00, 0.00, 0.00
121, 96209.30, 127733.55, 22076.50, 18698.02, 9026.77, 29575.54, 107975.89, 72064.08, 0.00, 0.00, 0.00
122, 96215.41, 127822.67, 22089.20, 18704.19, 9024.14, 29582.73, 107972.02, 72066.47, 0.00, 0.00, 0.00
123, 96211.16, 127757.00, 22073.40, 18690.15, 9014.41, 29573.19, 107934.52, 72057.17, 0.00, 0.00, 0.00
124, 96206.04, 127695.71, 22065.26, 18683.29, 9011.82, 29575.89, 107933.95, 72056.23, 0.00, 0.00, 0.00
125, 96208.92, 127750.56, 22080.21, 18694.48, 9010.79, 29579.94, 107950.05, 72063.27, 0.08, -0.19, 0.98
126, 96207.67, 127761.18, 22078.45, 18692.23, 9009.45, 29566.24, 107953.76, 72061.55, 0.00, 0.00, 0.00
127, 96214.11, 127743.88, 22075.43, 18689.21, 9004.82, 29574.66, 107956.64, 72068.80, 0.00, 0.00, 0.00
128, 96224.48, 127764.31, 22076.75, 18689.28, 9012.58, 29585.08, 107971.10, 72078.56, 0.00, 0.00, 0.00
129, 96215.41, 127818.29, 22078.96, 18684.85, 9006.88, 29579.02, 107982.81, 72069.60, 0.00, 0.00, 0.00
130, 96217.64, 127792.88, 22078.45, 18686.42, 9003.48, 29576.01, 107990.84, 72069.04, 0.00, 0.00, 0.00
131, 96226.94, 127780.42, 22082.38, 18691.45, 9005.61, 29565.59, 107952.80, 72075.79, 0.00, 0.00, 0.00
132, 96219.63, 127687.94, 22070.67, 18686.13, 9005.85, 29568.09, 107956.27, 72070.59, 0.00, 0.00, 0.00
133, 96215.54, 127675.41, 22055.61, 18681.61, 9003.62, 29567.31, 107950.07, 72065.66, 0.00, 0.00, 0.00
134, 96216.86, 127718.00, 22056.68, 18681.95, 8995.68, 29566.84, 107947.66, 72067.34, 0.00, 0.00, 0.00
135, 96233.73, 127793.05, 22088.64, 18701.46, 9030.73, 29593.66, 107992.27, 72086.85, 0.08, -0.20, 0.98
136, 96224.68, 127858.21, 22092.64, 18702.42, 9026.04, 29610.36, 107979.28, 72084.87, 0.00, 0.00, 0.00
137, 96210.38, 127774.86, 22068.75, 18685.88, 9014.01, 29593.51, 107960.77, 72075.55, 0.00, 0.00, 0.00
138, 96213.55, 127689.97, 22060.19, 18688.47, 8998.01, 29572.43, 107978.19, 72078.85, 0.00, 0.00, 0.00
7, 21877.35, 18282.56, 8632.62, 29362.66, 107872.27, 72167.37, 0.00, 0.00, 0.00
187, 96094.93, 127917.13, 21886.96, 18291.39, 8648.65, 29375.47, 107875.53, 72163.95, 0.00, 0.00, 0.00
188, 96095.40, 127865.70, 21890.18, 18288.55, 8637.45, 29374.15, 107879.66, 72174.65, 0.00, 0.00, 0.00
189, 96093.59, 127837.49, 21887.56, 18287.32, 8639.71, 29370.44, 107868.38, 72176.13, 0.00, 0.00, 0.00
190, 96085.07, 127796.56, 21870.15, 18281.33, 8634.39, 29369.16, 107869.58, 72164.68, 0.00, 0.00, 0.00
191, 96090.44, 127816.73, 21877.02, 18289.29, 8653.52, 29382.93, 107867.23, 72168.33, 0.00, 0.00, 0.00
192, 96093.52, 127876.47, 21887.52, 18294.52, 8650.66, 29384.05, 107879.48, 72171.14, 0.00, 0.00, 0.00
193, 96088.24, 127872.07, 21868.23, 18283.08, 8617.92, 29371.22, 107871.59, 72167.97, 0.00, 0.00, 0.00
194, 96100.02, 127855.13, 21878.74, 18287.30, 8646.79, 29383.11, 107898.93, 72184.09, 0.00, 0.00, 0.00
195, 96101.19, 127818.63, 21876.77, 18285.60, 8652.34, 29376.52, 107874.09, 72179.41, 0.07, -0.20, 0.99
196, 96093.14, 127857.18, 21885.04, 18298.34, 8650.77, 29380.76, 107859.10, 72164.86, 0.00, 0.00, 0.00
197, 96090.46, 127958.32, 21898.32, 18303.96, 8652.20, 29383.56, 107891.40, 72159.85, 0.00, 0.00, 0.00
198, 96091.69, 127953.30, 21889.60, 18287.84, 8645.16, 29370.95, 107886.08, 72155.19, 0.00, 0.00, 0.00
199, 96099.18, 127799.13, 21871.27, 18276.64, 8631.71, 29352.13, 107852.05, 72160.95, 0.00, 0.00, 0.00
200, 96098.39, 127826.78, 21878.65, 18284.71, 8633.56, 29360.60, 107837.69, 72171.52, 0.00, 0.00, 0.00
201, 96090.41, 127849.91, 21891.66, 18289.05, 8640.80, 29368.63, 107854.31, 72168.98, 0.00, 0.00, 0.00
202, 96089.70, 127814.09, 21887.97, 18285.45, 8636.78, 29364.36, 107857.96, 72168.04, 0.00, 0.00, 0.00
203, 96089.72, 127843.70, 21877.55, 18287.17, 8636.22, 29365.65, 107868.82, 72164.21, 0.00, 0.00, 0.00
204, 96086.50, 127840.71, 21873.53, 18282.03, 8615.99, 29355.06, 107874.73, 72152.50, 0.00, 0.00, 0.00
205, 96084.13, 127840.33, 21867.05, 18270.52, 8619.19, 29348.55, 107858.97, 72147.72, 0.07, -0.20, 0.98
206, 96104.25, 127924.86, 21883.77, 18285.18, 8643.78, 29360.27, 107850.23, 72168.88, 0.00, 0.00, 0.00
207, 96100.18, 127901.62, 21888.35, 18285.74, 8639.60, 29363.98, 107862.95, 72168.70, 0.00, 0.00, 0.00
208, 96099.83, 127834.36, 21877.28, 18281.58, 8633.25, 29360.78, 107883.20, 72173.27, 0.00, 0.00, 0.00
209, 96103.47, 127943.30, 21894.00, 18289.18, 8635.57, 29366.01, 107873.76, 72174.98, 0.00, 0.00, 0.00
210, 96096.36, 127845.80, 21891.70, 18285.34, 8621.85, 29359.55, 107862.09, 72160.34, 0.00, 0.00, 0.00
211, 96098.04, 127793.95, 21871.05, 18269.04, 8611.59, 29353.94, 107840.66, 72148.50, 0.00, 0.00, 0.00
212, 96101.21, 127861.05, 21876.23, 18272.64, 8647.53, 29357.54, 107839.41, 72149.73, 0.00, 0.00, 0.00
213, 96090.84, 127811.31, 21883.94, 18290.68, 8639.71, 29360.60, 107851.23, 72147.36, 0.00, 0.00, 0.00
214, 96077.38, 127833.16, 21880.35, 18282.07, 8616.66, 29354.88, 107842.72, 72138.42, 0.08, -0.20, 0.98
215, 96093.21, 127839.16, 21895.05, 18292.15, 8627.19, 29360.56, 107844.46, 72151.63, 0.00, 0.00, 0.00
216, 96090.88, 127834.23, 21889.17, 18290.34, 8636.92, 29364.63, 107841.66, 72151.88, 0.00, 0.00, 0.00
217, 96097.63, 127911.56, 21896.08, 18294.99, 8643.89, 29372.56, 107858.98, 72158.47, 0.00, 0.00, 0.00
218, 96091.51, 127923.79, 21898.63, 18297.25, 8642.64, 29378.51, 107866.50, 72153.51, 0.00, 0.00, 0.00
219, 96079.30, 127810.06, 21883.68, 18287.26, 8629.25, 29364.98, 107863.21, 72145.38, 0.00, 0.00, 0.00
220, 96086.68, 127786.02, 21879.12, 18287.30, 8629.07, 29360.45, 107868.29, 72152.84, 0.00, 0.00, 0.00
221, 96084.70, 127837.09, 21886.34, 18290.12, 8634.50, 29365.03, 107864.76, 72147.38, 0.00, 0.00, 0.00
222, 96084.24, 127871.29, 21896.35, 18295.33, 8640.58, 29368.52, 107831.16, 72145.39, 0.00, 0.00, 0.00
223, 96079.84, 127871.46, 21887.30, 18287.97, 8626.57, 29363.22, 107821.70, 72141.39, 0.00, 0.00, 0.00
224, 96083.17, 127844.55, 21880.59, 18280.96, 8621.18, 29355.53, 107825.80, 72145.21, 0.08, -0.20, 0.98
225, 96083.77, 127854.77, 21883.99, 18285.80, 8632.65, 29358.77, 107839.25, 72147.43, 0.00, 0.00, 0.00
226, 96078.95, 127854.34, 21887.79, 18290.77, 8635.69, 29359.73, 107856.80, 72143.74, 0.00, 0.00, 0.00
227, 96082.95, 127902.76, 21895.32, 18291.01, 8638.03, 29362.10, 107844.01, 72148.05, 0.00, 0.00, 0.00
228, 96081.32, 127897.02, 21895.25, 18287.73, 8628.67, 29358.59, 107865.13, 72147.95, 0.00, 0.00, 0.00
229, 96078.26, 127826.07, 21879.54, 18282.01, 8604.01, 29345.98, 107864.62, 72144.63, 0.00, 0.00, 0.00
230, 96078.39, 127761.88, 21865.91, 18276.64, 8605.11, 29342.61, 107833.51, 72143.88, 0.00, 0.00, 0.00
231, 96083.33, 127822.89, 21874.91, 18282.25, 8651.67, 29353.58, 107827.02, 72150.18, 0.00, 0.00, 0.00
232, 96079.95, 127851.55, 21871.61, 18279.95, 8634.34, 29352.22, 107836.13, 72147.27, 0.00, 0.00, 0.00
233, 96092.45, 127829.89, 21882.71, 18282.52, 8629.85, 29362.03, 107868.64, 72159.12, 0.00, 0.00, 0.00
234, 96086.73, 127837.22, 21872.79, 18276.53, 8631.10, 29359.82, 107852.88, 72154.63, 0.08, -0.20, 0.98
235, 96087.53, 127845.67, 21871.05, 18273.65, 8631.04, 29354.86, 107837.89, 72153.98, 0.00, 0.00, 0.00
236, 96095.87, 127915.30, 21883.81, 18278.12, 8640.76, 29364.96, 107859.73, 72162.47, 0.00, 0.00, 0.00
237, 96089.85, 127893.15, 21880.64, 18275.39, 8630.10, 29360.18, 107867.03, 72157.71, 0.00, 0.00, 0.00
238, 96094.48, 127904.81, 21887.50, 18283.37, 8628.80, 29365.94, 107856.51, 72159.95, 0.00, 0.00, 0.00
239, 96092.25, 127946.81, 21893.02, 18281.71, 8630.75, 29370.77, 107872.48, 72159.27, 0.00, 0.00, 0.00
240, 96088.60, 127787.24, 21869.50, 18270.96, 8625.85, 29366.08, 107867.88, 72155.54, 0.00, 0.00, 0.00
241, 96095.04, 127791.65, 21877.75, 18278.54, 8635.84, 29369.74, 107850.38, 72160.17, 0.00, 0.00, 0.00
242, 96090.28, 127823.74, 21876.84, 18280.51, 8637.81, 29367.04, 107851.48, 72153.02, 0.00, 0.00, 0.00
243, 96092.90, 127839.55, 21877.02, 18282.43, 8628.85, 29367.15, 107840.03, 72153.02, 0.00, 0.00, 0.00
244, 96090.62, 127824.13, 21880.48, 18284.58, 8624.51, 29371.00, 107848.62, 72150.34, 0.09, -0.20, 0.98
245, 96088.20, 127866.01, 21884.28, 18284.06, 8623.57, 29370.26, 107860.55, 72149.10, 0.00, 0.00, 0.00
246, 96086.73, 127865.27, 21885.20, 18285.80, 8634.05, 29369.70, 107877.74, 72146.89, 0.00, 0.00, 0.00
247, 96095.16, 127924.91, 21896.01, 18292.60, 8650.08, 29367.44, 107877.02, 72156.10, 0.00, 0.00, 0.00
248, 96091.29, 127939.13, 21896.39, 18283.70, 8627.39, 29353.34, 107844.46, 72151.02, 0.00, 0.00, 0.00
249, 96089.61, 127882.77, 21887.19, 18279.99, 8600.95, 29350.61, 107849.51, 72149.66, 0.00, 0.00, 0.00
250, 96112.37, 127886.80, 21896.64, 18298.17, 8653.79, 29378.48, 107882.37, 72169.53, 0.00, 0.00, 0.00
251, 96097.32, 127812.61, 21876.99, 18280.89, 8652.70, 29365.54, 107857.98, 72156.86, 0.00, 0.00, 0.00
252, 96096.02, 127787.18, 21868.99, 18273.20, 8643.15, 29362.35, 107852.80, 72155.09, 0.00, 0.00, 0.00
253, 96101.63, 127848.27, 21878.07, 18278.47, 8638.86, 29362.35, 107854.02, 72158.42, 0.00, 0.00, 0.00
254, 96104.23, 127896.95, 21884.66, 18287.44, 8634.88, 29363.91, 107869.78, 72162.78, 0.09, -0.20, 0.98
255, 96105.32, 127858.50, 21884.62, 18280.60, 8632.89, 29364.47, 107874.41, 72164.13, 0.00, 0.00, 0.00
0, 96111.73, 127956.09, 21901.83, 18285.07, 8639.64, 29373.90, 107869.05, 72171.14, 0.00, 0.00, 0.00
1, 96106.55, 127919.38, 21897.80, 18281.58, 8640.42, 29369.16, 107879.33, 72164.26, 0.00, 0.00, 0.00
2, 96104.98, 127822.72, 21876.59, 18275.70, 8625.60, 29356.89, 107857.34, 72161.33, 0.00, 0.00, 0.00
3, 96107.09, 127824.64, 21873.21, 18267.05, 8621.02, 29354.50, 107843.01, 72161.29, 0.00, 0.00, 0.00
4, 96109.99, 127833.65, 21876.52, 18268.84, 8613.51, 29356.20, 107857.69, 72163.23, 0.00, 0.00, 0.00
5, 96113.55, 127827.25, 21880.14, 18275.17, 8635.55, 29362.84, 107866.34, 72166.80, 0.00, 0.00, 0.00
6, 96114.42, 127865.23, 21881.98, 18276.35, 8642.73, 29360.85, 107896.25, 72165.96, 0.00, 0.00, 0.00
7, 96108.56, 127915.07, 21890.67, 18281.31, 8631.04, 29362.61, 107874.68, 72162.11, 0.00, 0.00, 0.00
8, 96114.38, 127918.23, 21897.53, 18288.93, 8640.71, 29377.21, 107881.63, 72168.04, 0.08, -0.20, 0.98
9, 96115.16, 127914.58, 21897.58, 18289.54, 8634.41, 29369.03, 107865.63, 72168.62, 0.00, 0.00, 0.00
10, 96104.88, 127866.70, 21886.11, 18282.56, 8618.54, 29362.53, 107853.22, 72161.60, 0.00, 0.00, 0.00
11, 96106.44, 127845.80, 21889.22, 18283.88, 8646.46, 29368.38, 107852.37, 72162.23, 0.00, 0.00, 0.00
12, 96109.84, 127835.12, 21888.04, 18283.30, 8651.02, 29365.88, 107859.48, 72161.87, 0.00, 0.00, 0.00
13, 96115.72, 127863.51, 21890.61, 18286.36, 8637.67, 29367.38, 107884.85, 72167.32, 0.00, 0.00, 0.00
14, 96116.05, 127888.81, 21894.83, 18284.96, 8629.87, 29366.55, 107901.68, 72169.16, 0.00, 0.00, 0.00
15, 96115.11, 127873.50, 21889.87, 18281.00, 8631.39, 29364.13, 107885.52, 72167.55, 0.00, 0.00, 0.00
16, 96108.95, 127849.07, 21881.96, 18276.55, 8631.55, 29357.99, 107854.43, 72159.95, 0.00, 0.00, 0.00
17, 96109.23, 127865.90, 21886.87, 18276.02, 8625.36, 29355.39, 107861.09, 72158.09, 0.00, 0.00, 0.00
18, 96109.05, 127913.62, 21888.17, 18272.39, 8616.96, 29350.28, 107853.94, 72157.11, 0.08, -0.20, 0.98
19, 96118.60, 127963.69, 21904.66, 18284.67, 8626.16, 29358.10, 107848.19, 72168.38, 0.00, 0.00, 0.00
20, 96106.55, 127834.27, 21886.34, 18274.43, 8617.07, 29350.21, 107846.96, 72159.09, 0.00, 0.00, 0.00
21, 96110.69, 127816.91, 21880.86, 18275.99, 8620.93, 29357.07, 107868.30, 72162.05, 0.00, 0.00, 0.00
22, 96114.17, 127896.99, 21895.86, 18280.57, 8625.76, 29364.09, 107909.55, 72167.99, 0.00, 0.00, 0.00
23, 96115.83, 127854.03, 21886.18, 18275.21, 8612.98, 29361.54, 107877.74, 72170.45, 0.00, 0.00, 0.00
24, 96112.88, 127820.03, 21880.21, 18272.73, 8622.14, 29364.58, 107867.84, 72169.78, 0.00, 0.00, 0.00
25, 96115.91, 127842.36, 21882.25, 18281.02, 8646.91, 29379.67, 107877.14, 72174.41, 0.00, 0.00, 0.00
26, 96119.16, 127912.77, 21899.84, 18285.11, 8652.16, 29379.15, 107880.55, 72178.12, 0.00, 0.00, 0.00
27, 96117.84, 127922.09, 21898.47, 18281.65, 8639.42, 29371.15, 107880.11, 72177.00, 0.00, 0.00, 0.00
28, 96111.47, 127867.48, 21878.04, 18266.72, 8623.71, 29357.83, 107888.42, 72169.84, 0.08, -0.20, 0.98
29, 96115.47, 127879.31, 21882.89, 18265.35, 8636.92, 29371.33, 107884.71, 72170.63, 0.00, 0.00, 0.00
30, 96117.46, 127941.80, 21891.92, 18279.52, 8633.54, 29370.33, 107874.74, 72173.71, 0.00, 0.00, 0.00
31, 96115.38, 127915.09, 21887.92, 18281.27, 8621.40, 29370.46, 107878.95, 72174.97, 0.00, 0.00, 0.00
32, 96112.59, 127806.47, 21879.79, 18273.40, 8625.47, 29371.69, 107879.80, 72168.05, 0.00, 0.00, 0.00
33, 96108.45, 127818.27, 21883.27, 18271.63, 8642.15, 29368.65, 107864.33, 72162.98, 0.00, 0.00, 0.00
34, 96112.01, 127858.26, 21887.48, 18275.59, 8632.31, 29366.57, 107878.88, 72166.20, 0.00, 0.00, 0.00
35, 96109.05, 127890.11, 21892.88, 18278.56, 8633.96, 29367.71, 107905.97, 72163.14, 0.00, 0.00, 0.00
36, 96095.38, 127897.28, 21894.90, 18275.14, 8627.53, 29364.51, 107877.00, 72153.62, 0.00, 0.00, 0.00
37, 96104.85, 127942.23, 21900.89, 18278.76, 8620.33, 29367.69, 107865.00, 72161.24, 0.00, 0.00, 0.00
38, 96101.61, 127930.41, 21890.02, 18279.88, 8627.57, 29366.79, 107881.43, 72161.29, 0.08, -0.20, 0.98
39, 96098.70, 127935.97, 21890.49, 18284.53, 8627.53, 29361.65, 107884.11, 72158.31, 0.00, 0.00, 0.00
40, 96089.66, 127868.65, 21884.44, 18271.54, 8621.25, 29356.11, 107884.70, 72151.65, 0.00, 0.00, 0.00
41, 96090.21, 127800.21, 21872.92, 18259.54, 8615.35, 29346.77, 107843.88, 72159.20, 0.00, 0.00, 0.00
42, 96090.99, 127846.68, 21877.75, 18275.37, 8624.58, 29360.27, 107857.91, 72163.16, 0.00, 0.00, 0.00
43, 96074.03, 127928.64, 21889.40, 18280.64, 8628.82, 29362.44, 107869.60, 72140.43, 0.00, 0.00, 0.00
44, 96076.42, 127947.46, 21894.94, 18278.74, 8621.76, 29354.52, 107878.26, 72140.81, 0.00, 0.00, 0.00
45, 96071.82, 127867.24, 21887.14, 18272.13, 8618.30, 29345.13, 107867.88, 72133.01, 0.00, 0.00, 0.00
46, 96062.67, 127867.59, 21888.17, 18276.89, 8630.21, 29356.74, 107878.79, 72132.12, 0.00, 0.00, 0.00
47, 96062.23, 127880.09, 21891.10, 18277.67, 8625.72, 29356.47, 107865.94, 72136.23, 0.00, 0.00, 0.00
48, 96067.21, 127824.59, 21884.55, 18273.62, 8617.22, 29355.08, 107872.22, 72142.40, 0.08, -0.20, 0.98
49, 96066.12, 127838.34, 21876.39, 18267.79, 8602.25, 29353.38, 107863.86, 72134.42, 0.00, 0.00, 0.00
50, 96061.89, 127857.30, 21882.04, 18269.94, 8612.86, 29354.88, 107863.63, 72124.30, 0.00, 0.00, 0.00
51, 96065.31, 127895.16, 21886.96, 18272.04, 8644.27, 29360.63, 107883.77, 72132.83, 0.00, 0.00, 0.00
52, 96075.33, 127942.23, 21892.93, 18278.88, 8638.03, 29363.02, 107888.05, 72147.36, 0.00, 0.00, 0.00
53, 96063.59, 127930.12, 21889.24, 18269.20, 8620.08, 29353.79, 107874.88, 72137.62, 0.00, 0.00, 0.00
54, 96059.21, 127955.98, 21887.50, 18266.09, 8602.72, 29346.52, 107870.52, 72130.89, 0.00, 0.00, 0.00
55, 96061.45, 127917.73, 21893.82, 18273.89, 8627.68, 29358.32, 107887.80, 72133.75, 0.00, 0.00, 0.00
56, 96043.41, 127806.80, 21866.02, 18254.38, 8619.41, 29345.52, 107864.95, 72112.63, 0.00, 0.00, 0.00
57, 96040.70, 127781.09, 21853.05, 18242.80, 8604.46, 29337.00, 107849.16, 72101.52, 0.00, 0.00, 0.00
58, 96046.85, 127851.17, 21862.71, 18245.01, 8607.23, 29338.79, 107836.50, 72106.68, 0.07, -0.20, 0.98
59, 96035.90, 127862.70, 21865.12, 18244.03, 8603.05, 29333.13, 107843.05, 72104.36, 0.00, 0.00, 0.00
60, 96027.16, 127859.20, 21846.37, 18231.63, 8590.74, 29324.50, 107844.28, 72098.05, 0.00, 0.00, 0.00
61, 96046.43, 127914.91, 21864.43, 18245.93, 8601.53, 29336.69, 107862.23, 72113.41, 0.00, 0.00, 0.00
62, 96041.04, 127865.81, 21856.68, 18241.30, 8592.39, 29329.20, 107853.04, 72104.11, 0.00, 0.00, 0.00
63, 96039.88, 127866.23, 21852.79, 18239.65, 8587.36, 29326.40, 107861.94, 72101.09, 0.00, 0.00, 0.00
64, 96039.32, 127861.32, 21848.63, 18236.74, 8562.80, 29317.02, 107853.96, 72099.77, 0.00, 0.00, 0.00
65, 96030.27, 127782.93, 21835.91, 18228.16, 8578.06, 29313.11, 107827.25, 72093.07, 0.00, 0.00, 0.00
66, 96033.93, 127829.48, 21841.23, 18232.18, 8609.31, 29322.83, 107832.16, 72096.55, 0.00, 0.00, 0.00
67, 96036.03, 127896.45, 21850.24, 18233.75, 8599.70, 29324.64, 107842.00, 72099.08, 0.00, 0.00, 0.00
68, 96030.18, 127880.96, 21849.77, 18229.63, 8584.03, 29317.57, 107842.98, 72093.74, 0.08, -0.20, 0.98
69, 96031.20, 127810.00, 21834.77, 18227.49, 8573.97, 29308.25, 107839.02, 72092.66, 0.00, 0.00, 0.00
70, 96037.02, 127861.77, 21841.30, 18234.02, 8581.77, 29311.25, 107831.25, 72096.51, 0.00, 0.00, 0.00
71, 96042.52, 127952.69, 21849.50, 18234.13, 8583.81, 29320.32, 107842.31, 72101.90, 0.00, 0.00, 0.00
72, 96032.63, 127851.08, 21836.78, 18224.45, 8563.87, 29309.24, 107847.92, 72095.98, 0.00, 0.00, 0.00
73, 96023.13, 127800.63, 21829.72, 18218.39, 8571.02, 29301.30, 107836.41, 72085.80, 0.00, 0.00, 0.00
74, 96030.63, 127861.18, 21836.36, 18220.02, 8576.45, 29307.36, 107847.21, 72092.76, 0.00, 0.00, 0.00
75, 96036.73, 127822.78, 21840.02, 18229.99, 8584.01, 29315.05, 107852.26, 72101.09, 0.00, 0.00, 0.00
76, 96037.38, 127768.49, 21834.19, 18233.01, 8584.17, 29310.47, 107828.52, 72102.01, 0.00, 0.00, 0.00
77, 96042.73, 127834.83, 21841.28, 18232.41, 8577.59, 29308.59, 107836.16, 72105.88, 0.00, 0.00, 0.00
78, 96045.95, 127885.61, 21849.03, 18232.96, 8586.51, 29319.43, 107862.09, 72108.11, 0.08, -0.20, 0.99
79, 96043.07, 127841.42, 21841.45, 18228.76, 8574.62, 29314.40, 107835.41, 72104.63, 0.00, 0.00, 0.00
80, 96050.83, 127835.23, 21841.95, 18227.38, 8569.35, 29311.50, 107837.58, 72110.03, 0.00, 0.00, 0.00
81, 96047.92, 127830.74, 21844.31, 18230.06, 8599.88, 29318.40, 107852.80, 72106.48, 0.00, 0.00, 0.00
82, 96052.35, 127837.00, 21842.57, 18232.16, 8608.08, 29326.22, 107852.84, 72109.92, 0.00, 0.00, 0.00
83, 96057.96, 127888.45, 21847.33, 18233.64, 8595.32, 29331.39, 107850.56, 72113.99, 0.00, 0.00, 0.00
84, 96062.70, 127913.06, 21850.57, 18233.79, 8591.41, 29332.33, 107858.85, 72117.92, 0.00, 0.00, 0.00
85, 96065.58, 127867.84, 21851.69, 18234.84, 8597.20, 29333.87, 107870.88, 72122.35, 0.00, 0.00, 0.00
86, 96066.37, 127821.27, 21844.63, 18228.14, 8590.40, 29330.14, 107871.10, 72123.13, 0.00, 0.00, 0.00
87, 96065.94, 127856.96, 21839.73, 18222.95, 8573.21, 29324.08, 107857.29, 72118.62, 0.00, 0.00, 0.00
88, 96069.88, 127932.24, 21851.31, 18231.22, 8580.92, 29322.63, 107865.80, 72124.02, 0.08, -0.20, 0.98
89, 96064.93, 127852.58, 21840.07, 18227.65, 8576.81, 29314.63, 107853.24, 72119.45, 0.00, 0.00, 0.00
90, 96067.48, 127821.33, 21840.47, 18228.36, 8577.24, 29311.92, 107853.40, 72119.69, 0.00, 0.00, 0.00
91, 96062.77, 127800.12, 21835.60, 18222.71, 8575.60, 29306.62, 107837.82, 72114.01, 0.00, 0.00, 0.00
92, 96066.92, 127822.94, 21840.87, 18224.85, 8572.30, 29308.37, 107846.60, 72116.85, 0.00, 0.00, 0.00
93, 96072.33, 127841.58, 21843.44, 18228.03, 8567.40, 29305.68, 107839.45, 72120.65, 0.00, 0.00, 0.00
94, 96081.18, 127890.87, 21850.97, 18235.13, 8577.10, 29311.92, 107835.54, 72128.72, 0.00, 0.00, 0.00
95, 96086.15, 127911.18, 21854.75, 18236.30, 8575.78, 29314.33, 107847.19, 72134.55, 0.00, 0.00, 0.00
96, 96087.66, 127889.37, 21852.49, 18236.01, 8581.44, 29315.12, 107855.95, 72134.62, 0.00, 0.00, 0.00
97, 96089.16, 127868.05, 21852.96, 18233.97, 8585.06, 29313.28, 107885.23, 72132.38, 0.00, 0.00, 0.00
98, 96089.48, 127829.42, 21849.88, 18238.82, 8573.77, 29309.24, 107882.52, 72133.84, 0.08, -0.20, 0.98
99, 96088.13, 127837.63, 21844.16, 18234.29, 8577.93, 29312.79, 107844.39, 72133.13, 0.00, 0.00, 0.00
100, 96084.20, 127914.18, 21845.54, 18228.58, 8575.42, 29308.97, 107841.13, 72128.09, 0.00, 0.00, 0.00
101, 96087.22, 127885.91, 21849.41, 18233.12, 8589.51, 29321.02, 107864.58, 72131.83, 0.00, 0.00, 0.00
102, 96094.13, 127871.95, 21854.82, 18233.52, 8589.08, 29325.02, 107868.80, 72141.15, 0.00, 0.00, 0.00
103, 96086.64, 127891.40, 21850.53, 18226.93, 8569.75, 29311.03, 107856.10, 72135.11, 0.00, 0.00, 0.00
104, 96088.54, 127881.95, 21849.03, 18224.11, 8555.91, 29306.02, 107868.30, 72134.46, 0.00, 0.00, 0.00
105, 96097.95, 127886.77, 21858.91, 18231.31, 8599.68, 29318.31, 107871.82, 72147.02, 0.00, 0.00, 0.00
106, 96094.10, 127920.23, 21852.27, 18231.27, 8600.15, 29322.49, 107857.20, 72146.38, 0.00, 0.00, 0.00
107, 96085.20, 127806.13, 21830.90, 18222.28, 8586.94, 29315.52, 107862.63, 72137.62, 0.00, 0.00, 0.00
108, 96095.04, 127864.22, 21845.74, 18236.59, 8577.21, 29321.35, 107869.38, 72146.42, 0.07, -0.19, 0.98
109, 96102.57, 127971.69, 21860.81, 18246.31, 8593.82, 29334.41, 107875.57, 72157.42, 0.00, 0.00, 0.00
110, 96096.61, 127897.98, 21851.13, 18236.25, 8586.85, 29322.67, 107880.89, 72152.84, 0.00, 0.00, 0.00
111, 96096.65, 127800.09, 21834.88, 18223.62, 8588.01, 29312.17, 107884.55, 72152.05, 0.00, 0.00, 0.00
112, 96085.63, 127835.70, 21843.93, 18233.59, 8584.90, 29314.02, 107877.36, 72137.99, 0.00, 0.00, 0.00
113, 96078.92, 127853.52, 21846.62, 18238.55, 8576.90, 29312.05, 107863.28, 72127.84, 0.00, 0.00, 0.00
114, 96076.13, 127855.93, 21841.03, 18235.18, 8579.58, 29312.37, 107845.80, 72127.36, 0.00, 0.00, 0.00
115, 96066.61, 127916.37, 21847.78, 18241.75, 8588.75, 29320.37, 107855.95, 72129.08, 0.00, 0.00, 0.00
116, 96072.55, 127921.22, 21859.74, 18251.29, 8596.53, 29327.52, 107869.98, 72136.95, 0.00, 0.00, 0.00
117, 96068.84, 127885.52, 21853.32, 18247.27, 8587.03, 29323.99, 107874.79, 72132.56, 0.00, 0.00, 0.00
118, 96071.30, 127970.20, 21863.54, 18253.91, 8576.32, 29329.94, 107888.83, 72135.65, 0.08, -0.19, 0.98
119, 96063.75, 127907.49, 21847.40, 18239.47, 8587.74, 29319.99, 107885.92, 72121.09, 0.00, 0.00, 0.00
120, 96069.36, 127885.50, 21852.38, 18243.25, 8601.76, 29321.78, 107865.88, 72123.69, 0.00, 0.00, 0.00
121, 96053.47, 127829.69, 21847.02, 18236.12, 8587.32, 29311.14, 107851.97, 72117.03, 0.00, 0.00, 0.00
122, 96051.74, 127786.41, 21845.05, 18236.88, 8585.30, 29315.54, 107845.33, 72118.15, 0.00, 0.00, 0.00
123, 96062.05, 127808.01, 21849.68, 18242.76, 8583.61, 29321.49, 107863.91, 72128.90, 0.00, 0.00, 0.00
124, 96065.76, 127909.22, 21861.14, 18242.00, 8589.28, 29322.38, 107882.57, 72136.34, 0.00, 0.00, 0.00
125, 96054.79, 127966.37, 21861.48, 18244.01, 8596.46, 29321.64, 107873.23, 72124.65, 0.00, 0.00, 0.00
126, 96046.52, 127840.58, 21839.17, 18229.43, 8588.61, 29312.37, 107854.80, 72110.93, 0.00, 0.00, 0.00
127, 96069.09, 127860.22, 21851.47, 18234.62, 8590.16, 29317.29, 107867.19, 72125.30, 0.00, 0.00, 0.00
128, 96065.96, 127863.38, 21854.57, 18239.38, 8582.91, 29318.76, 107882.44, 72128.61, 0.08, -0.19, 0.98
129, 96058.14, 127915.74, 21856.18, 18241.57, 8584.99, 29322.07, 107889.25, 72132.05, 0.00, 0.00, 0.00
130, 96060.20, 127905.48, 21852.25, 18236.07, 8591.32, 29322.67, 107884.36, 72137.19, 0.00, 0.00, 0.00
131, 96056.17, 127861.12, 21852.36, 18235.20, 8592.84, 29331.21, 107880.78, 72127.80, 0.00, 0.00, 0.00
132, 96060.77, 127933.54, 21865.21, 18240.95, 8599.36, 29339.77, 107875.95, 72133.01, 0.00, 0.00, 0.00
133, 96061.34, 128019.81, 21865.77, 18242.89, 8597.17, 29337.40, 107891.66, 72134.30, 0.00, 0.00, 0.00
134, 96036.19, 127878.55, 21844.83, 18227.36, 8572.36, 29313.62, 107875.13, 72106.03, 0.00, 0.00, 0.00
135, 96049.71, 127792.45, 21851.33, 18235.45, 8580.50, 29338.92, 107886.73, 72118.30, 0.00, 0.00, 0.00
136, 96048.77, 127780.74, 21851.38, 18239.09, 8594.02, 29352.33, 107871.93, 72115.24, 0.00, 0.00, 0.00
137, 96047.32, 127837.76, 21856.65, 18240.72, 8582.24, 29324.50, 107879.71, 72109.66, 0.00, 0.00, 0.00
138, 96046.59, 127883.60, 21858.46, 18240.83, 8580.16, 29321.13, 107874.95, 72108.96, 0.09, -0.19, 0.97
139, 96043.68, 127908.55, 21866.91, 18249.57, 8587.61, 29328.01, 107855.57, 72110.91, 0.00, 0.00, 0.00
140, 96036.73, 127894.98, 21864.41, 18247.72, 8579.00, 29328.84, 107863.99, 72105.01, 0.00, 0.00, 0.00
141, 96034.53, 127896.61, 21856.83, 18237.03, 8589.71, 29332.62, 107867.19, 72098.74, 0.00, 0.00, 0.00
142, 96040.62, 127893.52, 21858.17, 18242.38, 8598.63, 29343.77, 107877.74, 72103.13, 0.00, 0.00, 0.00
143, 96046.05, 127873.05, 21859.47, 18242.13, 8578.69, 29333.22, 107886.19, 72112.70, 0.00, 0.00, 0.00
144, 96045.89, 127864.70, 21858.51, 18244.81, 8596.50, 29334.81, 107895.80, 72115.80, 0.00, 0.00, 0.00
145, 96036.68, 127924.64, 21866.96, 18249.28, 8617.54, 29341.54, 107883.44, 72101.45, 0.00, 0.00, 0.00
146, 96034.16, 127963.30, 21869.88, 18250.67, 8613.98, 29342.21, 107888.42, 72095.52, 0.00, 0.00, 0.00
147, 96026.48, 127927.23, 21854.64, 18240.14, 8596.68, 29331.21, 107885.23, 72087.81, 0.00, 0.00, 0.00
148, 96040.57, 127850.27, 21858.80, 18243.96, 8600.06, 29336.78, 107880.45, 72101.52, 0.08, -0.19, 0.98
149, 96038.91, 127784.02, 21850.80, 18238.93, 8594.20, 29334.23, 107857.87, 72094.56, 0.00, 0.00, 0.00
150, 96042.78, 127824.95, 21852.03, 18237.77, 8597.06, 29334.12, 107860.02, 72097.09, 0.00, 0.00, 0.00
151, 96050.98, 127890.06, 21863.67, 18243.25, 8605.94, 29342.10, 107875.30, 72112.78, 0.00, 0.00, 0.00
152, 96050.38, 127906.63, 21854.84, 18238.31, 8601.46, 29345.27, 107878.66, 72114.28, 0.00, 0.00, 0.00
153, 96051.77, 127906.27, 21851.69, 18236.18, 8593.04, 29343.28, 107871.17, 72114.30, 0.00, 0.00, 0.00
154, 96053.45, 127921.95, 21858.40, 18242.55, 8595.23, 29345.89, 107891.42, 72114.01, 0.00, 0.00, 0.00
155, 96058.52, 127948.04, 21863.49, 18245.08, 8591.92, 29343.23, 107908.07, 72116.47, 0.00, 0.00, 0.00
156, 96059.16, 127834.12, 21856.50, 18239.00, 8587.54, 29334.76, 107892.41, 72119.04, 0.00, 0.00, 0.00
157, 96058.49, 127822.00, 21857.19, 18239.31, 8584.68, 29338.96, 107892.18, 72118.86, 0.00, 0.00, 0.00
158, 96055.91, 127838.92, 21852.34, 18233.19, 8559.40, 29324.10, 107882.55, 72115.94, 0.08, -0.19, 0.98
159, 96057.67, 127873.72, 21855.74, 18235.47, 8592.37, 29325.62, 107868.46, 72120.31, 0.00, 0.00, 0.00
160, 96056.66, 127933.63, 21856.18, 18237.41, 8595.68, 29326.92, 107864.64, 72119.82, 0.00, 0.00, 0.00
161, 96062.05, 127963.17, 21871.70, 18252.37, 8599.90, 29336.57, 107871.08, 72122.21, 0.00, 0.00, 0.00
162, 96057.42, 127868.80, 21869.91, 18248.05, 8594.29, 29332.60, 107882.95, 72115.35, 0.00, 0.00, 0.00
163, 96064.91, 127944.60, 21874.96, 18244.92, 8603.92, 29339.57, 107889.41, 72120.80, 0.00, 0.00, 0.00
164, 96057.80, 127953.00, 21874.36, 18248.12, 8594.11, 29336.39, 107873.94, 72114.03, 0.00, 0.00, 0.00
165, 96055.10, 127880.38, 21863.00, 18248.95, 8601.02, 29339.70, 107875.48, 72107.46, 0.00, 0.00, 0.00
166, 96060.22, 127879.69, 21858.93, 18248.97, 8601.38, 29344.89, 107881.43, 72111.60, 0.00, 0.00, 0.00
167, 96059.66, 127860.09, 21868.48, 18254.63, 8605.04, 29343.73, 107879.48, 72117.21, 0.00, 0.00, 0.00
168, 96050.47, 127860.24, 21859.25, 18245.77, 8594.83, 29341.74, 107875.62, 72109.74, 0.08, -0.19, 0.98
169, 96046.25, 127847.68, 21853.90, 18240.07, 8589.51, 29331.66, 107871.05, 72101.54, 0.00, 0.00, 0.00
170, 96052.28, 127877.70, 21861.26, 18246.67, 8598.22, 29340.82, 107865.70, 72105.01, 0.00, 0.00, 0.00
171, 96048.88, 127874.17, 21858.29, 18242.55, 8597.11, 29332.51, 107881.09, 72101.65, 0.00, 0.00, 0.00
172, 96044.05, 127886.84, 21856.05, 18237.32, 8586.96, 29319.10, 107872.51, 72100.04, 0.00, 0.00, 0.00
173, 96059.39, 127949.14, 21872.99, 18247.56, 8592.26, 29328.35, 107860.82, 72117.56, 0.00, 0.00, 0.00
174, 96054.36, 127916.21, 21859.98, 18236.54, 8580.28, 29321.76, 107858.18, 72112.60, 0.00, 0.00, 0.00
175, 96048.77, 127817.87, 21850.26, 18231.33, 8574.93, 29322.69, 107859.61, 72106.48, 0.00, 0.00, 0.00
176, 96055.45, 127876.43, 21861.68, 18230.55, 8601.51, 29325.94, 107872.09, 72113.25, 0.00, 0.00, 0.00
177, 96055.63, 127892.38, 21857.01, 18231.09, 8587.76, 29325.15, 107880.65, 72112.73, 0.00, 0.00, 0.00
178, 96060.10, 127901.62, 21854.28, 18233.28, 8578.29, 29325.26, 107888.02, 72114.68, 0.08, -0.20, 0.98
179, 96063.99, 127877.01, 21855.74, 18230.42, 8577.50, 29321.08, 107874.37, 72119.13, 0.00, 0.00, 0.00
180, 96066.74, 127927.37, 21858.62, 18227.87, 8601.91, 29323.50, 107888.88, 72123.66, 0.00, 0.00, 0.00
181, 96077.36, 127960.18, 21862.91, 18236.07, 8601.89, 29328.46, 107902.73, 72134.69, 0.00, 0.00, 0.00
182, 96081.27, 127936.69, 21863.65, 18241.24, 8588.57, 29325.04, 107879.66, 72136.41, 0.00, 0.00, 0.00
183, 96068.60, 127929.58, 21865.88, 18235.85, 8579.90, 29316.64, 107859.08, 72118.80, 0.00, 0.00, 0.00
184, 96057.05, 127827.48, 21839.22, 18219.49, 8568.61, 29306.82, 107858.65, 72106.57, 0.00, 0.00, 0.00
185, 96071.23, 127850.07, 21855.38, 18235.96, 8582.94, 29323.61, 107870.66, 72126.35, 0.00, 0.00, 0.00
186, 96065.47, 127805.62, 21854.82, 18237.75, 8587.43, 29325.82, 107885.25, 72123.94, 0.00, 0.00, 0.00
187, 96062.56, 127837.58, 21851.67, 18237.59, 8587.29, 29329.91, 107890.26, 72118.57, 0.00, 0.00, 0.00
188, 96061.91, 127874.23, 21853.66, 18236.47, 8579.05, 29327.75, 107872.55, 72113.70, 0.08, -0.19, 0.98
189, 96062.95, 127912.03, 21862.71, 18240.52, 8590.60, 29340.08, 107883.75, 72112.36, 0.00, 0.00, 0.00
190, 96077.27, 127977.66, 21866.76, 18246.24, 8603.52, 29348.96, 107908.83, 72124.88, 0.00, 0.00, 0.00
191, 96072.20, 127926.00, 21859.51, 18240.39, 8595.32, 29333.51, 107891.66, 72118.48, 0.00, 0.00, 0.00
192, 96076.40, 127886.46, 21860.59, 18242.22, 8592.73, 29336.87, 107871.30, 72122.46, 0.00, 0.00, 0.00
193, 96078.95, 127971.47, 21875.23, 18251.00, 8590.69, 29339.81, 107870.50, 72125.19, 0.00, 0.00, 0.00
194, 96056.80, 127903.90, 21854.60, 18236.38, 8584.70, 29323.88, 107870.14, 72105.23, 0.00, 0.00, 0.00
195, 96065.23, 127830.27, 21857.84, 18247.14, 8597.33, 29334.52, 107887.69, 72113.41, 0.00, 0.00, 0.00
196, 96071.77, 127822.42, 21863.07, 18255.07, 8582.13, 29342.43, 107907.47, 72119.64, 0.00, 0.00, 0.00
197, 96067.03, 127874.88, 21860.72, 18247.27, 8601.31, 29337.60, 107889.84, 72113.50, 0.00, 0.00, 0.00
198, 96061.91, 127884.59, 21855.36, 18242.53, 8608.57, 29332.51, 107885.18, 72110.19, 0.08, -0.20, 0.98
199, 96067.10, 127903.00, 21859.18, 18244.46, 8601.76, 29334.52, 107899.02, 72114.75, 0.00, 0.00, 0.00
200, 96068.53, 127896.30, 21861.97, 18242.13, 8600.30, 29334.03, 107903.89, 72117.01, 0.00, 0.00, 0.00
201, 96075.75, 127960.58, 21871.92, 18252.63, 8601.71, 29337.83, 107918.22, 72121.74, 0.00, 0.00, 0.00
202, 96082.48, 128069.99, 21884.95, 18262.02, 8610.43, 29345.74, 107922.11, 72126.69, 0.00, 0.00, 0.00
203, 96075.95, 127867.02, 21867.36, 18247.70, 8592.35, 29331.99, 107910.04, 72120.31, 0.00, 0.00, 0.00
204, 96078.95, 127809.30, 21860.59, 18245.62, 8598.09, 29334.18, 107926.98, 72124.59, 0.00, 0.00, 0.00
205, 96080.65, 127841.65, 21856.65, 18241.91, 8593.82, 29330.58, 107927.85, 72127.38, 0.00, 0.00, 0.00
206, 96077.31, 127861.80, 21854.39, 18238.73, 8597.35, 29327.28, 107923.25, 72125.41, 0.00, 0.00, 0.00
207, 96069.49, 127875.82, 21851.51, 18232.41, 8589.71, 29322.47, 107921.84, 72119.76, 0.00, 0.00, 0.00
208, 96075.17, 127874.93, 21847.64, 18229.50, 8580.86, 29319.14, 107920.79, 72125.01, 0.09, -0.20, 0.98
209, 96090.88, 127913.28, 21855.58, 18235.87, 8582.85, 29325.91, 107926.29, 72138.09, 0.00, 0.00, 0.00
210, 96087.35, 127913.89, 21856.96, 18235.27, 8590.18, 29332.08, 107914.29, 72134.11, 0.00, 0.00, 0.00
211, 96092.96, 127960.89, 21865.01, 18237.17, 8610.27, 29338.70, 107951.79, 72139.91, 0.00, 0.00, 0.00
212, 96097.01, 128012.26, 21872.50, 18241.84, 8606.74, 29338.36, 107940.10, 72140.41, 0.00, 0.00, 0.00
213, 96095.48, 127939.33, 21862.15, 18237.30, 8595.21, 29336.24, 107929.20, 72137.75, 0.00, 0.00, 0.00
214, 96090.82, 127832.38, 21855.80, 18230.06, 8592.99, 29339.75, 107953.60, 72135.18, 0.00, 0.00, 0.00
215, 96095.89, 127816.73, 21855.63, 18235.02, 8595.21, 29342.47, 107944.20, 72138.82, 0.00, 0.00, 0.00
216, 96097.21, 127877.63, 21858.26, 18241.77, 8606.11, 29348.42, 107946.05, 72139.05, 0.00, 0.00, 0.00
217, 96095.24, 127946.55, 21870.94, 18243.45, 8592.77, 29344.55, 107950.25, 72135.58, 0.00, 0.00, 0.00
218, 96097.09, 127961.52, 21876.30, 18246.94, 8621.27, 29345.11, 107946.54, 72137.17, 0.08, -0.20, 0.98
219, 96088.83, 127872.74, 21869.01, 18244.01, 8603.10, 29336.93, 107940.19, 72131.05, 0.00, 0.00, 0.00
220, 96075.41, 127838.70, 21857.57, 18231.74, 8596.73, 29329.60, 107937.45, 72116.96, 0.00, 0.00, 0.00
221, 96086.70, 127974.64, 21884.26, 18251.07, 8614.03, 29345.07, 107940.57, 72129.48, 0.00, 0.00, 0.00
222, 96090.50, 127980.77, 21884.59, 18253.53, 8613.31, 29348.26, 107947.59, 72132.63, 0.00, 0.00, 0.00
223, 96086.55, 127891.63, 21866.53, 18247.27, 8606.67, 29344.98, 107957.72, 72130.04, 0.00, 0.00, 0.00
224, 96086.03, 127882.82, 21860.41, 18243.72, 8604.66, 29340.89, 107974.39, 72127.09, 0.00, 0.00, 0.00
225, 96079.77, 127890.95, 21856.47, 18235.11, 8596.64, 29333.91, 107943.30, 72121.88, 0.00, 0.00, 0.00
226, 96095.13, 127807.25, 21852.85, 18231.09, 8587.63, 29330.65, 107936.81, 72132.45, 0.00, 0.00, 0.00
227, 96102.84, 127837.69, 21859.63, 18232.85, 8606.85, 29337.18, 107944.52, 72141.62, 0.00, 0.00, 0.00
228, 96086.70, 127888.02, 21869.82, 18243.45, 8604.77, 29338.74, 107952.84, 72131.54, 0.08, -0.20, 0.98
229, 96090.84, 127930.38, 21876.19, 18244.86, 8600.91, 29335.17, 107961.91, 72141.80, 0.00, 0.00, 0.00
230, 96091.42, 127981.26, 21873.80, 18241.46, 8596.35, 29332.77, 107961.91, 72137.21, 0.00, 0.00, 0.00
231, 96080.34, 128017.60, 21877.08, 18239.78, 8599.14, 29330.58, 107969.30, 72114.34, 0.00, 0.00, 0.00
232, 96071.77, 127860.06, 21852.38, 18223.22, 8585.13, 29316.81, 107956.11, 72101.83, 0.00, 0.00, 0.00
233, 96082.50, 127823.70, 21846.79, 18223.09, 8569.30, 29318.04, 107967.39, 72117.79, 0.00, 0.00, 0.00
234, 96073.38, 127884.67, 21848.29, 18220.25, 8568.21, 29318.02, 107979.24, 72118.86, 0.00, 0.00, 0.00
235, 96082.16, 127907.25, 21859.76, 18232.83, 8612.22, 29330.29, 107978.66, 72134.40, 0.00, 0.00, 0.00
236, 96087.51, 127963.11, 21863.98, 18236.54, 8605.29, 29335.39, 107984.47, 72138.80, 0.00, 0.00, 0.00
237, 96081.14, 127907.59, 21861.75, 18230.55, 8596.50, 29335.79, 107976.98, 72127.31, 0.00, 0.00, 0.00
238, 96087.98, 127912.73, 21869.17, 18236.65, 8591.43, 29335.41, 107976.89, 72128.72, 0.08, -0.20, 0.98
239, 96090.66, 127982.27, 21870.02, 18237.95, 8592.30, 29336.53, 107981.09, 72130.26, 0.00, 0.00, 0.00
240, 96083.30, 127989.37, 21870.73, 18237.21, 8594.76, 29333.74, 107981.84, 72129.37, 0.00, 0.00, 0.00
241, 96069.23, 127848.98, 21857.28, 18228.58, 8582.94, 29326.85, 107972.00, 72114.99, 0.00, 0.00, 0.00
242, 96070.43, 127848.71, 21857.08, 18235.56, 8593.28, 29332.33, 107972.34, 72110.91, 0.00, 0.00, 0.00
243, 96074.90, 127874.39, 21864.34, 18247.27, 8597.00, 29338.45, 107978.84, 72118.95, 0.00, 0.00, 0.00
244, 96076.04, 127929.38, 21877.53, 18252.63, 8606.09, 29351.88, 108005.77, 72130.95, 0.00, 0.00, 0.00
245, 96067.02, 127995.98, 21875.45, 18245.55, 8599.05, 29344.35, 107989.12, 72119.63, 0.00, 0.00, 0.00
246, 96068.09, 127934.09, 21872.48, 18251.34, 8600.30, 29342.32, 107994.88, 72110.77, 0.00, 0.00, 0.00
247, 96064.06, 127863.22, 21861.93, 18241.39, 8604.35, 29340.75, 107988.18, 72103.71, 0.00, 0.00, 0.00
248, 96066.54, 127809.41, 21854.06, 18231.78, 8589.17, 29330.61, 107972.09, 72109.05, 0.08, -0.19, 0.98
249, 96073.77, 127889.01, 21863.18, 18241.88, 8592.66, 29336.71, 107987.95, 72122.21, 0.00, 0.00, 0.00
250, 96069.91, 127935.73, 21866.76, 18237.77, 8611.48, 29340.40, 107980.55, 72115.73, 0.00, 0.00, 0.00
251, 96073.65, 127921.06, 21878.33, 18248.57, 8616.24, 29346.81, 107990.86, 72123.20, 0.00, 0.00, 0.00
252, 96074.57, 127900.23, 21873.26, 18252.14, 8606.94, 29341.98, 107994.41, 72124.92, 0.00, 0.00, 0.00
253, 96074.84, 127916.26, 21854.66, 18235.27, 8599.92, 29335.72, 107983.20, 72121.70, 0.00, 0.00, 0.00
254, 96080.69, 127950.16, 21860.99, 18239.04, 8597.60, 29338.43, 107994.55, 72125.32, 0.00, 0.00, 0.00
255, 96084.02, 127963.35, 21872.77, 18253.39, 8598.13, 29358.97, 107999.63, 72125.52, 0.00, 0.00, 0.00
0, 96082.57, 127952.09, 21877.62, 18253.39, 8630.05, 29350.81, 108003.31, 72124.79, 0.00, 0.00, 0.00
1, 96074.37, 127894.95, 21863.51, 18238.44, 8597.78, 29315.97, 108003.89, 72114.73, 0.00, 0.00, 0.00
2, 96072.45, 127862.68, 21860.50, 18232.96, 8598.63, 29315.88, 108001.26, 72114.15, 0.07, -0.19, 0.98
3, 96068.04, 127898.45, 21855.83, 18228.88, 8584.17, 29308.08, 107998.33, 72110.68, 0.00, 0.00, 0.00
4, 96086.26, 127921.63, 21868.92, 18242.64, 8597.22, 29319.86, 107990.77, 72129.95, 0.00, 0.00, 0.00
5, 96093.12, 127952.94, 21876.43, 18246.55, 8605.04, 29326.34, 107979.75, 72136.14, 0.00, 0.00, 0.00
6, 96094.20, 127953.70, 21874.56, 18245.82, 8601.49, 29327.90, 107992.63, 72137.08, 0.00, 0.00, 0.00
7, 96091.17, 127908.21, 21867.11, 18242.73, 8595.68, 29324.84, 108010.30, 72131.96, 0.00, 0.00, 0.00
8, 96087.69, 127824.39, 21861.66, 18237.32, 8578.20, 29315.41, 108011.07, 72127.06, 0.00, 0.00, 0.00
9, 96093.97, 127903.27, 21871.65, 18244.63, 8593.80, 29330.94, 108013.13, 72135.09, 0.00, 0.00, 0.00
10, 96097.14, 127999.52, 21892.44, 18254.98, 8612.08, 29344.11, 108019.77, 72138.64, 0.00, 0.00, 0.00
11, 96084.96, 127927.16, 21875.45, 18247.52, 8601.17, 29336.44, 108012.99, 72124.98, 0.00, 0.00, 0.00
12, 96080.71, 127852.40, 21860.77, 18244.25, 8596.68, 29335.39, 108015.96, 72121.68, 0.08, -0.20, 0.99
13, 96081.38, 127850.81, 21860.03, 18240.45, 8596.32, 29331.10, 108009.73, 72121.27, 0.00, 0.00, 0.00
14, 96080.45, 127883.42, 21860.61, 18241.12, 8599.23, 29331.59, 107985.01, 72119.02, 0.00, 0.00, 0.00
15, 96094.62, 127968.92, 21884.88, 18261.71, 8618.25, 29350.83, 108010.76, 72134.02, 0.00, 0.00, 0.00
16, 96091.22, 127954.79, 21871.63, 18253.53, 8608.64, 29343.97, 108013.88, 72128.97, 0.00, 0.00, 0.00
17, 96094.37, 127889.05, 21869.06, 18253.80, 8612.93, 29350.21, 108028.13, 72130.02, 0.00, 0.00, 0.00
18, 96095.55, 127899.92, 21874.51, 18252.86, 8603.37, 29345.56, 108031.70, 72133.95, 0.00, 0.00, 0.00
19, 96095.98, 127911.12, 21861.53, 18247.43, 8589.08, 29335.48, 108006.02, 72134.20, 0.00, 0.00, 0.00
20, 96098.35, 127935.84, 21864.39, 18248.88, 8620.58, 29336.80, 108015.80, 72139.20, 0.00, 0.00, 0.00
21, 96101.41, 127911.27, 21860.50, 18244.74, 8617.83, 29334.63, 108020.92, 72145.64, 0.00, 0.00, 0.00
22, 96111.23, 127964.98, 21871.25, 18252.03, 8613.09, 29333.80, 108009.68, 72155.88, 0.08, -0.20, 0.99
23, 96111.67, 127938.16, 21869.33, 18246.20, 8600.93, 29323.01, 108012.55, 72155.32, 0.00, 0.00, 0.00
24, 96109.66, 127954.26, 21862.26, 18234.69, 8590.92, 29315.83, 108014.45, 72152.39, 0.00, 0.00, 0.00
25, 96110.24, 127907.07, 21861.99, 18232.68, 8590.69, 29319.07, 108020.77, 72156.19, 0.00, 0.00, 0.00
26, 96104.43, 127941.91, 21858.29, 18228.03, 8579.40, 29319.03, 108024.93, 72150.40, 0.00, 0.00, 0.00
27, 96105.99, 127907.61, 21849.25, 18220.38, 8566.33, 29316.08, 108015.72, 72151.65, 0.00, 0.00, 0.00
28, 96117.84, 127892.20, 21854.26, 18227.80, 8576.81, 29307.81, 108019.20, 72165.69, 0.00, 0.00, 0.00
29, 96110.13, 127956.16, 21854.08, 18227.53, 8574.93, 29304.34, 108030.54, 72161.17, 0.00, 0.00, 0.00
30, 96112.25, 127920.33, 21857.90, 18230.55, 8591.34, 29330.36, 108041.65, 72160.98, 0.00, 0.00, 0.00
31, 96111.70, 127874.52, 21856.83, 18228.61, 8595.34, 29322.60, 108027.03, 72157.87, 0.00, 0.00, 0.00
32, 96114.91, 127938.09, 21866.31, 18229.70, 8587.41, 29311.32, 108034.07, 72160.39, 0.08, -0.19, 0.98
33, 96114.46, 127943.98, 21890.98, 18234.64, 8583.99, 29314.92, 108028.80, 72161.11, 0.00, 0.00, 0.00
34, 96115.76, 127984.97, 21876.19, 18245.75, 8604.50, 29318.74, 108031.52, 72161.66, 0.00, 0.00, 0.00
35, 96108.66, 127907.80, 21858.26, 18239.65, 8598.51, 29320.44, 108019.02, 72155.27, 0.00, 0.00, 0.00
36, 96107.94, 127903.80, 21861.53, 18237.44, 8595.59, 29327.37, 108022.20, 72153.41, 0.00, 0.00, 0.00
37, 96106.59, 127945.85, 21872.54, 18246.24, 8591.92, 29329.47, 108044.26, 72152.73, 0.00, 0.00, 0.00
38, 96106.22, 127933.05, 21873.77, 18248.21, 8604.71, 29339.30, 108043.48, 72156.28, 0.00, 0.00, 0.00
39, 96100.52, 127907.34, 21865.21, 18244.83, 8596.88, 29330.05, 108029.55, 72153.02, 0.00, 0.00, 0.00
40, 96095.73, 127888.01, 21858.40, 18245.28, 8588.19, 29340.98, 108022.16, 72148.91, 0.00, 0.00, 0.00
41, 96091.40, 127916.50, 21856.56, 18240.90, 8613.56, 29342.34, 108030.94, 72143.13, 0.00, 0.00, 0.00
42, 96097.74, 127973.79, 21866.42, 18242.53, 8606.56, 29336.62, 108056.95, 72148.14, 0.08, -0.19, 0.98
43, 96119.43, 128116.15, 21900.60, 18260.44, 8616.28, 29350.72, 108059.64, 72170.63, 0.00, 0.00, 0.00
44, 96103.09, 127976.09, 21885.42, 18241.55, 8600.79, 29345.52, 108039.48, 72156.46, 0.00, 0.00, 0.00
45, 96102.08, 127798.77, 21871.54, 18241.62, 8606.49, 29355.97, 108054.79, 72158.05, 0.00, 0.00, 0.00
46, 96107.00, 127843.28, 21866.60, 18229.01, 8602.76, 29336.84, 108031.66, 72164.26, 0.00, 0.00, 0.00
47, 96099.83, 127883.60, 21857.61, 18221.19, 8575.04, 29319.30, 108026.18, 72156.21, 0.00, 0.00, 0.00
48, 96100.85, 127923.92, 21848.23, 18218.55, 8574.67, 29303.31, 108027.77, 72150.67, 0.00, 0.00, 0.00
49, 96118.27, 127955.98, 21846.59, 18216.51, 8579.18, 29308.34, 108031.41, 72165.42, 0.00, 0.00, 0.00
50, 96112.81, 127973.63, 21861.28, 18220.72, 8586.00, 29316.79, 108034.74, 72165.33, 0.00, 0.00, 0.00
51, 96099.78, 127941.76, 21863.25, 18223.11, 8575.60, 29316.28, 108034.43, 72153.38, 0.00, 0.00, 0.00
52, 96097.84, 127948.58, 21861.77, 18224.14, 8578.71, 29322.54, 108063.46, 72152.08, 0.07, -0.20, 0.98
53, 96093.90, 128062.84, 21866.60, 18224.00, 8598.45, 29327.10, 108065.61, 72151.00, 0.00, 0.00, 0.00
54, 96095.71, 127946.05, 21872.86, 18235.58, 8603.21, 29330.45, 108069.81, 72157.27, 0.00, 0.00, 0.00
55, 96087.82, 127843.28, 21859.45, 18226.86, 8592.17, 29319.92, 108049.07, 72158.63, 0.00, 0.00, 0.00
56, 96091.27, 127860.87, 21856.34, 18220.11, 8585.64, 29320.03, 108052.45, 72166.92, 0.00, 0.00, 0.00
57, 96095.69, 127895.16, 21857.30, 18222.33, 8580.90, 29321.08, 108072.20, 72167.81, 0.00, 0.00, 0.00
58, 96106.26, 128001.46, 21875.16, 18239.00, 8594.09, 29332.42, 108049.94, 72171.48, 0.00, 0.00, 0.00
59, 96098.08, 127998.24, 21874.60, 18236.05, 8597.78, 29324.26, 108056.40, 72166.07, 0.00, 0.00, 0.00
60, 96080.27, 127869.23, 21862.82, 18229.59, 8590.47, 29322.38, 108059.70, 72152.50, 0.00, 0.00, 0.00
61, 96069.65, 127881.66, 21871.54, 18236.92, 8577.28, 29328.24, 108061.49, 72148.05, 0.08, -0.19, 0.98
62, 96070.84, 127917.15, 21881.98, 18244.37, 8612.66, 29340.71, 108064.51, 72151.07, 0.00, 0.00, 0.00
63, 96063.46, 127921.09, 21878.18, 18243.81, 8612.33, 29343.91, 108059.82, 72148.63, 0.00, 0.00, 0.00
64, 96065.80, 127987.96, 21881.57, 18243.78, 8612.08, 29346.54, 108058.23, 72151.49, 0.00, 0.00, 0.00
65, 96067.93, 128028.40, 21887.48, 18250.60, 8613.74, 29354.86, 108088.96, 72146.53, 0.00, 0.00, 0.00
66, 96062.43, 127979.45, 21880.44, 18243.02, 8611.99, 29345.54, 108064.71, 72131.11, 0.00, 0.00, 0.00
67, 96059.97, 127929.73, 21856.96, 18223.62, 8592.75, 29333.24, 108031.72, 72126.17, 0.00, 0.00, 0.00
68, 96072.00, 127958.57, 21880.59, 18245.46, 8599.88, 29344.91, 108066.97, 72148.81, 0.00, 0.00, 0.00
69, 96062.72, 127879.89, 21867.49, 18229.52, 8603.59, 29331.25, 108057.63, 72140.61, 0.00, 0.00, 0.00
70, 96073.59, 127901.95, 21866.62, 18231.18, 8613.45, 29339.93, 108055.30, 72149.22, 0.00, 0.00, 0.00
71, 96077.12, 128001.73, 21885.17, 18243.92, 8617.02, 29354.57, 108069.30, 72157.51, 0.08, -0.19, 0.98
72, 96062.05, 127940.62, 21880.52, 18240.16, 8603.70, 29345.58, 108060.58, 72146.27, 0.00, 0.00, 0.00
73, 96058.81, 127824.77, 21853.26, 18226.64, 8592.93, 29327.77, 108068.58, 72139.65, 0.00, 0.00, 0.00
74, 96073.88, 127891.05, 21855.15, 18225.68, 8600.53, 29327.32, 108065.56, 72146.58, 0.00, 0.00, 0.00
75, 96069.18, 127899.45, 21864.52, 18235.25, 8604.82, 29331.97, 108057.43, 72149.55, 0.00, 0.00, 0.00
76, 96061.98, 127950.73, 21871.14, 18239.83, 8602.69, 29334.61, 108064.29, 72151.00, 0.00, 0.00, 0.00
77, 96064.64, 127961.14, 21873.57, 18239.49, 8601.73, 29333.47, 108058.79, 72154.20, 0.00, 0.00, 0.00
78, 96074.77, 127959.64, 21872.81, 18234.51, 8601.93, 29331.05, 108064.73, 72162.56, 0.00, 0.00, 0.00
79, 96076.38, 128000.48, 21874.47, 18234.53, 8605.96, 29337.98, 108080.70, 72163.23, 0.00, 0.00, 0.00
80, 96072.29, 127968.12, 21864.48, 18226.97, 8597.73, 29329.82, 108074.55, 72154.70, 0.00, 0.00, 0.00
81, 96079.95, 127945.63, 21864.07, 18225.92, 8592.37, 29324.97, 108068.24, 72156.44, 0.08, -0.19, 0.98
82, 96084.24, 127917.98, 21861.10, 18222.33, 8591.32, 29324.44, 108057.91, 72160.28, 0.00, 0.00, 0.00
83, 96081.70, 127869.32, 21871.94, 18224.09, 8595.54, 29328.37, 108070.19, 72166.59, 0.00, 0.00, 0.00
84, 96082.14, 127908.37, 21876.30, 18234.17, 8605.04, 29339.97, 108091.69, 72170.77, 0.00, 0.00, 0.00
85, 96077.92, 127937.18, 21866.24, 18237.01, 8587.43, 29334.50, 108097.15, 72163.74, 0.00, 0.00, 0.00
86, 96081.88, 127955.66, 21865.75, 18231.78, 8595.92, 29338.83, 108090.55, 72162.91, 0.00, 0.00, 0.00
87, 96078.03, 127920.28, 21873.51, 18226.46, 8602.49, 29338.74, 108069.85, 72157.22, 0.00, 0.00, 0.00
88, 96072.35, 127936.95, 21876.48, 18230.22, 8614.34, 29339.53, 108060.04, 72153.84, 0.00, 0.00, 0.00
89, 96080.20, 128030.20, 21890.89, 18248.61, 8624.26, 29352.27, 108070.19, 72164.41, 0.00, 0.00, 0.00
90, 96083.28, 128011.97, 21885.24, 18247.36, 8615.86, 29348.82, 108082.30, 72164.68, 0.00, 0.00, 0.00
91, 96066.54, 127921.06, 21874.22, 18235.76, 8601.35, 29335.28, 108088.34, 72150.65, 0.08, -0.20, 0.98
92, 96064.30, 127847.23, 21862.06, 18232.27, 8596.12, 29332.48, 108075.33, 72152.86, 0.00, 0.00, 0.00
93, 96073.56, 127918.09, 21868.88, 18236.54, 8600.08, 29330.96, 108059.64, 72162.90, 0.00, 0.00, 0.00
94, 96075.64, 127913.17, 21868.03, 18233.08, 8603.14, 29331.77, 108059.02, 72162.98, 0.00, 0.00, 0.00
95, 96073.85, 127914.91, 21864.79, 18229.77, 8604.84, 29336.22, 108071.89, 72157.44, 0.00, 0.00, 0.00
96, 96083.84, 127983.29, 21874.56, 18235.76, 8613.09, 29346.88, 108089.21, 72167.55, 0.00, 0.00, 0.00
97, 96073.41, 127967.22, 21871.49, 18224.29, 8598.83, 29330.96, 108083.89, 72158.73, 0.00, 0.00, 0.00
98, 96075.75, 128004.55, 21880.37, 18229.99, 8600.53, 29331.50, 108048.71, 72160.17, 0.00, 0.00, 0.00
99, 96084.20, 127912.08, 21872.12, 18230.91, 8604.48, 29335.05, 108047.91, 72165.53, 0.00, 0.00, 0.00
100, 96089.12, 127892.85, 21873.71, 18233.99, 8610.88, 29340.37, 108077.19, 72170.78, 0.00, 0.00, 0.00
101, 96086.88, 127940.22, 21875.29, 18232.27, 8605.06, 29332.13, 108095.89, 72169.00, 0.08, -0.20, 0.98
102, 96089.99, 127920.05, 21870.24, 18226.91, 8597.35, 29327.07, 108081.92, 72172.71, 0.00, 0.00, 0.00
103, 96087.60, 127918.98, 21863.47, 18216.34, 8591.07, 29328.19, 108054.07, 72171.73, 0.00, 0.00, 0.00
104, 96094.23, 128005.93, 21871.92, 18220.78, 8599.05, 29326.78, 108059.62, 72177.42, 0.00, 0.00, 0.00
105, 96099.89, 128059.40, 21878.13, 18225.79, 8607.83, 29332.01, 108077.50, 72184.09, 0.00, 0.00, 0.00
106, 96096.54, 127950.79, 21862.02, 18214.99, 8595.77, 29328.26, 108086.77, 72183.17, 0.00, 0.00, 0.00
107, 96114.24, 127828.30, 21854.98, 18214.82, 8596.84, 29334.21, 108086.35, 72205.74, 0.00, 0.00, 0.00
108, 96124.55, 127909.38, 21863.71, 18218.82, 8577.10, 29334.16, 108085.21, 72219.02, 0.00, 0.00, 0.00
109, 96117.70, 127912.63, 21867.96, 18220.94, 8601.82, 29345.02, 108090.59, 72206.21, 0.00, 0.00, 0.00
110, 96114.98, 127963.71, 21874.49, 18225.75, 8644.40, 29358.61, 108115.48, 72198.45, 0.00, 0.00, 0.00
111, 96117.35, 128006.16, 21887.01, 18230.15, 8624.04, 29355.30, 108125.60, 72199.80, 0.08, -0.20, 0.99
112, 96115.09, 127969.34, 21877.53, 18220.29, 8602.56, 29343.28, 108093.57, 72196.06, 0.00, 0.00, 0.00
113, 96115.09, 127946.81, 21870.80, 18222.79, 8592.30, 29341.67, 108062.73, 72195.82, 0.00, 0.00, 0.00
114, 96115.65, 127940.22, 21889.08, 18237.64, 8613.20, 29358.30, 108069.66, 72190.68, 0.00, 0.00, 0.00
115, 96114.84, 128010.07, 21896.57, 18244.23, 8613.65, 29357.94, 108072.70, 72184.80, 0.00, 0.00, 0.00
116, 96105.21, 127922.59, 21870.35, 18228.21, 8598.72, 29350.81, 108060.42, 72175.52, 0.00, 0.00, 0.00
117, 96110.60, 127978.87, 21874.09, 18231.42, 8601.06, 29361.65, 108072.49, 72183.91, 0.00, 0.00, 0.00
118, 96115.54, 127979.06, 21892.39, 18244.41, 8608.89, 29352.78, 108084.85, 72189.49, 0.00, 0.00, 0.00
119, 96108.45, 127898.66, 21867.36, 18231.69, 8604.28, 29334.96, 108060.82, 72180.51, 0.00, 0.00, 0.00
120, 96108.81, 127848.20, 21855.60, 18221.95, 8595.54, 29332.75, 108053.73, 72179.93, 0.00, 0.00, 0.00
121, 96119.45, 127892.27, 21868.25, 18234.60, 8595.41, 29339.37, 108066.95, 72188.66, 0.08, -0.20, 0.99
122, 96115.16, 127914.09, 21866.11, 18228.03, 8586.44, 29337.47, 108075.89, 72185.94, 0.00, 0.00, 0.00
123, 96114.94, 127914.42, 21866.11, 18225.75, 8601.08, 29341.56, 108090.77, 72187.26, 0.00, 0.00, 0.00
124, 96114.82, 127944.48, 21869.59, 18227.47, 8617.69, 29350.21, 108081.34, 72186.03, 0.00, 0.00, 0.00
125, 96117.44, 128000.28, 21880.21, 18224.29, 8610.58, 29343.08, 108065.00, 72190.32, 0.00, 0.00, 0.00
126, 96118.51, 128049.12, 21885.73, 18222.93, 8599.16, 29338.83, 108072.45, 72191.30, 0.00, 0.00, 0.00
127, 96114.09, 127918.65, 21855.29, 18210.97, 8580.66, 29326.29, 108060.51, 72184.60, 0.00, 0.00, 0.00
128, 96114.30, 127889.21, 21844.49, 18204.87, 8566.33, 29311.25, 108057.90, 72186.61, 0.00, 0.00, 0.00
129, 96106.20, 127931.23, 21835.11, 18192.49, 8552.85, 29299.52, 108036.55, 72177.67, 0.00, 0.00, 0.00
130, 96101.99, 127945.12, 21835.73, 18184.02, 8583.29, 29298.69, 108039.70, 72172.39, 0.00, 0.00, 0.00
131, 96113.88, 127983.58, 21863.16, 18198.68, 8596.12, 29314.60, 108073.38, 72183.26, 0.08, -0.20, 0.98
132, 96109.48, 127865.36, 21840.20, 18188.26, 8574.15, 29303.74, 108064.83, 72175.34, 0.00, 0.00, 0.00
133, 96113.02, 127868.52, 21830.34, 18181.38, 8570.20, 29303.74, 108066.19, 72179.21, 0.00, 0.00, 0.00
134, 96113.34, 127894.06, 21835.04, 18173.20, 8570.84, 29298.17, 108049.76, 72180.42, 0.00, 0.00, 0.00
135, 96108.99, 127909.22, 21830.97, 18174.38, 8552.18, 29280.87, 108038.85, 72177.91, 0.00, 0.00, 0.00
136, 96111.83, 127939.44, 21835.96, 18183.79, 8557.10, 29293.32, 108044.77, 72178.16, 0.00, 0.00, 0.00
137, 96117.52, 128013.76, 21845.12, 18187.68, 8562.82, 29299.87, 108068.06, 72183.52, 0.00, 0.00, 0.00
138, 96111.27, 128037.91, 21843.60, 18181.11, 8563.31, 29298.87, 108060.20, 72179.73, 0.00, 0.00, 0.00
139, 96116.70, 127899.09, 21843.89, 18187.44, 8573.03, 29310.24, 108049.98, 72184.51, 0.00, 0.00, 0.00
140, 96117.55, 127876.36, 21845.48, 18191.73, 8570.98, 29308.25, 108066.30, 72182.74, 0.00, 0.00, 0.00
